# EGG_ProjY_E3426.5(4.5)_B3406.0(2.0)_B3473.5(1.5)
# X axis : Energy (keV) [Y axis]
# Y axis : Counts/1 keV
# N Bins : 12000
# X Min : 0
# X Max : 12000
# X value at the center of the bins
0.5 0
1.5 0
2.5 0
3.5 0
4.5 0
5.5 43.5714
6.5 52.5714
7.5 47.1429
8.5 33.8571
9.5 13.2857
10.5 18.8571
11.5 78
12.5 40.7143
13.5 26.7143
14.5 51.5714
15.5 82.4286
16.5 118.143
17.5 141.714
18.5 115.714
19.5 247.286
20.5 300.429
21.5 264.143
22.5 341
23.5 325.857
24.5 407.571
25.5 471.857
26.5 547
27.5 562
28.5 679.571
29.5 566.143
30.5 797.571
31.5 760.143
32.5 956.857
33.5 864.286
34.5 1005.86
35.5 960.714
36.5 1036.57
37.5 917.857
38.5 982.143
39.5 943.714
40.5 1076.29
41.5 1212.43
42.5 958.429
43.5 1037.71
44.5 1249.29
45.5 1083.86
46.5 1290
47.5 1134.43
48.5 1184.71
49.5 1212.71
50.5 1171.71
51.5 1234.57
52.5 1247.14
53.5 1113.29
54.5 1334.43
55.5 1308.14
56.5 1317
57.5 1382.86
58.5 1746.86
59.5 2014.14
60.5 1497.86
61.5 1245.14
62.5 1150.29
63.5 1436.14
64.5 1197.43
65.5 1337.29
66.5 1475.86
67.5 1564.86
68.5 1383.29
69.5 1397.29
70.5 1287.86
71.5 1247.86
72.5 1258.14
73.5 1731
74.5 2239.43
75.5 2599.43
76.5 2840.71
77.5 3045.57
78.5 2047.71
79.5 1406.57
80.5 1136.57
81.5 1185.86
82.5 1287
83.5 1308.29
84.5 1156.29
85.5 1583
86.5 1796.86
87.5 1982.57
88.5 1747.14
89.5 1589.57
90.5 1366.14
91.5 1311.43
92.5 1334.71
93.5 1096
94.5 1303.57
95.5 1391.86
96.5 1333.29
97.5 1269.43
98.5 1126.14
99.5 1350.86
100.5 1280.43
101.5 1437.57
102.5 1292.29
103.5 1367.71
104.5 1238.29
105.5 1277
106.5 1370.29
107.5 1367.57
108.5 1413
109.5 1407.14
110.5 1319.29
111.5 1335.29
112.5 1369.86
113.5 1370.43
114.5 1435.14
115.5 1451.57
116.5 1426.43
117.5 1475.43
118.5 1515.29
119.5 1613.71
120.5 1473.29
121.5 1479.29
122.5 1290.29
123.5 1445.14
124.5 1368.57
125.5 1557.57
126.5 1439.14
127.5 1467.14
128.5 1350.57
129.5 1435.57
130.5 1785.57
131.5 1644.43
132.5 1649.71
133.5 1678.14
134.5 1702.29
135.5 1675.29
136.5 1740.71
137.5 1594.86
138.5 1578.71
139.5 1834.43
140.5 1549.43
141.5 1747.43
142.5 1820.57
143.5 1751
144.5 1698.29
145.5 1513.29
146.5 1537.57
147.5 1380.71
148.5 1683
149.5 1494.71
150.5 1744
151.5 1694.57
152.5 1847.43
153.5 1698.57
154.5 1743.43
155.5 1898.57
156.5 1728.29
157.5 1794.29
158.5 1782.57
159.5 1798.14
160.5 2155.14
161.5 2005.43
162.5 1679.14
163.5 1685.57
164.5 1721.86
165.5 1592.43
166.5 1859
167.5 1688.71
168.5 1534.14
169.5 1848
170.5 1574.43
171.5 1664.29
172.5 1615
173.5 1664
174.5 1939.71
175.5 1399
176.5 1711.57
177.5 1604.43
178.5 1583.57
179.5 1804.57
180.5 1705.29
181.5 1572.57
182.5 1914.29
183.5 1679.57
184.5 1709.86
185.5 1812.57
186.5 1638.71
187.5 1906.57
188.5 1756
189.5 1860.57
190.5 1751.86
191.5 2040.71
192.5 1833
193.5 2105.43
194.5 2007.86
195.5 2056.29
196.5 1854.29
197.5 1906.43
198.5 2091.71
199.5 1940.43
200.5 1900.43
201.5 1822.71
202.5 1857
203.5 1831.86
204.5 1789
205.5 1994
206.5 1737.57
207.5 1736.43
208.5 1819.57
209.5 1683
210.5 2025.86
211.5 1957.71
212.5 1738.71
213.5 1834.57
214.5 1974.86
215.5 2070.14
216.5 1796.29
217.5 2031.29
218.5 2055.29
219.5 2122.29
220.5 1964.86
221.5 2044.43
222.5 2181.43
223.5 2107.43
224.5 1882.57
225.5 1984
226.5 2079.29
227.5 2004
228.5 1782.14
229.5 1841
230.5 2025.14
231.5 2064.29
232.5 1968.29
233.5 1935.71
234.5 1827.86
235.5 1723.29
236.5 1918.14
237.5 1839.14
238.5 1817.86
239.5 1692.14
240.5 1656.29
241.5 1637.14
242.5 1858.86
243.5 1810.71
244.5 2009.71
245.5 1937.86
246.5 1950.14
247.5 1863.29
248.5 1879.86
249.5 1812.71
250.5 1957.14
251.5 1633.29
252.5 1805.29
253.5 1921.86
254.5 2020.29
255.5 1786.43
256.5 2014.57
257.5 1959.14
258.5 1956
259.5 1736.71
260.5 1816.29
261.5 1784.57
262.5 1899
263.5 1762.86
264.5 1546.57
265.5 1662
266.5 1607.57
267.5 1692
268.5 1717.43
269.5 1556.14
270.5 1651.43
271.5 1523.29
272.5 1519.29
273.5 1544.86
274.5 1517.86
275.5 1565.43
276.5 1407.14
277.5 1605.43
278.5 1405.43
279.5 1602.29
280.5 1520.43
281.5 1519.14
282.5 1603.86
283.5 1667.14
284.5 1551
285.5 1530.14
286.5 1584
287.5 1503.57
288.5 1493.14
289.5 1560.14
290.5 1505.29
291.5 1446.14
292.5 1370.57
293.5 1553.86
294.5 1581.86
295.5 1644.29
296.5 1465.14
297.5 1385.43
298.5 1669
299.5 1497.14
300.5 1421.86
301.5 1463
302.5 1478.14
303.5 1282.43
304.5 1317.71
305.5 1411.43
306.5 1403.57
307.5 1401.29
308.5 1469.43
309.5 1609.43
310.5 1358
311.5 1510.57
312.5 1517
313.5 1282.14
314.5 1398.57
315.5 1448.29
316.5 1472.57
317.5 1572.57
318.5 1763.43
319.5 1755.86
320.5 1546.86
321.5 1609.86
322.5 1664.71
323.5 1726.71
324.5 1473.86
325.5 1752.29
326.5 1580.86
327.5 1559.86
328.5 1483.43
329.5 1416
330.5 1436.57
331.5 1406.71
332.5 1224.57
333.5 1311
334.5 1223
335.5 1212
336.5 1206
337.5 1165.57
338.5 1065.71
339.5 1170
340.5 1216.71
341.5 961.429
342.5 1071.86
343.5 1069.71
344.5 1186.86
345.5 1192.14
346.5 1240.71
347.5 1272.29
348.5 1207.86
349.5 1117.57
350.5 1156.86
351.5 1181.86
352.5 1269.71
353.5 1100.71
354.5 1227.57
355.5 1265.14
356.5 1363.29
357.5 1424.14
358.5 1236
359.5 1224.14
360.5 1315.57
361.5 1207.14
362.5 1095.43
363.5 1230.86
364.5 1320.71
365.5 1228.71
366.5 1104.43
367.5 1184.71
368.5 1253.71
369.5 1252.43
370.5 1200.29
371.5 1097
372.5 1275.14
373.5 1205.86
374.5 1041.14
375.5 1090
376.5 1158.43
377.5 1248.43
378.5 1266.43
379.5 1350.29
380.5 1334.14
381.5 1255.86
382.5 1095.57
383.5 1173.43
384.5 1146.86
385.5 1161.43
386.5 1152.86
387.5 1135.43
388.5 936.714
389.5 1022.14
390.5 1040.86
391.5 1174.14
392.5 1074.43
393.5 1144.57
394.5 1198.57
395.5 1027.29
396.5 1050
397.5 1039.29
398.5 1037
399.5 1073.14
400.5 1053.29
401.5 992
402.5 1196.71
403.5 1530
404.5 1478.86
405.5 1275.86
406.5 1193.29
407.5 1041.43
408.5 1168.71
409.5 1122.14
410.5 1066.43
411.5 1099.43
412.5 1114.43
413.5 1150
414.5 1012.14
415.5 978.714
416.5 930.714
417.5 1000.29
418.5 977
419.5 1054.57
420.5 1166.86
421.5 1256.57
422.5 1056.57
423.5 1055.86
424.5 1131.57
425.5 1081.43
426.5 1058.57
427.5 1019.57
428.5 988.429
429.5 979.857
430.5 1055.57
431.5 1123.57
432.5 1290
433.5 1158.71
434.5 1179.43
435.5 1177.29
436.5 1147
437.5 1176
438.5 1371.86
439.5 1090
440.5 1130.43
441.5 1034.71
442.5 1155.57
443.5 1193.86
444.5 1104.86
445.5 1131
446.5 1119.86
447.5 1075.86
448.5 996
449.5 1224.29
450.5 943.429
451.5 1019.29
452.5 887.857
453.5 891.571
454.5 859.571
455.5 853.857
456.5 924
457.5 941.286
458.5 841.143
459.5 931
460.5 979.714
461.5 1045.57
462.5 822.143
463.5 925.857
464.5 900.143
465.5 945
466.5 1085.86
467.5 856
468.5 896.571
469.5 949.429
470.5 965.571
471.5 941.857
472.5 1133.71
473.5 1096.29
474.5 1151.57
475.5 1206.14
476.5 1208.71
477.5 1205.86
478.5 1313
479.5 1161.29
480.5 1012.86
481.5 1119.71
482.5 1185.14
483.5 911.571
484.5 955.571
485.5 885.429
486.5 970.714
487.5 928.857
488.5 783.286
489.5 809
490.5 929.571
491.5 820
492.5 936.143
493.5 832.143
494.5 831
495.5 828.571
496.5 709.143
497.5 776.571
498.5 802.714
499.5 775.143
500.5 803.286
501.5 843.286
502.5 964.286
503.5 1027.71
504.5 1005.29
505.5 1150.57
506.5 1295.43
507.5 2046.86
508.5 3367.43
509.5 6209.43
510.5 8793.14
511.5 8425.86
512.5 5645.43
513.5 2990.14
514.5 1617.86
515.5 1070.14
516.5 1108.57
517.5 1150.86
518.5 992.571
519.5 841.143
520.5 855
521.5 841.286
522.5 774.143
523.5 763.286
524.5 792.143
525.5 869.857
526.5 836.714
527.5 798.143
528.5 802.857
529.5 915.857
530.5 841.429
531.5 948.429
532.5 870.714
533.5 932.143
534.5 878.143
535.5 727.571
536.5 918.571
537.5 894
538.5 829.143
539.5 999.286
540.5 845.429
541.5 960.143
542.5 809.286
543.5 1069.71
544.5 1065.43
545.5 1007.57
546.5 1035.57
547.5 1006.86
548.5 867.286
549.5 797.857
550.5 821.286
551.5 753.143
552.5 875.143
553.5 679.429
554.5 706.143
555.5 662.857
556.5 731.571
557.5 731.286
558.5 675.429
559.5 774.429
560.5 698.714
561.5 651.286
562.5 712.286
563.5 724.143
564.5 636.286
565.5 677.143
566.5 708.857
567.5 694.429
568.5 738.714
569.5 775.857
570.5 893
571.5 736
572.5 729.143
573.5 772.286
574.5 765.714
575.5 772.857
576.5 738.286
577.5 718.571
578.5 758.571
579.5 834.286
580.5 797.571
581.5 805.429
582.5 798.429
583.5 940
584.5 791
585.5 674.571
586.5 714.857
587.5 740
588.5 726.857
589.5 832
590.5 772.714
591.5 812.286
592.5 638.857
593.5 861.143
594.5 833.286
595.5 836.429
596.5 865.286
597.5 688
598.5 795.571
599.5 837.429
600.5 744.143
601.5 827.286
602.5 766
603.5 783.286
604.5 787.143
605.5 803.714
606.5 777.143
607.5 721.571
608.5 895.286
609.5 778.286
610.5 841.286
611.5 834.429
612.5 814.714
613.5 768.571
614.5 750.714
615.5 733.143
616.5 749.143
617.5 696.714
618.5 801
619.5 735.286
620.5 777.429
621.5 785.714
622.5 765.286
623.5 785.714
624.5 682
625.5 767.286
626.5 681.857
627.5 1110.14
628.5 1347.29
629.5 1125.29
630.5 805.429
631.5 791.857
632.5 850
633.5 746.429
634.5 696.429
635.5 919.429
636.5 1030
637.5 1317.14
638.5 1047.43
639.5 908.429
640.5 738.571
641.5 775.143
642.5 908.571
643.5 851
644.5 1385.57
645.5 2078.71
646.5 1724.71
647.5 1156.29
648.5 894.286
649.5 977.286
650.5 1082.86
651.5 1076.71
652.5 790.429
653.5 804.571
654.5 861.571
655.5 626.571
656.5 765.714
657.5 793.143
658.5 655.714
659.5 772
660.5 732.143
661.5 769.143
662.5 686.571
663.5 753.714
664.5 726.857
665.5 666.286
666.5 692.571
667.5 687.857
668.5 771.857
669.5 734.143
670.5 834.571
671.5 676.143
672.5 681.857
673.5 790.429
674.5 785.571
675.5 714.857
676.5 734
677.5 738.857
678.5 767.714
679.5 759
680.5 810.143
681.5 744.571
682.5 736.286
683.5 688.571
684.5 690.429
685.5 747.571
686.5 703.429
687.5 748.857
688.5 778.429
689.5 744
690.5 760.143
691.5 719.714
692.5 758.857
693.5 693.571
694.5 829.143
695.5 741.857
696.5 686.714
697.5 809.857
698.5 793.286
699.5 773.429
700.5 720.571
701.5 730
702.5 882.714
703.5 1080.86
704.5 1310.14
705.5 1006.57
706.5 755.143
707.5 774.714
708.5 739.143
709.5 725.429
710.5 694.143
711.5 713.143
712.5 721.714
713.5 746.714
714.5 729.143
715.5 784
716.5 766.429
717.5 857.571
718.5 761.429
719.5 724.571
720.5 675.714
721.5 679.429
722.5 664.857
723.5 754.571
724.5 805.286
725.5 753.571
726.5 714.286
727.5 793
728.5 735.571
729.5 709.571
730.5 740.429
731.5 657.571
732.5 797
733.5 632.571
734.5 729.143
735.5 678.429
736.5 716.857
737.5 674.857
738.5 707.143
739.5 637.571
740.5 656.857
741.5 661.714
742.5 596.143
743.5 842
744.5 753.286
745.5 719.143
746.5 762.143
747.5 650.714
748.5 748.714
749.5 797
750.5 683.143
751.5 771.571
752.5 814.714
753.5 692.286
754.5 705.571
755.5 769.571
756.5 822.429
757.5 823
758.5 796.429
759.5 1156.57
760.5 2076.43
761.5 2146
762.5 1462.14
763.5 879.571
764.5 789.286
765.5 736.857
766.5 720.429
767.5 722.286
768.5 697
769.5 778.143
770.5 764
771.5 738.429
772.5 782.286
773.5 640.143
774.5 803.286
775.5 764
776.5 768
777.5 748.429
778.5 764
779.5 849.143
780.5 885.143
781.5 838
782.5 852.857
783.5 735.143
784.5 832.714
785.5 953.571
786.5 791
787.5 830.857
788.5 856.714
789.5 755.143
790.5 814.571
791.5 823.571
792.5 794.857
793.5 762.143
794.5 835.714
795.5 727.429
796.5 704.571
797.5 808.429
798.5 695.143
799.5 795.571
800.5 649.857
801.5 705.286
802.5 862.429
803.5 931.571
804.5 913.429
805.5 863.857
806.5 756.429
807.5 813.286
808.5 759.857
809.5 681.286
810.5 746.714
811.5 735.714
812.5 774.857
813.5 862.286
814.5 765.714
815.5 718.857
816.5 830.429
817.5 740
818.5 711.429
819.5 794.429
820.5 725
821.5 824.143
822.5 823
823.5 866.286
824.5 754.857
825.5 813.143
826.5 802.714
827.5 913.857
828.5 738.714
829.5 843.143
830.5 815.429
831.5 818.714
832.5 847.571
833.5 819.143
834.5 825.571
835.5 785.286
836.5 781.714
837.5 744.429
838.5 825.714
839.5 782.143
840.5 804.143
841.5 797.143
842.5 885.857
843.5 687.571
844.5 763
845.5 852.286
846.5 820.143
847.5 807.571
848.5 830
849.5 833.143
850.5 702.714
851.5 793.429
852.5 858.571
853.5 802
854.5 738.143
855.5 876
856.5 865
857.5 790
858.5 847.429
859.5 836.571
860.5 783.429
861.5 810.857
862.5 857.714
863.5 799.571
864.5 834.857
865.5 886.429
866.5 920.429
867.5 1038.29
868.5 1178.14
869.5 1088
870.5 1095.57
871.5 1022.43
872.5 881.143
873.5 945.571
874.5 960.429
875.5 936.429
876.5 940
877.5 1171.71
878.5 1274.57
879.5 946.143
880.5 867.429
881.5 971.143
882.5 871.857
883.5 852.714
884.5 914.714
885.5 811.143
886.5 911.571
887.5 850.143
888.5 925.714
889.5 894.571
890.5 865.714
891.5 909.429
892.5 995.571
893.5 972.143
894.5 888
895.5 981
896.5 795.143
897.5 961.429
898.5 885.143
899.5 945.286
900.5 882
901.5 895
902.5 918.857
903.5 1042.43
904.5 981.429
905.5 960.571
906.5 1093.14
907.5 946.857
908.5 993.571
909.5 1031.57
910.5 972.571
911.5 955.286
912.5 902
913.5 1037.71
914.5 1020.29
915.5 957.286
916.5 1056.14
917.5 1027.29
918.5 1102.43
919.5 1022.29
920.5 1140
921.5 1118
922.5 1005.43
923.5 1129.43
924.5 1141.43
925.5 1071.43
926.5 1133.14
927.5 1235.29
928.5 1045.71
929.5 1209
930.5 1201.14
931.5 1219.29
932.5 1181
933.5 1128
934.5 1275.14
935.5 1207.43
936.5 1263.29
937.5 1272.57
938.5 1353.71
939.5 1270
940.5 1125.29
941.5 1262.14
942.5 1315.29
943.5 1210.71
944.5 1212.29
945.5 1185.29
946.5 1062.71
947.5 1067
948.5 1064.57
949.5 981
950.5 967
951.5 910.857
952.5 948.714
953.5 937
954.5 945
955.5 878.286
956.5 868.571
957.5 829.857
958.5 894.429
959.5 846.571
960.5 768.857
961.5 708.286
962.5 860.286
963.5 918.143
964.5 777.143
965.5 848.571
966.5 872.429
967.5 882.714
968.5 833
969.5 777.286
970.5 814.286
971.5 774.286
972.5 775.857
973.5 788.286
974.5 754.857
975.5 708.429
976.5 789.429
977.5 769.143
978.5 821.714
979.5 745.571
980.5 822
981.5 681.571
982.5 592.571
983.5 632.714
984.5 550.857
985.5 645.857
986.5 701
987.5 758.286
988.5 796.286
989.5 773.286
990.5 737.857
991.5 744.857
992.5 679.143
993.5 690.714
994.5 819.857
995.5 682.714
996.5 650.143
997.5 699.857
998.5 702.143
999.5 760
1000.5 1003.14
1001.5 1342
1002.5 1326.43
1003.5 927.714
1004.5 753
1005.5 690.571
1006.5 676
1007.5 682.286
1008.5 620.714
1009.5 555
1010.5 667
1011.5 658.571
1012.5 568.143
1013.5 639.429
1014.5 650
1015.5 624.429
1016.5 558.286
1017.5 531.286
1018.5 652.429
1019.5 623.571
1020.5 685.571
1021.5 577.143
1022.5 667.429
1023.5 665.857
1024.5 803
1025.5 763.857
1026.5 605.429
1027.5 634.143
1028.5 617.429
1029.5 531.143
1030.5 518.286
1031.5 577
1032.5 560.429
1033.5 583
1034.5 566.571
1035.5 586.857
1036.5 514.286
1037.5 625
1038.5 555.429
1039.5 567.143
1040.5 569.286
1041.5 501.857
1042.5 576.714
1043.5 508.429
1044.5 493.143
1045.5 456.143
1046.5 411.857
1047.5 519.571
1048.5 511.429
1049.5 404.857
1050.5 455.143
1051.5 514.571
1052.5 467.571
1053.5 470.571
1054.5 478.143
1055.5 488
1056.5 431.429
1057.5 486.571
1058.5 426.286
1059.5 381.571
1060.5 503.714
1061.5 407.571
1062.5 464.429
1063.5 466
1064.5 444.571
1065.5 519.143
1066.5 510.857
1067.5 473.286
1068.5 425.429
1069.5 381
1070.5 529.286
1071.5 559.714
1072.5 927.857
1073.5 2115.14
1074.5 2462.43
1075.5 1387.14
1076.5 651.571
1077.5 443.857
1078.5 432
1079.5 387.143
1080.5 369.143
1081.5 378
1082.5 437.143
1083.5 395.143
1084.5 402.857
1085.5 344.857
1086.5 415.143
1087.5 433.143
1088.5 364.571
1089.5 416.429
1090.5 419
1091.5 365.857
1092.5 398.714
1093.5 416
1094.5 428.857
1095.5 418.143
1096.5 411.286
1097.5 324.429
1098.5 412.714
1099.5 391.571
1100.5 409
1101.5 369.429
1102.5 355.571
1103.5 425.714
1104.5 395.714
1105.5 350.286
1106.5 422.429
1107.5 426.429
1108.5 431.714
1109.5 329.571
1110.5 403
1111.5 374.571
1112.5 389.714
1113.5 424.571
1114.5 380.429
1115.5 389.143
1116.5 343.714
1117.5 407.286
1118.5 380.143
1119.5 428.714
1120.5 354.857
1121.5 448.571
1122.5 475.857
1123.5 930.143
1124.5 1855.57
1125.5 4008.57
1126.5 4142
1127.5 2527.86
1128.5 785.286
1129.5 407.143
1130.5 386.429
1131.5 326.571
1132.5 385
1133.5 387.857
1134.5 376.286
1135.5 359.714
1136.5 373.429
1137.5 326.143
1138.5 364.143
1139.5 363.429
1140.5 357.429
1141.5 387
1142.5 331
1143.5 370.571
1144.5 401.143
1145.5 370.714
1146.5 414.286
1147.5 442.143
1148.5 450
1149.5 450.286
1150.5 470
1151.5 509.286
1152.5 736.429
1153.5 2266.57
1154.5 9515.86
1155.5 32617.9
1156.5 71601.3
1157.5 73186
1158.5 30422.4
1159.5 6549
1160.5 1401.14
1161.5 523.429
1162.5 331.714
1163.5 348.571
1164.5 370
1165.5 290
1166.5 243.571
1167.5 226.714
1168.5 232.857
1169.5 161.429
1170.5 162.143
1171.5 217
1172.5 193.429
1173.5 169.143
1174.5 171.857
1175.5 176.857
1176.5 195.286
1177.5 180.286
1178.5 183.857
1179.5 172
1180.5 171
1181.5 171.571
1182.5 222.143
1183.5 181.857
1184.5 280.429
1185.5 158.571
1186.5 201.429
1187.5 256
1188.5 312.286
1189.5 864.429
1190.5 1828.14
1191.5 1913.71
1192.5 1025.43
1193.5 370
1194.5 189.714
1195.5 208.429
1196.5 157.714
1197.5 152.429
1198.5 159.429
1199.5 207.714
1200.5 154.143
1201.5 224.143
1202.5 190.714
1203.5 225.857
1204.5 161.286
1205.5 202.571
1206.5 233.143
1207.5 271.286
1208.5 161.429
1209.5 161
1210.5 157.286
1211.5 184.714
1212.5 196.143
1213.5 201.143
1214.5 209.857
1215.5 193.143
1216.5 179.286
1217.5 140.714
1218.5 184.714
1219.5 162.714
1220.5 183.857
1221.5 206
1222.5 154.143
1223.5 174
1224.5 177.429
1225.5 189.429
1226.5 157.286
1227.5 121.714
1228.5 117.286
1229.5 148
1230.5 141.571
1231.5 162.429
1232.5 145
1233.5 181.429
1234.5 175.429
1235.5 133.429
1236.5 155.429
1237.5 198.714
1238.5 162
1239.5 126.143
1240.5 224.714
1241.5 277.571
1242.5 372.286
1243.5 335.714
1244.5 205.571
1245.5 213.286
1246.5 135.714
1247.5 160.143
1248.5 139.714
1249.5 156
1250.5 205.286
1251.5 169.714
1252.5 169.714
1253.5 158.429
1254.5 161.571
1255.5 198.714
1256.5 178.429
1257.5 158
1258.5 206.429
1259.5 173.714
1260.5 242.857
1261.5 225
1262.5 346.714
1263.5 251.857
1264.5 199.429
1265.5 244.143
1266.5 274.143
1267.5 314.714
1268.5 196.571
1269.5 110.143
1270.5 161.429
1271.5 152.857
1272.5 145.571
1273.5 126.571
1274.5 169.286
1275.5 181.857
1276.5 132.429
1277.5 130.857
1278.5 159.714
1279.5 179.286
1280.5 133.143
1281.5 173.714
1282.5 135.714
1283.5 164.429
1284.5 147.857
1285.5 198.714
1286.5 138
1287.5 128.429
1288.5 143.143
1289.5 158.857
1290.5 198.857
1291.5 191.429
1292.5 247.429
1293.5 128.429
1294.5 163.429
1295.5 222.429
1296.5 166.429
1297.5 109.286
1298.5 198.571
1299.5 202.857
1300.5 204.429
1301.5 184.143
1302.5 174.143
1303.5 149
1304.5 189
1305.5 165
1306.5 130
1307.5 169.571
1308.5 179.714
1309.5 234.143
1310.5 211.429
1311.5 187.857
1312.5 173.857
1313.5 158.429
1314.5 206.857
1315.5 150.571
1316.5 175.143
1317.5 154.714
1318.5 181.857
1319.5 188
1320.5 181.857
1321.5 299.143
1322.5 201.857
1323.5 174.571
1324.5 181.143
1325.5 173.714
1326.5 201
1327.5 137.571
1328.5 223.571
1329.5 171.143
1330.5 152.571
1331.5 192.714
1332.5 161.286
1333.5 135.286
1334.5 182.571
1335.5 136.143
1336.5 173.857
1337.5 170.857
1338.5 119.286
1339.5 138.714
1340.5 160.857
1341.5 131
1342.5 184.286
1343.5 84.8571
1344.5 175
1345.5 213.857
1346.5 161.714
1347.5 163.429
1348.5 150.857
1349.5 162.714
1350.5 216.429
1351.5 144
1352.5 170.571
1353.5 187.143
1354.5 163
1355.5 163.143
1356.5 191.857
1357.5 149.857
1358.5 143.143
1359.5 196
1360.5 152.286
1361.5 173
1362.5 174.714
1363.5 180.286
1364.5 198.857
1365.5 111.429
1366.5 157.571
1367.5 183.714
1368.5 149.286
1369.5 191.429
1370.5 180.143
1371.5 182.571
1372.5 167.571
1373.5 167.714
1374.5 237
1375.5 218.857
1376.5 196.429
1377.5 155.429
1378.5 149.857
1379.5 181
1380.5 168
1381.5 163.571
1382.5 86
1383.5 180.857
1384.5 268.286
1385.5 259.286
1386.5 218.714
1387.5 195.143
1388.5 201.571
1389.5 167.429
1390.5 193.857
1391.5 215.857
1392.5 140.571
1393.5 152.429
1394.5 179
1395.5 112.857
1396.5 186
1397.5 182.714
1398.5 199.714
1399.5 115.429
1400.5 157.286
1401.5 125
1402.5 155.286
1403.5 104.143
1404.5 168.714
1405.5 176.429
1406.5 136.429
1407.5 175.286
1408.5 101.429
1409.5 197.714
1410.5 190.571
1411.5 236.714
1412.5 185
1413.5 177.857
1414.5 182.286
1415.5 163.714
1416.5 142.143
1417.5 149.857
1418.5 176.571
1419.5 196.714
1420.5 190.571
1421.5 160.714
1422.5 175.143
1423.5 168.286
1424.5 145.571
1425.5 115.429
1426.5 184.286
1427.5 222.429
1428.5 252.571
1429.5 283.714
1430.5 198.571
1431.5 132.857
1432.5 234.429
1433.5 148.286
1434.5 153.286
1435.5 164.429
1436.5 123.714
1437.5 153.286
1438.5 156.429
1439.5 157.857
1440.5 188.857
1441.5 153
1442.5 211.857
1443.5 193.714
1444.5 154.143
1445.5 190.429
1446.5 151.143
1447.5 171.286
1448.5 197.571
1449.5 119.143
1450.5 193.286
1451.5 193.714
1452.5 179.143
1453.5 303.143
1454.5 445.143
1455.5 449.571
1456.5 280
1457.5 158.571
1458.5 229.429
1459.5 165.143
1460.5 165.143
1461.5 164.571
1462.5 176.571
1463.5 153
1464.5 153.571
1465.5 156.429
1466.5 108.714
1467.5 176.143
1468.5 145
1469.5 156
1470.5 96.1429
1471.5 132
1472.5 143.857
1473.5 126.286
1474.5 163.571
1475.5 165.857
1476.5 136.286
1477.5 146
1478.5 132.429
1479.5 152
1480.5 175.429
1481.5 149.286
1482.5 164.143
1483.5 184.286
1484.5 152.429
1485.5 164.857
1486.5 170.143
1487.5 172.429
1488.5 189.857
1489.5 168.571
1490.5 210
1491.5 162.286
1492.5 169.857
1493.5 127
1494.5 139.286
1495.5 203.714
1496.5 158.286
1497.5 239.714
1498.5 400.286
1499.5 654.286
1500.5 396.286
1501.5 224.571
1502.5 170.286
1503.5 210.857
1504.5 136.857
1505.5 186.714
1506.5 169
1507.5 173.571
1508.5 109.857
1509.5 159.857
1510.5 179.286
1511.5 162
1512.5 126.857
1513.5 169.143
1514.5 171.143
1515.5 146.857
1516.5 168.714
1517.5 133.429
1518.5 186.143
1519.5 181.714
1520.5 132.571
1521.5 150.857
1522.5 158
1523.5 162.571
1524.5 125.714
1525.5 128.286
1526.5 155.286
1527.5 181.571
1528.5 179.571
1529.5 163.286
1530.5 144
1531.5 159.286
1532.5 157.429
1533.5 129.571
1534.5 110.143
1535.5 172
1536.5 138.286
1537.5 119.857
1538.5 173.571
1539.5 272.571
1540.5 153.429
1541.5 161.143
1542.5 170.143
1543.5 197
1544.5 120.714
1545.5 206.429
1546.5 169.429
1547.5 141.857
1548.5 185.143
1549.5 159.143
1550.5 203.857
1551.5 183.571
1552.5 135.429
1553.5 137.714
1554.5 173
1555.5 192.429
1556.5 165.714
1557.5 145.714
1558.5 152.857
1559.5 186.143
1560.5 176
1561.5 224.286
1562.5 246.571
1563.5 238.143
1564.5 177.857
1565.5 175.143
1566.5 140.714
1567.5 167.571
1568.5 129.857
1569.5 220.714
1570.5 258.286
1571.5 415.857
1572.5 464.429
1573.5 287
1574.5 196
1575.5 247.714
1576.5 227.714
1577.5 260.571
1578.5 263.857
1579.5 242.714
1580.5 167.429
1581.5 160.286
1582.5 241.286
1583.5 180
1584.5 120.143
1585.5 127.571
1586.5 177.857
1587.5 166.286
1588.5 258.143
1589.5 165.143
1590.5 175.286
1591.5 192.714
1592.5 170.429
1593.5 143.286
1594.5 157
1595.5 152.857
1596.5 175.571
1597.5 202.714
1598.5 150.571
1599.5 147.429
1600.5 193.571
1601.5 145.429
1602.5 225.429
1603.5 141.714
1604.5 174.143
1605.5 171.571
1606.5 164.714
1607.5 174.429
1608.5 186.286
1609.5 229.143
1610.5 184.571
1611.5 107
1612.5 164.286
1613.5 191.714
1614.5 175.571
1615.5 152.857
1616.5 159.429
1617.5 197
1618.5 166.857
1619.5 158.286
1620.5 141
1621.5 156.857
1622.5 209.286
1623.5 217.429
1624.5 207.857
1625.5 194.571
1626.5 346.857
1627.5 306.857
1628.5 190.571
1629.5 210.857
1630.5 169.143
1631.5 221.143
1632.5 273.286
1633.5 297.143
1634.5 253.571
1635.5 233
1636.5 174.714
1637.5 113.571
1638.5 285.143
1639.5 313.286
1640.5 321.714
1641.5 367
1642.5 238.857
1643.5 190.429
1644.5 172
1645.5 175.571
1646.5 164.143
1647.5 180.571
1648.5 189.429
1649.5 102.571
1650.5 177.429
1651.5 179.429
1652.5 212.429
1653.5 171.286
1654.5 176.429
1655.5 159.571
1656.5 188.286
1657.5 197.571
1658.5 215.571
1659.5 219.429
1660.5 192
1661.5 160.429
1662.5 147
1663.5 162
1664.5 177.286
1665.5 159.857
1666.5 152.714
1667.5 201.286
1668.5 167.286
1669.5 122.571
1670.5 199.571
1671.5 150.429
1672.5 149.571
1673.5 172.714
1674.5 151.714
1675.5 167.571
1676.5 176.286
1677.5 172.714
1678.5 180.429
1679.5 165.571
1680.5 155.571
1681.5 156
1682.5 123.714
1683.5 161.429
1684.5 149.857
1685.5 139.429
1686.5 128.857
1687.5 201
1688.5 169.429
1689.5 153.571
1690.5 186.429
1691.5 163.714
1692.5 161
1693.5 200.143
1694.5 135.429
1695.5 154
1696.5 152.571
1697.5 179.571
1698.5 168.571
1699.5 142.571
1700.5 192.143
1701.5 155.714
1702.5 120.286
1703.5 196.714
1704.5 123.286
1705.5 176.714
1706.5 142.571
1707.5 185.286
1708.5 134.857
1709.5 156
1710.5 154.429
1711.5 154.286
1712.5 151
1713.5 182.714
1714.5 177.714
1715.5 147
1716.5 224.714
1717.5 180.286
1718.5 183.286
1719.5 172.143
1720.5 198.571
1721.5 183.857
1722.5 138.857
1723.5 134.429
1724.5 115
1725.5 174.857
1726.5 192.286
1727.5 199.429
1728.5 211.571
1729.5 260.143
1730.5 291
1731.5 322.143
1732.5 187.429
1733.5 160.571
1734.5 206.714
1735.5 165.286
1736.5 192.857
1737.5 195.857
1738.5 245.286
1739.5 223.571
1740.5 194.143
1741.5 139.286
1742.5 174.857
1743.5 181
1744.5 132.571
1745.5 165.429
1746.5 152
1747.5 122.571
1748.5 162.571
1749.5 102.857
1750.5 181.143
1751.5 145.571
1752.5 163.286
1753.5 167
1754.5 147
1755.5 179.429
1756.5 123.286
1757.5 153.429
1758.5 118.857
1759.5 154.143
1760.5 192.286
1761.5 162.286
1762.5 137.714
1763.5 169
1764.5 166.714
1765.5 157.429
1766.5 166.429
1767.5 197.571
1768.5 140.143
1769.5 178.286
1770.5 202.429
1771.5 145.143
1772.5 178.143
1773.5 160.286
1774.5 157
1775.5 174.857
1776.5 177.143
1777.5 189.143
1778.5 125.429
1779.5 179.714
1780.5 171.857
1781.5 145.286
1782.5 166.571
1783.5 169.429
1784.5 137.286
1785.5 135.286
1786.5 100
1787.5 194.857
1788.5 159.429
1789.5 116.857
1790.5 106
1791.5 167.714
1792.5 179.286
1793.5 153.714
1794.5 133
1795.5 198.286
1796.5 286.429
1797.5 287.429
1798.5 317.286
1799.5 223.571
1800.5 182.429
1801.5 154.714
1802.5 178.571
1803.5 160.857
1804.5 145.143
1805.5 160
1806.5 180.857
1807.5 172.429
1808.5 113.429
1809.5 171.714
1810.5 162.143
1811.5 144.714
1812.5 177
1813.5 155.571
1814.5 163.571
1815.5 199.429
1816.5 150.429
1817.5 272.143
1818.5 307.714
1819.5 350.286
1820.5 263.857
1821.5 239
1822.5 255.429
1823.5 225.143
1824.5 144.143
1825.5 232.429
1826.5 185.571
1827.5 227.857
1828.5 224
1829.5 199
1830.5 166.429
1831.5 204.143
1832.5 158.857
1833.5 167.857
1834.5 192.429
1835.5 190.286
1836.5 161.286
1837.5 199.429
1838.5 203.429
1839.5 212.143
1840.5 190.857
1841.5 158.714
1842.5 155.571
1843.5 143.714
1844.5 144.143
1845.5 191.143
1846.5 171.429
1847.5 200.143
1848.5 161
1849.5 214.857
1850.5 181.857
1851.5 188
1852.5 183.571
1853.5 208.857
1854.5 164
1855.5 107
1856.5 196.571
1857.5 150
1858.5 190
1859.5 185
1860.5 177.286
1861.5 166.571
1862.5 168.714
1863.5 193.143
1864.5 156.857
1865.5 131.714
1866.5 157.429
1867.5 167.571
1868.5 202.286
1869.5 176
1870.5 225
1871.5 147.286
1872.5 165.429
1873.5 144.857
1874.5 150.143
1875.5 168
1876.5 178
1877.5 158
1878.5 156.429
1879.5 138.857
1880.5 165.143
1881.5 122.857
1882.5 162.286
1883.5 180.571
1884.5 257
1885.5 546
1886.5 780.429
1887.5 759.143
1888.5 564.429
1889.5 296.286
1890.5 165.429
1891.5 177
1892.5 167
1893.5 122
1894.5 102.571
1895.5 170.286
1896.5 132.429
1897.5 209.286
1898.5 133.286
1899.5 165.429
1900.5 166.429
1901.5 161.286
1902.5 149.857
1903.5 112.429
1904.5 154.857
1905.5 174.857
1906.5 145
1907.5 118.429
1908.5 138
1909.5 146.857
1910.5 199.571
1911.5 141.571
1912.5 250.143
1913.5 138.286
1914.5 152
1915.5 215
1916.5 184.714
1917.5 169.571
1918.5 222.286
1919.5 203.143
1920.5 260.429
1921.5 177.571
1922.5 167.286
1923.5 147.429
1924.5 155.571
1925.5 156.429
1926.5 191.857
1927.5 316.143
1928.5 405
1929.5 452
1930.5 324.857
1931.5 195
1932.5 150
1933.5 159
1934.5 88
1935.5 124.714
1936.5 159.857
1937.5 175.714
1938.5 112.714
1939.5 169.714
1940.5 146.143
1941.5 210.286
1942.5 175.571
1943.5 167.714
1944.5 172.857
1945.5 241.429
1946.5 404.857
1947.5 436.714
1948.5 346
1949.5 281.857
1950.5 292.714
1951.5 207.286
1952.5 174.143
1953.5 166.143
1954.5 133
1955.5 155.571
1956.5 167.143
1957.5 165.714
1958.5 207.286
1959.5 231.143
1960.5 245.429
1961.5 169.286
1962.5 124
1963.5 155.143
1964.5 151.143
1965.5 165.857
1966.5 153.857
1967.5 176.286
1968.5 145.571
1969.5 138.286
1970.5 147.571
1971.5 141.857
1972.5 166
1973.5 165.143
1974.5 162
1975.5 126.571
1976.5 150.286
1977.5 159
1978.5 99.1429
1979.5 151.857
1980.5 139.857
1981.5 137.571
1982.5 157.286
1983.5 144.857
1984.5 118.286
1985.5 116.143
1986.5 168.429
1987.5 121
1988.5 174.286
1989.5 119.429
1990.5 134.571
1991.5 165
1992.5 119.429
1993.5 218.286
1994.5 207.857
1995.5 148.429
1996.5 144
1997.5 164.571
1998.5 137.286
1999.5 124.857
2000.5 130.714
2001.5 136.857
2002.5 124.857
2003.5 145.143
2004.5 167.429
2005.5 159.714
2006.5 151.143
2007.5 138
2008.5 125.143
2009.5 111
2010.5 127.143
2011.5 145.571
2012.5 102.429
2013.5 138
2014.5 158.429
2015.5 113
2016.5 132.429
2017.5 83.2857
2018.5 118.714
2019.5 141.857
2020.5 143.571
2021.5 110.571
2022.5 97.4286
2023.5 102.286
2024.5 131.714
2025.5 106
2026.5 121.571
2027.5 120.857
2028.5 127.571
2029.5 137.857
2030.5 148.714
2031.5 122.857
2032.5 135.429
2033.5 118.571
2034.5 102.714
2035.5 92
2036.5 103.429
2037.5 129.571
2038.5 139.714
2039.5 128.286
2040.5 158.286
2041.5 140.571
2042.5 147.429
2043.5 110.429
2044.5 108.571
2045.5 123.857
2046.5 89.7143
2047.5 142.286
2048.5 154.857
2049.5 160.571
2050.5 119
2051.5 155.429
2052.5 128.429
2053.5 131.143
2054.5 125.429
2055.5 129.286
2056.5 147.571
2057.5 123.714
2058.5 201.714
2059.5 134.429
2060.5 109.857
2061.5 80.2857
2062.5 100.857
2063.5 106.571
2064.5 105.571
2065.5 111.429
2066.5 137.857
2067.5 123.286
2068.5 118.571
2069.5 74.8571
2070.5 148.143
2071.5 136.714
2072.5 123.429
2073.5 142
2074.5 141
2075.5 183.714
2076.5 88.8571
2077.5 90.2857
2078.5 125.143
2079.5 120.571
2080.5 136.143
2081.5 96.1429
2082.5 147.143
2083.5 192.714
2084.5 281.571
2085.5 658.571
2086.5 1697.57
2087.5 3395
2088.5 4162.86
2089.5 2965.57
2090.5 1215
2091.5 449.286
2092.5 235
2093.5 168.714
2094.5 133.857
2095.5 126.714
2096.5 111.571
2097.5 84.7143
2098.5 113.714
2099.5 117.714
2100.5 75.1429
2101.5 125.429
2102.5 138.571
2103.5 87.8571
2104.5 110.143
2105.5 111.714
2106.5 56
2107.5 105.286
2108.5 130.143
2109.5 144.714
2110.5 111.429
2111.5 118.286
2112.5 115
2113.5 94.8571
2114.5 144.143
2115.5 86.8571
2116.5 117.143
2117.5 115.571
2118.5 114.571
2119.5 122.286
2120.5 117.714
2121.5 70
2122.5 142.286
2123.5 113.286
2124.5 122
2125.5 92.4286
2126.5 110.143
2127.5 99.4286
2128.5 61.5714
2129.5 97.7143
2130.5 81.7143
2131.5 102.429
2132.5 97.7143
2133.5 98
2134.5 122.143
2135.5 91.4286
2136.5 92.5714
2137.5 86.2857
2138.5 102.714
2139.5 117.857
2140.5 106.857
2141.5 136.857
2142.5 155.857
2143.5 55.7143
2144.5 183
2145.5 107.286
2146.5 156.143
2147.5 122.143
2148.5 197.714
2149.5 317
2150.5 312.857
2151.5 290.714
2152.5 245.714
2153.5 170.143
2154.5 160.143
2155.5 191
2156.5 197.143
2157.5 131.714
2158.5 159.286
2159.5 149.429
2160.5 304.714
2161.5 386.143
2162.5 778
2163.5 1136.43
2164.5 956.286
2165.5 504.286
2166.5 243.143
2167.5 138.857
2168.5 141.143
2169.5 172
2170.5 147.143
2171.5 98.2857
2172.5 108.857
2173.5 84
2174.5 82.1429
2175.5 65.8571
2176.5 94.7143
2177.5 91.7143
2178.5 90.5714
2179.5 102.714
2180.5 148
2181.5 58.2857
2182.5 104.143
2183.5 100.714
2184.5 93.5714
2185.5 118.429
2186.5 130.571
2187.5 93.2857
2188.5 87.2857
2189.5 132
2190.5 130.857
2191.5 167.286
2192.5 107
2193.5 140
2194.5 119.714
2195.5 64.1429
2196.5 111.429
2197.5 81.7143
2198.5 169
2199.5 225.429
2200.5 161.429
2201.5 131.429
2202.5 127.429
2203.5 99.8571
2204.5 61.8571
2205.5 82.1429
2206.5 67.8571
2207.5 114.571
2208.5 79.7143
2209.5 102.857
2210.5 96.5714
2211.5 56
2212.5 113.286
2213.5 81.8571
2214.5 107.286
2215.5 121.571
2216.5 117.143
2217.5 99.8571
2218.5 103.429
2219.5 136
2220.5 184.571
2221.5 213.714
2222.5 318.857
2223.5 251
2224.5 227.286
2225.5 119.571
2226.5 101.857
2227.5 155.857
2228.5 136
2229.5 145.286
2230.5 94.2857
2231.5 129.714
2232.5 123.429
2233.5 123.429
2234.5 116.714
2235.5 74.4286
2236.5 76.7143
2237.5 90.7143
2238.5 115.429
2239.5 97.7143
2240.5 133.857
2241.5 110.143
2242.5 103.429
2243.5 108.429
2244.5 111.286
2245.5 123.571
2246.5 111.286
2247.5 85.7143
2248.5 99.8571
2249.5 107.143
2250.5 103.571
2251.5 120.714
2252.5 103.857
2253.5 174.429
2254.5 171.857
2255.5 147.286
2256.5 87.8571
2257.5 121
2258.5 78.7143
2259.5 110.429
2260.5 109.714
2261.5 82.7143
2262.5 106.286
2263.5 102.429
2264.5 109.286
2265.5 92.7143
2266.5 146.429
2267.5 117.714
2268.5 60.7143
2269.5 90.1429
2270.5 85
2271.5 79.8571
2272.5 96.2857
2273.5 106.857
2274.5 111.429
2275.5 93.5714
2276.5 85.4286
2277.5 91.8571
2278.5 122.857
2279.5 166.857
2280.5 309
2281.5 327.143
2282.5 215.143
2283.5 150.714
2284.5 175.571
2285.5 145.286
2286.5 264.857
2287.5 396.286
2288.5 347.143
2289.5 253.429
2290.5 153
2291.5 84.5714
2292.5 95.1429
2293.5 116.429
2294.5 98
2295.5 74
2296.5 108.143
2297.5 121.286
2298.5 107.429
2299.5 78
2300.5 115.571
2301.5 104.571
2302.5 107.714
2303.5 98.8571
2304.5 74.4286
2305.5 138.429
2306.5 173.143
2307.5 151.571
2308.5 118.143
2309.5 103.714
2310.5 117.571
2311.5 89.8571
2312.5 87.4286
2313.5 94.2857
2314.5 83.7143
2315.5 99.7143
2316.5 95.8571
2317.5 48.8571
2318.5 77.1429
2319.5 110
2320.5 100.429
2321.5 119.714
2322.5 101.429
2323.5 82.8571
2324.5 93.5714
2325.5 115.714
2326.5 92.5714
2327.5 77.2857
2328.5 128.286
2329.5 124.571
2330.5 113.429
2331.5 125.571
2332.5 165.714
2333.5 130.857
2334.5 94.5714
2335.5 150.286
2336.5 181
2337.5 214
2338.5 157.571
2339.5 184.429
2340.5 124.143
2341.5 68.2857
2342.5 103.286
2343.5 130.286
2344.5 129.714
2345.5 131.286
2346.5 112
2347.5 112.286
2348.5 75.4286
2349.5 86
2350.5 88.7143
2351.5 98.1429
2352.5 85.8571
2353.5 105
2354.5 98.7143
2355.5 80.5714
2356.5 93.8571
2357.5 83.4286
2358.5 67.7143
2359.5 83.7143
2360.5 88.7143
2361.5 99.7143
2362.5 50.2857
2363.5 108
2364.5 78.1429
2365.5 92.1429
2366.5 81.4286
2367.5 95
2368.5 129.429
2369.5 128.286
2370.5 127.857
2371.5 105.714
2372.5 81.1429
2373.5 101.857
2374.5 97.4286
2375.5 101.286
2376.5 134.143
2377.5 131.857
2378.5 103.571
2379.5 106.857
2380.5 98.2857
2381.5 102.571
2382.5 100.714
2383.5 76.5714
2384.5 71.4286
2385.5 120.714
2386.5 89
2387.5 160
2388.5 81.7143
2389.5 95
2390.5 64.4286
2391.5 90.2857
2392.5 72.2857
2393.5 75.1429
2394.5 106.286
2395.5 91.2857
2396.5 98.7143
2397.5 123.714
2398.5 115.286
2399.5 92.7143
2400.5 100.429
2401.5 107.571
2402.5 94
2403.5 92.2857
2404.5 142.571
2405.5 121.857
2406.5 73.4286
2407.5 81.1429
2408.5 104.571
2409.5 109.429
2410.5 128.571
2411.5 175.286
2412.5 201.286
2413.5 124.286
2414.5 175
2415.5 101.429
2416.5 98.5714
2417.5 76.5714
2418.5 103.714
2419.5 99.5714
2420.5 90.8571
2421.5 65.4286
2422.5 90
2423.5 82.7143
2424.5 103.429
2425.5 75.2857
2426.5 54.4286
2427.5 66.5714
2428.5 96.8571
2429.5 119.571
2430.5 72.5714
2431.5 76.4286
2432.5 86.7143
2433.5 82.8571
2434.5 91
2435.5 68.7143
2436.5 84.4286
2437.5 83.7143
2438.5 71.2857
2439.5 93.7143
2440.5 86.1429
2441.5 86.8571
2442.5 106.286
2443.5 94.7143
2444.5 102.429
2445.5 112.857
2446.5 95.2857
2447.5 59.2857
2448.5 56
2449.5 92.4286
2450.5 95.4286
2451.5 97.7143
2452.5 86.1429
2453.5 96.1429
2454.5 94.1429
2455.5 73.7143
2456.5 70.7143
2457.5 101
2458.5 69.1429
2459.5 97.1429
2460.5 65.8571
2461.5 112.429
2462.5 74.7143
2463.5 67.2857
2464.5 60
2465.5 59.5714
2466.5 113.143
2467.5 113.571
2468.5 94.7143
2469.5 122.714
2470.5 139.714
2471.5 152.857
2472.5 123.857
2473.5 109.286
2474.5 195.571
2475.5 191.429
2476.5 178
2477.5 144
2478.5 100.857
2479.5 93
2480.5 106.714
2481.5 94.5714
2482.5 112.714
2483.5 160
2484.5 141.857
2485.5 151.429
2486.5 137.857
2487.5 101.429
2488.5 93.8571
2489.5 126.857
2490.5 100.429
2491.5 74.7143
2492.5 70.2857
2493.5 86
2494.5 88
2495.5 102.857
2496.5 71.1429
2497.5 90.8571
2498.5 99.7143
2499.5 132.571
2500.5 82.5714
2501.5 109.857
2502.5 46.1429
2503.5 69.7143
2504.5 84.7143
2505.5 66.2857
2506.5 108.429
2507.5 68.5714
2508.5 111.429
2509.5 74
2510.5 110.714
2511.5 96
2512.5 132.286
2513.5 109.857
2514.5 73.8571
2515.5 50.7143
2516.5 108.571
2517.5 142.714
2518.5 191.429
2519.5 192
2520.5 139.286
2521.5 116.429
2522.5 102.857
2523.5 110.857
2524.5 110
2525.5 123.571
2526.5 97.2857
2527.5 147.286
2528.5 74.7143
2529.5 102.714
2530.5 114
2531.5 96.4286
2532.5 72.8571
2533.5 62
2534.5 88.5714
2535.5 79.8571
2536.5 99.7143
2537.5 103.143
2538.5 92.7143
2539.5 71.5714
2540.5 135.286
2541.5 132.143
2542.5 108.714
2543.5 81.2857
2544.5 111.143
2545.5 104.429
2546.5 110.571
2547.5 70.8571
2548.5 156.286
2549.5 122.571
2550.5 125.429
2551.5 110.286
2552.5 82.2857
2553.5 85.8571
2554.5 84.5714
2555.5 102.143
2556.5 83
2557.5 92.1429
2558.5 63.2857
2559.5 85.7143
2560.5 67.7143
2561.5 46.7143
2562.5 75.8571
2563.5 114.571
2564.5 130.143
2565.5 102.429
2566.5 95
2567.5 118.143
2568.5 121.571
2569.5 109.143
2570.5 77.2857
2571.5 110.429
2572.5 108.571
2573.5 105.143
2574.5 145.714
2575.5 177.143
2576.5 206.857
2577.5 99.4286
2578.5 119.571
2579.5 128.571
2580.5 108.571
2581.5 159.714
2582.5 134.429
2583.5 149.286
2584.5 148.714
2585.5 149.857
2586.5 236.857
2587.5 340.857
2588.5 268
2589.5 182.143
2590.5 82.8571
2591.5 63
2592.5 110
2593.5 91
2594.5 77
2595.5 56.2857
2596.5 103.143
2597.5 84.1429
2598.5 100
2599.5 127.143
2600.5 124.429
2601.5 157.857
2602.5 113
2603.5 109.571
2604.5 83.8571
2605.5 83.2857
2606.5 110
2607.5 154.571
2608.5 124.429
2609.5 140.857
2610.5 116.571
2611.5 111.714
2612.5 123.429
2613.5 96.8571
2614.5 149.714
2615.5 106.429
2616.5 104.286
2617.5 131.429
2618.5 109.857
2619.5 149.714
2620.5 124.143
2621.5 176.714
2622.5 90.5714
2623.5 106.429
2624.5 108.857
2625.5 106.571
2626.5 107.143
2627.5 99.4286
2628.5 106.429
2629.5 118.857
2630.5 83
2631.5 74.1429
2632.5 100.857
2633.5 101.143
2634.5 91.4286
2635.5 126
2636.5 89.7143
2637.5 81.7143
2638.5 53.7143
2639.5 77.7143
2640.5 81.7143
2641.5 99
2642.5 143.286
2643.5 145.143
2644.5 86.1429
2645.5 81.5714
2646.5 85.8571
2647.5 108.714
2648.5 95.8571
2649.5 53.4286
2650.5 98.2857
2651.5 154.714
2652.5 213.571
2653.5 272.714
2654.5 248.286
2655.5 204.857
2656.5 164.571
2657.5 129
2658.5 116.571
2659.5 114
2660.5 104.429
2661.5 76
2662.5 65.2857
2663.5 74.1429
2664.5 99.7143
2665.5 107.286
2666.5 82
2667.5 134.571
2668.5 153.143
2669.5 206.286
2670.5 232.571
2671.5 206.429
2672.5 163.286
2673.5 149.286
2674.5 151.143
2675.5 187
2676.5 202.143
2677.5 141.571
2678.5 138.429
2679.5 132.429
2680.5 148.429
2681.5 144
2682.5 150.714
2683.5 140.714
2684.5 103.286
2685.5 125
2686.5 94.1429
2687.5 117.143
2688.5 91
2689.5 130.714
2690.5 97.5714
2691.5 67.1429
2692.5 86.1429
2693.5 119.286
2694.5 75
2695.5 102.571
2696.5 105.571
2697.5 119.143
2698.5 93.2857
2699.5 115.714
2700.5 92.2857
2701.5 69.7143
2702.5 71.2857
2703.5 74.2857
2704.5 67.5714
2705.5 105.857
2706.5 82.5714
2707.5 81.2857
2708.5 92.4286
2709.5 75.7143
2710.5 98.7143
2711.5 77.7143
2712.5 68.8571
2713.5 76
2714.5 90.2857
2715.5 74.1429
2716.5 89.5714
2717.5 90.8571
2718.5 84.1429
2719.5 85.2857
2720.5 72
2721.5 123.143
2722.5 138.286
2723.5 182.714
2724.5 136.571
2725.5 128.857
2726.5 120
2727.5 52.2857
2728.5 81.4286
2729.5 77.7143
2730.5 88.8571
2731.5 81.7143
2732.5 86
2733.5 89
2734.5 72.5714
2735.5 61.1429
2736.5 87.1429
2737.5 123
2738.5 69.4286
2739.5 60.7143
2740.5 89.2857
2741.5 73.4286
2742.5 68.8571
2743.5 86.1429
2744.5 79.8571
2745.5 120.714
2746.5 96.5714
2747.5 101.714
2748.5 73.5714
2749.5 95
2750.5 99.5714
2751.5 93.2857
2752.5 109.714
2753.5 73.1429
2754.5 86.1429
2755.5 69.8571
2756.5 125.714
2757.5 108.429
2758.5 130.286
2759.5 105.286
2760.5 125.286
2761.5 61.7143
2762.5 103.571
2763.5 86
2764.5 87.8571
2765.5 67.7143
2766.5 131.571
2767.5 71.2857
2768.5 122.429
2769.5 67.1429
2770.5 96.2857
2771.5 67.1429
2772.5 88.2857
2773.5 108.429
2774.5 105.571
2775.5 100.143
2776.5 112.857
2777.5 111.857
2778.5 71.5714
2779.5 108.143
2780.5 96
2781.5 61.5714
2782.5 111.571
2783.5 92.5714
2784.5 108.286
2785.5 99.5714
2786.5 87.1429
2787.5 94.5714
2788.5 78.2857
2789.5 111.857
2790.5 117.571
2791.5 82.4286
2792.5 89.5714
2793.5 99.2857
2794.5 122.429
2795.5 99.4286
2796.5 105
2797.5 85.8571
2798.5 104.429
2799.5 89
2800.5 108.429
2801.5 105.429
2802.5 83.4286
2803.5 73
2804.5 86.1429
2805.5 67.4286
2806.5 60.2857
2807.5 119.143
2808.5 85
2809.5 100.143
2810.5 120
2811.5 98.7143
2812.5 83.2857
2813.5 79.7143
2814.5 66.5714
2815.5 46
2816.5 70
2817.5 49.4286
2818.5 80.5714
2819.5 98.8571
2820.5 103.143
2821.5 134.143
2822.5 137.857
2823.5 141.429
2824.5 132.857
2825.5 115.286
2826.5 100.143
2827.5 99.8571
2828.5 108.571
2829.5 112.857
2830.5 154.714
2831.5 94.4286
2832.5 86.4286
2833.5 81.8571
2834.5 88
2835.5 107.429
2836.5 70.7143
2837.5 91.8571
2838.5 113.286
2839.5 87.4286
2840.5 56.7143
2841.5 105.143
2842.5 69.7143
2843.5 74.7143
2844.5 118.429
2845.5 117
2846.5 116.286
2847.5 101.286
2848.5 145.714
2849.5 94
2850.5 86.5714
2851.5 88.5714
2852.5 79.8571
2853.5 110.714
2854.5 96.4286
2855.5 106
2856.5 111.714
2857.5 53.7143
2858.5 86.1429
2859.5 73.8571
2860.5 87.5714
2861.5 78.5714
2862.5 89.2857
2863.5 100.143
2864.5 96.4286
2865.5 108.429
2866.5 72.1429
2867.5 74.2857
2868.5 62.8571
2869.5 66.7143
2870.5 96.8571
2871.5 50.1429
2872.5 83.2857
2873.5 107.714
2874.5 96.1429
2875.5 71.1429
2876.5 96.8571
2877.5 94.1429
2878.5 94
2879.5 99.2857
2880.5 76.8571
2881.5 69.4286
2882.5 81.7143
2883.5 78
2884.5 90.7143
2885.5 97
2886.5 75.4286
2887.5 97.5714
2888.5 101.429
2889.5 86.7143
2890.5 132.429
2891.5 103.429
2892.5 57.2857
2893.5 105.857
2894.5 104
2895.5 90.7143
2896.5 107.714
2897.5 118.429
2898.5 102.429
2899.5 90.1429
2900.5 72.5714
2901.5 100.714
2902.5 68.1429
2903.5 73.5714
2904.5 71.7143
2905.5 71.8571
2906.5 70.5714
2907.5 84.1429
2908.5 50.2857
2909.5 77.5714
2910.5 78.4286
2911.5 83.1429
2912.5 83.8571
2913.5 62.7143
2914.5 86.1429
2915.5 48
2916.5 84.7143
2917.5 55.8571
2918.5 76.1429
2919.5 54.8571
2920.5 78.8571
2921.5 33.8571
2922.5 75.5714
2923.5 94
2924.5 83.1429
2925.5 101.286
2926.5 69.4286
2927.5 99.7143
2928.5 99.4286
2929.5 78.7143
2930.5 108.143
2931.5 90.8571
2932.5 88.1429
2933.5 107.714
2934.5 119.714
2935.5 161.571
2936.5 190.286
2937.5 134.143
2938.5 122.429
2939.5 54
2940.5 69.8571
2941.5 70.2857
2942.5 55.2857
2943.5 50.7143
2944.5 44.1429
2945.5 77.4286
2946.5 80.8571
2947.5 100.714
2948.5 143
2949.5 136
2950.5 123.857
2951.5 97
2952.5 142.714
2953.5 137.429
2954.5 135.429
2955.5 92.5714
2956.5 95.7143
2957.5 86.5714
2958.5 64.8571
2959.5 101.429
2960.5 98.7143
2961.5 70.7143
2962.5 102.286
2963.5 67.5714
2964.5 93.4286
2965.5 103.857
2966.5 96.2857
2967.5 51.1429
2968.5 96.5714
2969.5 95.2857
2970.5 95
2971.5 116.571
2972.5 101.429
2973.5 62.5714
2974.5 78.1429
2975.5 79.5714
2976.5 74.2857
2977.5 68.7143
2978.5 68.8571
2979.5 59
2980.5 98.7143
2981.5 139.714
2982.5 106.143
2983.5 113.857
2984.5 122.143
2985.5 95
2986.5 82.2857
2987.5 79.1429
2988.5 87.1429
2989.5 99.1429
2990.5 107.286
2991.5 94.1429
2992.5 103
2993.5 115.714
2994.5 137.714
2995.5 146
2996.5 153.143
2997.5 124.143
2998.5 104.143
2999.5 108
3000.5 109.429
3001.5 90.5714
3002.5 87.1429
3003.5 79.2857
3004.5 73.4286
3005.5 77.8571
3006.5 88.7143
3007.5 159.429
3008.5 87.7143
3009.5 106.429
3010.5 148.143
3011.5 118
3012.5 105.714
3013.5 114.714
3014.5 85.2857
3015.5 80.7143
3016.5 72.1429
3017.5 74.8571
3018.5 50.4286
3019.5 99.1429
3020.5 110.286
3021.5 144.714
3022.5 127.286
3023.5 123.286
3024.5 87.8571
3025.5 112.143
3026.5 116.143
3027.5 113.429
3028.5 124
3029.5 112.714
3030.5 108.286
3031.5 104.571
3032.5 111.857
3033.5 104
3034.5 144.714
3035.5 173.286
3036.5 208.714
3037.5 268.286
3038.5 277.571
3039.5 252
3040.5 142.429
3041.5 94
3042.5 107.143
3043.5 89.7143
3044.5 100
3045.5 54.2857
3046.5 87.2857
3047.5 98.2857
3048.5 119.143
3049.5 163.571
3050.5 214.714
3051.5 299.857
3052.5 332.714
3053.5 305.714
3054.5 160
3055.5 99.7143
3056.5 121.429
3057.5 78.5714
3058.5 68.7143
3059.5 80.4286
3060.5 67.8571
3061.5 104
3062.5 112.143
3063.5 160.286
3064.5 130.286
3065.5 112.286
3066.5 119.571
3067.5 78.1429
3068.5 86.1429
3069.5 61.1429
3070.5 73.1429
3071.5 73.5714
3072.5 44.8571
3073.5 88.4286
3074.5 74
3075.5 103.429
3076.5 92.2857
3077.5 86
3078.5 82
3079.5 108.571
3080.5 81.7143
3081.5 98
3082.5 100.857
3083.5 86.7143
3084.5 83.4286
3085.5 72.7143
3086.5 85.8571
3087.5 68.8571
3088.5 89
3089.5 56
3090.5 70.1429
3091.5 68.1429
3092.5 76.7143
3093.5 68.2857
3094.5 78.4286
3095.5 63.8571
3096.5 89
3097.5 92.1429
3098.5 89.5714
3099.5 80.1429
3100.5 71.1429
3101.5 84.2857
3102.5 78.4286
3103.5 88.2857
3104.5 106.571
3105.5 119.429
3106.5 157.571
3107.5 171.286
3108.5 159.714
3109.5 137
3110.5 90.1429
3111.5 116.714
3112.5 88
3113.5 67.5714
3114.5 108.714
3115.5 92.7143
3116.5 67.5714
3117.5 102
3118.5 104.571
3119.5 104.286
3120.5 68.4286
3121.5 85.7143
3122.5 71
3123.5 93.1429
3124.5 51.5714
3125.5 58.7143
3126.5 77.1429
3127.5 93.2857
3128.5 95.4286
3129.5 81.4286
3130.5 78.7143
3131.5 52.1429
3132.5 56.4286
3133.5 91
3134.5 106.857
3135.5 112.143
3136.5 135.429
3137.5 125.857
3138.5 119.857
3139.5 135.286
3140.5 123.571
3141.5 119.857
3142.5 92
3143.5 83.5714
3144.5 67.4286
3145.5 79.8571
3146.5 117.857
3147.5 96
3148.5 81
3149.5 111.571
3150.5 65.1429
3151.5 88.1429
3152.5 73.8571
3153.5 72.2857
3154.5 85.5714
3155.5 76.8571
3156.5 92.4286
3157.5 111.571
3158.5 95.2857
3159.5 90.7143
3160.5 46.4286
3161.5 61.7143
3162.5 68.7143
3163.5 82.4286
3164.5 87.7143
3165.5 72.5714
3166.5 67
3167.5 62.5714
3168.5 68.5714
3169.5 88.4286
3170.5 59.4286
3171.5 78.2857
3172.5 80.4286
3173.5 103.857
3174.5 110.714
3175.5 82.1429
3176.5 119.571
3177.5 110.857
3178.5 89.1429
3179.5 83.1429
3180.5 83.8571
3181.5 80
3182.5 107.571
3183.5 115.714
3184.5 105
3185.5 113.429
3186.5 84.7143
3187.5 102.429
3188.5 105.286
3189.5 125.429
3190.5 139.571
3191.5 180.571
3192.5 150.286
3193.5 121.143
3194.5 104.857
3195.5 89.8571
3196.5 74.4286
3197.5 98.1429
3198.5 101.857
3199.5 98.4286
3200.5 115
3201.5 113.429
3202.5 109.857
3203.5 57.5714
3204.5 90
3205.5 125.286
3206.5 135.286
3207.5 128.571
3208.5 69.5714
3209.5 69.7143
3210.5 56.4286
3211.5 52.8571
3212.5 119.857
3213.5 89.1429
3214.5 97.4286
3215.5 52.7143
3216.5 86.4286
3217.5 84.8571
3218.5 82.1429
3219.5 97
3220.5 84.1429
3221.5 84.1429
3222.5 124.714
3223.5 85.4286
3224.5 111.143
3225.5 85.1429
3226.5 55.1429
3227.5 73.2857
3228.5 80.1429
3229.5 80.4286
3230.5 82
3231.5 83.5714
3232.5 98.4286
3233.5 78.5714
3234.5 129.714
3235.5 106.286
3236.5 122
3237.5 103.286
3238.5 119.286
3239.5 114.857
3240.5 130
3241.5 111.714
3242.5 113.714
3243.5 95.2857
3244.5 102.571
3245.5 87.8571
3246.5 79.7143
3247.5 73.1429
3248.5 100.429
3249.5 67.2857
3250.5 60.4286
3251.5 83.2857
3252.5 97.2857
3253.5 71.1429
3254.5 112
3255.5 101.143
3256.5 121
3257.5 140.429
3258.5 164.143
3259.5 142.857
3260.5 125.143
3261.5 117.143
3262.5 93.2857
3263.5 92.7143
3264.5 128.143
3265.5 96.5714
3266.5 71.4286
3267.5 66.5714
3268.5 100.714
3269.5 74
3270.5 98.8571
3271.5 67.1429
3272.5 89.5714
3273.5 58.7143
3274.5 76.2857
3275.5 88.7143
3276.5 98.7143
3277.5 85
3278.5 89.4286
3279.5 77.8571
3280.5 96
3281.5 71.1429
3282.5 70.7143
3283.5 105
3284.5 83.1429
3285.5 105.857
3286.5 155
3287.5 176.714
3288.5 162
3289.5 110.571
3290.5 137.429
3291.5 87.1429
3292.5 91.4286
3293.5 103
3294.5 63
3295.5 76.4286
3296.5 31.1429
3297.5 113.857
3298.5 80.7143
3299.5 86
3300.5 93.1429
3301.5 71
3302.5 99.2857
3303.5 124.857
3304.5 102.714
3305.5 119.429
3306.5 101.857
3307.5 90.5714
3308.5 109.286
3309.5 101.571
3310.5 102.857
3311.5 85.8571
3312.5 98.2857
3313.5 59.8571
3314.5 74.1429
3315.5 79.8571
3316.5 66
3317.5 64.2857
3318.5 97.2857
3319.5 75.4286
3320.5 91.2857
3321.5 122.857
3322.5 114.286
3323.5 78.4286
3324.5 82.4286
3325.5 77.8571
3326.5 73.2857
3327.5 89.2857
3328.5 66.4286
3329.5 55.7143
3330.5 78.1429
3331.5 63.2857
3332.5 47.8571
3333.5 82.7143
3334.5 97
3335.5 59.2857
3336.5 87.1429
3337.5 71.5714
3338.5 99.7143
3339.5 119.857
3340.5 137.143
3341.5 95
3342.5 112.857
3343.5 84.2857
3344.5 81
3345.5 88.5714
3346.5 97.4286
3347.5 41.4286
3348.5 63
3349.5 77.2857
3350.5 86.4286
3351.5 89.7143
3352.5 114.714
3353.5 139.286
3354.5 166.143
3355.5 147.429
3356.5 92.1429
3357.5 98.5714
3358.5 118.714
3359.5 132
3360.5 133.714
3361.5 137.714
3362.5 129.286
3363.5 122.857
3364.5 70
3365.5 71.5714
3366.5 62
3367.5 76
3368.5 71.5714
3369.5 72.2857
3370.5 77.7143
3371.5 75.5714
3372.5 82.1429
3373.5 61
3374.5 78.2857
3375.5 83.8571
3376.5 51.4286
3377.5 77
3378.5 92.4286
3379.5 73.2857
3380.5 96.2857
3381.5 68.7143
3382.5 84.2857
3383.5 73.4286
3384.5 107.857
3385.5 81.2857
3386.5 100.286
3387.5 80.8571
3388.5 63.4286
3389.5 59.8571
3390.5 78.2857
3391.5 92.8571
3392.5 96.5714
3393.5 51.7143
3394.5 75.2857
3395.5 91
3396.5 64.4286
3397.5 76.5714
3398.5 91.4286
3399.5 74.1429
3400.5 69.1429
3401.5 47
3402.5 80.4286
3403.5 67.1429
3404.5 75.2857
3405.5 83.1429
3406.5 75.4286
3407.5 72.8571
3408.5 75.4286
3409.5 58
3410.5 72.8571
3411.5 49.8571
3412.5 42.7143
3413.5 92.1429
3414.5 61.7143
3415.5 79.2857
3416.5 92.2857
3417.5 85.1429
3418.5 62.7143
3419.5 74.7143
3420.5 75.1429
3421.5 36.4286
3422.5 59.2857
3423.5 64.5714
3424.5 71.4286
3425.5 50.8571
3426.5 57.2857
3427.5 112.571
3428.5 122
3429.5 85.8571
3430.5 35.5714
3431.5 89.1429
3432.5 118.143
3433.5 140.571
3434.5 181.143
3435.5 195.714
3436.5 170.143
3437.5 176.286
3438.5 157
3439.5 119.429
3440.5 143.143
3441.5 82.5714
3442.5 74.8571
3443.5 65.7143
3444.5 49
3445.5 94.5714
3446.5 114.714
3447.5 91.1429
3448.5 100.143
3449.5 85.8571
3450.5 69.8571
3451.5 93.1429
3452.5 94.1429
3453.5 67.8571
3454.5 52.2857
3455.5 73.8571
3456.5 79.2857
3457.5 68
3458.5 55.1429
3459.5 77.4286
3460.5 54.2857
3461.5 65.8571
3462.5 65.7143
3463.5 70.5714
3464.5 61.2857
3465.5 83.5714
3466.5 121.143
3467.5 87.5714
3468.5 68.8571
3469.5 81.8571
3470.5 69.1429
3471.5 84
3472.5 60
3473.5 110.857
3474.5 61.8571
3475.5 78.7143
3476.5 83.5714
3477.5 87.2857
3478.5 108.571
3479.5 121.714
3480.5 157.286
3481.5 114.571
3482.5 87.5714
3483.5 91.8571
3484.5 84.7143
3485.5 76.5714
3486.5 78
3487.5 90
3488.5 90.5714
3489.5 89.5714
3490.5 110.286
3491.5 171.857
3492.5 202.429
3493.5 259.286
3494.5 262.286
3495.5 195.714
3496.5 140.571
3497.5 105.286
3498.5 95.5714
3499.5 77.7143
3500.5 100
3501.5 77.7143
3502.5 62.8571
3503.5 94.4286
3504.5 131.286
3505.5 167.857
3506.5 206
3507.5 267.714
3508.5 257.714
3509.5 238.571
3510.5 137
3511.5 115.857
3512.5 117.714
3513.5 135.714
3514.5 107
3515.5 99.2857
3516.5 138.714
3517.5 134.714
3518.5 114.143
3519.5 112.286
3520.5 80.7143
3521.5 100.857
3522.5 89.5714
3523.5 67.7143
3524.5 62.4286
3525.5 66.7143
3526.5 73.5714
3527.5 92.8571
3528.5 89.4286
3529.5 124.286
3530.5 206.714
3531.5 302.714
3532.5 408.143
3533.5 341.143
3534.5 239.429
3535.5 139.429
3536.5 112.143
3537.5 92.7143
3538.5 80.5714
3539.5 68.8571
3540.5 66.4286
3541.5 60.8571
3542.5 71.5714
3543.5 70.4286
3544.5 100.429
3545.5 71.1429
3546.5 78.1429
3547.5 61
3548.5 62.5714
3549.5 72.4286
3550.5 102.571
3551.5 78.1429
3552.5 67.2857
3553.5 85.4286
3554.5 73
3555.5 61.4286
3556.5 77.5714
3557.5 52.4286
3558.5 66
3559.5 53.7143
3560.5 72.4286
3561.5 69.5714
3562.5 75.8571
3563.5 81.5714
3564.5 86.7143
3565.5 80.4286
3566.5 61
3567.5 61.1429
3568.5 63
3569.5 54
3570.5 71.1429
3571.5 66.7143
3572.5 74.1429
3573.5 72.1429
3574.5 85.2857
3575.5 91.4286
3576.5 94.1429
3577.5 106.143
3578.5 71.2857
3579.5 80
3580.5 76
3581.5 81.4286
3582.5 50.5714
3583.5 66.1429
3584.5 106.714
3585.5 89.1429
3586.5 50.5714
3587.5 74.2857
3588.5 75.1429
3589.5 90
3590.5 99.4286
3591.5 103.571
3592.5 107.286
3593.5 100.714
3594.5 113.429
3595.5 83.4286
3596.5 111.429
3597.5 106.714
3598.5 83.2857
3599.5 99.4286
3600.5 64.5714
3601.5 82.8571
3602.5 76
3603.5 97
3604.5 55.5714
3605.5 86.5714
3606.5 80.5714
3607.5 112.286
3608.5 129.429
3609.5 115.714
3610.5 108
3611.5 106
3612.5 69.4286
3613.5 62.4286
3614.5 92
3615.5 75.5714
3616.5 77.4286
3617.5 87.1429
3618.5 68.7143
3619.5 95.8571
3620.5 98.8571
3621.5 76.5714
3622.5 89.8571
3623.5 100.571
3624.5 85.1429
3625.5 48.7143
3626.5 75.7143
3627.5 86
3628.5 48.7143
3629.5 65.7143
3630.5 69.8571
3631.5 83.2857
3632.5 69.2857
3633.5 77.7143
3634.5 103.571
3635.5 113
3636.5 95.7143
3637.5 75.8571
3638.5 91.4286
3639.5 86.8571
3640.5 81.4286
3641.5 72.2857
3642.5 83.5714
3643.5 74.1429
3644.5 83.5714
3645.5 75.8571
3646.5 94.7143
3647.5 43.5714
3648.5 95.1429
3649.5 74.2857
3650.5 46.4286
3651.5 64
3652.5 78.1429
3653.5 87.5714
3654.5 103.143
3655.5 83.7143
3656.5 91.7143
3657.5 87.1429
3658.5 100.571
3659.5 60.8571
3660.5 82.8571
3661.5 98.5714
3662.5 72.1429
3663.5 60.2857
3664.5 66
3665.5 94.1429
3666.5 103.429
3667.5 79.5714
3668.5 87.8571
3669.5 66.5714
3670.5 83.1429
3671.5 53.7143
3672.5 69.7143
3673.5 90.8571
3674.5 95.2857
3675.5 74.2857
3676.5 79.5714
3677.5 68.8571
3678.5 68.5714
3679.5 69.5714
3680.5 100.286
3681.5 71.1429
3682.5 121.143
3683.5 77.5714
3684.5 77
3685.5 70.7143
3686.5 86.2857
3687.5 70.4286
3688.5 83.2857
3689.5 78.2857
3690.5 100.571
3691.5 95.5714
3692.5 94.2857
3693.5 92
3694.5 101.857
3695.5 117.714
3696.5 113.286
3697.5 65.2857
3698.5 101
3699.5 68.5714
3700.5 71
3701.5 86.5714
3702.5 67.7143
3703.5 70.7143
3704.5 58.8571
3705.5 100.857
3706.5 75.7143
3707.5 84.5714
3708.5 53.4286
3709.5 67.8571
3710.5 55.7143
3711.5 95.1429
3712.5 75.7143
3713.5 92.7143
3714.5 49.7143
3715.5 65.8571
3716.5 75.2857
3717.5 85
3718.5 90.4286
3719.5 114.286
3720.5 96.4286
3721.5 123.857
3722.5 104.571
3723.5 94.1429
3724.5 77.7143
3725.5 97.8571
3726.5 112.571
3727.5 97.5714
3728.5 74.2857
3729.5 49
3730.5 88.4286
3731.5 59.4286
3732.5 82.1429
3733.5 73.5714
3734.5 83.5714
3735.5 66.7143
3736.5 79.5714
3737.5 80.4286
3738.5 73.4286
3739.5 54.1429
3740.5 97
3741.5 78.2857
3742.5 64.7143
3743.5 76.7143
3744.5 83.1429
3745.5 97.8571
3746.5 79.2857
3747.5 72.8571
3748.5 81.1429
3749.5 59.5714
3750.5 60.5714
3751.5 86.4286
3752.5 84.2857
3753.5 89.5714
3754.5 106.143
3755.5 57.1429
3756.5 54.8571
3757.5 89.1429
3758.5 98.7143
3759.5 73
3760.5 96
3761.5 79.4286
3762.5 77.5714
3763.5 62.2857
3764.5 73.7143
3765.5 89.8571
3766.5 79.5714
3767.5 91.4286
3768.5 58.7143
3769.5 71.7143
3770.5 46.1429
3771.5 72.2857
3772.5 72.7143
3773.5 81.1429
3774.5 83.1429
3775.5 87.4286
3776.5 126.429
3777.5 145.571
3778.5 170
3779.5 200.714
3780.5 199.714
3781.5 151
3782.5 139.286
3783.5 93.4286
3784.5 106
3785.5 122.429
3786.5 165.429
3787.5 173.286
3788.5 205.571
3789.5 163.571
3790.5 163.571
3791.5 101.857
3792.5 79.2857
3793.5 73.4286
3794.5 93.4286
3795.5 84
3796.5 83.8571
3797.5 69.1429
3798.5 84.2857
3799.5 65.4286
3800.5 67.1429
3801.5 70.1429
3802.5 70.4286
3803.5 69.8571
3804.5 55.4286
3805.5 85
3806.5 85.5714
3807.5 81.4286
3808.5 95.5714
3809.5 92.1429
3810.5 75
3811.5 85.4286
3812.5 75.5714
3813.5 71.2857
3814.5 64.1429
3815.5 64.2857
3816.5 66
3817.5 65.7143
3818.5 66.7143
3819.5 56.5714
3820.5 66.2857
3821.5 69
3822.5 83.4286
3823.5 81.8571
3824.5 67
3825.5 95.7143
3826.5 71
3827.5 89.8571
3828.5 55.1429
3829.5 69.1429
3830.5 70.7143
3831.5 76.2857
3832.5 54.8571
3833.5 66.4286
3834.5 83
3835.5 113.429
3836.5 81.7143
3837.5 75.7143
3838.5 79.4286
3839.5 75
3840.5 50.7143
3841.5 79.4286
3842.5 54.8571
3843.5 58.4286
3844.5 48.2857
3845.5 83.2857
3846.5 77
3847.5 83.4286
3848.5 41
3849.5 63
3850.5 61
3851.5 69.5714
3852.5 37.2857
3853.5 84
3854.5 95.2857
3855.5 76.4286
3856.5 55.5714
3857.5 60.8571
3858.5 71.1429
3859.5 64.4286
3860.5 82.7143
3861.5 87.8571
3862.5 77.1429
3863.5 73.8571
3864.5 87.1429
3865.5 75.8571
3866.5 81
3867.5 109
3868.5 126.571
3869.5 153.143
3870.5 168.857
3871.5 179.571
3872.5 146.571
3873.5 139.857
3874.5 182.429
3875.5 129.143
3876.5 163.571
3877.5 132.857
3878.5 121.571
3879.5 76.8571
3880.5 90.1429
3881.5 92.5714
3882.5 85.7143
3883.5 102
3884.5 101.714
3885.5 85.4286
3886.5 69.7143
3887.5 58
3888.5 71.1429
3889.5 114.571
3890.5 117.143
3891.5 174.143
3892.5 178.286
3893.5 142.429
3894.5 115.429
3895.5 68.7143
3896.5 74.2857
3897.5 97.7143
3898.5 53.4286
3899.5 84.1429
3900.5 106.429
3901.5 59.8571
3902.5 91.2857
3903.5 90.7143
3904.5 76.2857
3905.5 49.7143
3906.5 61.5714
3907.5 58.5714
3908.5 53.1429
3909.5 62.4286
3910.5 80.8571
3911.5 44.8571
3912.5 67.4286
3913.5 48.8571
3914.5 89.4286
3915.5 68
3916.5 76.8571
3917.5 69.5714
3918.5 56
3919.5 72.7143
3920.5 79.1429
3921.5 81.2857
3922.5 99.5714
3923.5 74
3924.5 122.143
3925.5 100.143
3926.5 122.286
3927.5 108.857
3928.5 105.286
3929.5 66
3930.5 78.7143
3931.5 60.4286
3932.5 24.5714
3933.5 96.5714
3934.5 75.1429
3935.5 73.2857
3936.5 71.2857
3937.5 62.5714
3938.5 85.2857
3939.5 99.7143
3940.5 105.286
3941.5 104.429
3942.5 165.714
3943.5 216.429
3944.5 279.571
3945.5 352.143
3946.5 415.286
3947.5 313
3948.5 226.429
3949.5 149.286
3950.5 120
3951.5 89.5714
3952.5 90.8571
3953.5 78.5714
3954.5 85.4286
3955.5 108.143
3956.5 116.714
3957.5 148
3958.5 169.714
3959.5 166.286
3960.5 137.571
3961.5 111
3962.5 108
3963.5 81.7143
3964.5 77.7143
3965.5 73.8571
3966.5 62.2857
3967.5 84.5714
3968.5 114.714
3969.5 69.4286
3970.5 127.429
3971.5 103.143
3972.5 124.571
3973.5 69.2857
3974.5 74.5714
3975.5 72
3976.5 83.5714
3977.5 83.2857
3978.5 77.5714
3979.5 74.2857
3980.5 87.4286
3981.5 73
3982.5 85.7143
3983.5 83.2857
3984.5 73
3985.5 79.4286
3986.5 68
3987.5 83.2857
3988.5 109.857
3989.5 118.571
3990.5 134.714
3991.5 117.143
3992.5 127.714
3993.5 76.2857
3994.5 99.7143
3995.5 88.1429
3996.5 89
3997.5 76.4286
3998.5 71.4286
3999.5 77.2857
4000.5 72.5714
4001.5 67.1429
4002.5 77.1429
4003.5 50.5714
4004.5 69.7143
4005.5 44.4286
4006.5 58.2857
4007.5 59.7143
4008.5 45.1429
4009.5 62.2857
4010.5 59.8571
4011.5 48.1429
4012.5 73.2857
4013.5 82.5714
4014.5 54.1429
4015.5 60.5714
4016.5 91
4017.5 82.4286
4018.5 80.1429
4019.5 67
4020.5 96.7143
4021.5 90.5714
4022.5 85.8571
4023.5 113.714
4024.5 113.857
4025.5 110.857
4026.5 106.143
4027.5 133.143
4028.5 87.5714
4029.5 89.4286
4030.5 75.5714
4031.5 105.429
4032.5 95.2857
4033.5 74.4286
4034.5 100.286
4035.5 87.2857
4036.5 99.1429
4037.5 88.7143
4038.5 59.5714
4039.5 71.8571
4040.5 62
4041.5 79.1429
4042.5 61.4286
4043.5 58
4044.5 65.7143
4045.5 77.4286
4046.5 85.7143
4047.5 89.2857
4048.5 93.5714
4049.5 83.8571
4050.5 69.1429
4051.5 70.8571
4052.5 84.1429
4053.5 61.7143
4054.5 74.1429
4055.5 83.5714
4056.5 73.2857
4057.5 79.1429
4058.5 55.8571
4059.5 83.4286
4060.5 65.2857
4061.5 105.857
4062.5 67.4286
4063.5 98.7143
4064.5 89
4065.5 59.5714
4066.5 75
4067.5 74.7143
4068.5 95.1429
4069.5 90.8571
4070.5 91.7143
4071.5 78.2857
4072.5 70
4073.5 77.4286
4074.5 68
4075.5 70.4286
4076.5 96.8571
4077.5 75.5714
4078.5 68.5714
4079.5 84.2857
4080.5 59.5714
4081.5 85.8571
4082.5 71.5714
4083.5 78.8571
4084.5 75.1429
4085.5 56.1429
4086.5 83.2857
4087.5 96.2857
4088.5 81.5714
4089.5 76.5714
4090.5 82.2857
4091.5 56.8571
4092.5 88.2857
4093.5 62.5714
4094.5 67.2857
4095.5 62.4286
4096.5 61.2857
4097.5 81.1429
4098.5 61.8571
4099.5 71.2857
4100.5 78.5714
4101.5 78.4286
4102.5 61.8571
4103.5 65.8571
4104.5 59
4105.5 59.4286
4106.5 81.5714
4107.5 48.1429
4108.5 69.5714
4109.5 63
4110.5 58
4111.5 66.2857
4112.5 76
4113.5 77.8571
4114.5 102.571
4115.5 83.8571
4116.5 69.4286
4117.5 61.5714
4118.5 67.2857
4119.5 58.7143
4120.5 51.8571
4121.5 85.4286
4122.5 69.2857
4123.5 61.2857
4124.5 81.1429
4125.5 63.2857
4126.5 100.571
4127.5 81.8571
4128.5 75.8571
4129.5 82.7143
4130.5 65.7143
4131.5 82
4132.5 106.571
4133.5 92
4134.5 113.857
4135.5 86.5714
4136.5 61.2857
4137.5 72.2857
4138.5 96.4286
4139.5 82.8571
4140.5 77.7143
4141.5 48.7143
4142.5 61.8571
4143.5 78.7143
4144.5 109.286
4145.5 112.429
4146.5 184.143
4147.5 103
4148.5 169.571
4149.5 151.571
4150.5 167.286
4151.5 106.429
4152.5 92.4286
4153.5 83.7143
4154.5 89.8571
4155.5 57
4156.5 65.2857
4157.5 64.8571
4158.5 78.2857
4159.5 63.2857
4160.5 77.1429
4161.5 72.1429
4162.5 70.2857
4163.5 78.2857
4164.5 65
4165.5 112.286
4166.5 167.143
4167.5 205.143
4168.5 184
4169.5 220.143
4170.5 129.143
4171.5 93.8571
4172.5 79.7143
4173.5 91.8571
4174.5 70
4175.5 63.2857
4176.5 74.5714
4177.5 78.8571
4178.5 84.7143
4179.5 85.4286
4180.5 69.2857
4181.5 57.5714
4182.5 75.1429
4183.5 63.5714
4184.5 43.4286
4185.5 67.8571
4186.5 89.7143
4187.5 66.7143
4188.5 84.2857
4189.5 65.8571
4190.5 73.7143
4191.5 59.4286
4192.5 72.5714
4193.5 70.1429
4194.5 74.7143
4195.5 77.2857
4196.5 82.8571
4197.5 68.8571
4198.5 75.1429
4199.5 83
4200.5 78
4201.5 89.7143
4202.5 87.8571
4203.5 101.286
4204.5 89.1429
4205.5 80.5714
4206.5 112.429
4207.5 106.857
4208.5 159.571
4209.5 162.429
4210.5 109.143
4211.5 104.143
4212.5 114.286
4213.5 98.7143
4214.5 66
4215.5 68.2857
4216.5 82.7143
4217.5 103.286
4218.5 91.4286
4219.5 61.8571
4220.5 81
4221.5 58.8571
4222.5 68.7143
4223.5 69
4224.5 59.4286
4225.5 68.5714
4226.5 46.7143
4227.5 68.5714
4228.5 56
4229.5 71.5714
4230.5 78.8571
4231.5 70.1429
4232.5 57.5714
4233.5 55.5714
4234.5 69.8571
4235.5 74
4236.5 74.1429
4237.5 77.2857
4238.5 66.4286
4239.5 73.4286
4240.5 53.2857
4241.5 81.8571
4242.5 56.5714
4243.5 61.1429
4244.5 74.4286
4245.5 51.8571
4246.5 66
4247.5 65.1429
4248.5 62.7143
4249.5 71.2857
4250.5 66.1429
4251.5 66.1429
4252.5 94.1429
4253.5 58.8571
4254.5 68.1429
4255.5 120.714
4256.5 149.429
4257.5 170.429
4258.5 172
4259.5 154.714
4260.5 121.429
4261.5 88.2857
4262.5 77.5714
4263.5 125
4264.5 105.714
4265.5 143.143
4266.5 119.286
4267.5 93.1429
4268.5 78.7143
4269.5 69.4286
4270.5 67.4286
4271.5 78.7143
4272.5 59.2857
4273.5 63.2857
4274.5 66.4286
4275.5 47.2857
4276.5 61
4277.5 69.4286
4278.5 78.5714
4279.5 55.5714
4280.5 64.8571
4281.5 67
4282.5 93.7143
4283.5 81.1429
4284.5 61.1429
4285.5 53.4286
4286.5 82
4287.5 40.1429
4288.5 71.2857
4289.5 56
4290.5 51.8571
4291.5 67.8571
4292.5 59.7143
4293.5 71.8571
4294.5 60.2857
4295.5 74.2857
4296.5 69.4286
4297.5 69.7143
4298.5 67.2857
4299.5 65.5714
4300.5 83
4301.5 28.5714
4302.5 80.1429
4303.5 79.4286
4304.5 53.1429
4305.5 38.1429
4306.5 66
4307.5 66.4286
4308.5 59.2857
4309.5 86.5714
4310.5 69.4286
4311.5 61.2857
4312.5 80.2857
4313.5 51.7143
4314.5 80.5714
4315.5 71.7143
4316.5 59.4286
4317.5 64.1429
4318.5 64.8571
4319.5 59.1429
4320.5 55.8571
4321.5 36.7143
4322.5 52.7143
4323.5 45.8571
4324.5 59.8571
4325.5 58.8571
4326.5 57.8571
4327.5 65.7143
4328.5 33.5714
4329.5 81.8571
4330.5 69.7143
4331.5 71.8571
4332.5 93.4286
4333.5 73
4334.5 94.2857
4335.5 49
4336.5 46.1429
4337.5 64.2857
4338.5 37.1429
4339.5 61.4286
4340.5 64.8571
4341.5 56.5714
4342.5 59.8571
4343.5 57.8571
4344.5 71.2857
4345.5 99.5714
4346.5 125.857
4347.5 122.857
4348.5 123.714
4349.5 111.286
4350.5 68.7143
4351.5 56.7143
4352.5 72.7143
4353.5 55.1429
4354.5 47.8571
4355.5 54.5714
4356.5 45.2857
4357.5 41.1429
4358.5 43.7143
4359.5 53.4286
4360.5 42.2857
4361.5 46.4286
4362.5 72.4286
4363.5 34.4286
4364.5 55.7143
4365.5 46.1429
4366.5 54.8571
4367.5 55.5714
4368.5 60.1429
4369.5 57.8571
4370.5 59
4371.5 48.8571
4372.5 74.7143
4373.5 87
4374.5 68.4286
4375.5 72
4376.5 103.429
4377.5 107.571
4378.5 144.714
4379.5 228
4380.5 284.714
4381.5 346.857
4382.5 397.286
4383.5 322.571
4384.5 190.143
4385.5 98.1429
4386.5 103.857
4387.5 36.5714
4388.5 66.5714
4389.5 77.8571
4390.5 72.4286
4391.5 91.7143
4392.5 113.429
4393.5 123.286
4394.5 126.571
4395.5 93.1429
4396.5 82
4397.5 91.2857
4398.5 50.1429
4399.5 49.1429
4400.5 56.7143
4401.5 55
4402.5 48.4286
4403.5 60.5714
4404.5 42
4405.5 66.5714
4406.5 63
4407.5 55.2857
4408.5 53.5714
4409.5 73.8571
4410.5 70.2857
4411.5 48.2857
4412.5 46.2857
4413.5 50.1429
4414.5 58.4286
4415.5 43.8571
4416.5 48.4286
4417.5 40.7143
4418.5 45.1429
4419.5 50.1429
4420.5 58.5714
4421.5 44.7143
4422.5 38.7143
4423.5 66.2857
4424.5 57.8571
4425.5 57.5714
4426.5 50.2857
4427.5 58.4286
4428.5 53.2857
4429.5 51.4286
4430.5 84.7143
4431.5 45.1429
4432.5 59.7143
4433.5 63.8571
4434.5 75.4286
4435.5 22.2857
4436.5 46
4437.5 44.7143
4438.5 55.2857
4439.5 46
4440.5 30.8571
4441.5 67
4442.5 50
4443.5 35.2857
4444.5 26.8571
4445.5 58.2857
4446.5 53.2857
4447.5 57.1429
4448.5 73.5714
4449.5 75.8571
4450.5 103.857
4451.5 137.714
4452.5 213.571
4453.5 343.286
4454.5 601.143
4455.5 912.429
4456.5 1256.29
4457.5 1374.43
4458.5 1176.14
4459.5 654.857
4460.5 347
4461.5 158.571
4462.5 119.143
4463.5 79
4464.5 73.1429
4465.5 62.5714
4466.5 53.8571
4467.5 62.7143
4468.5 60.1429
4469.5 37.7143
4470.5 44.4286
4471.5 36
4472.5 68.2857
4473.5 81.2857
4474.5 43.4286
4475.5 42.7143
4476.5 39.8571
4477.5 46.7143
4478.5 32.7143
4479.5 30.2857
4480.5 41.2857
4481.5 51
4482.5 42.7143
4483.5 41.2857
4484.5 53.8571
4485.5 33.7143
4486.5 34.2857
4487.5 60
4488.5 40.7143
4489.5 46.7143
4490.5 57.5714
4491.5 52
4492.5 52
4493.5 56.5714
4494.5 63.5714
4495.5 52.4286
4496.5 30.5714
4497.5 52.4286
4498.5 24.2857
4499.5 50.7143
4500.5 47.4286
4501.5 36.4286
4502.5 54
4503.5 52.4286
4504.5 46.4286
4505.5 56
4506.5 63.4286
4507.5 50.7143
4508.5 46.7143
4509.5 51.7143
4510.5 52.4286
4511.5 35.8571
4512.5 43.1429
4513.5 40.8571
4514.5 37.5714
4515.5 44
4516.5 42.5714
4517.5 43.5714
4518.5 52
4519.5 33.8571
4520.5 30
4521.5 37
4522.5 47.8571
4523.5 66.4286
4524.5 32.7143
4525.5 60.5714
4526.5 50.8571
4527.5 50.1429
4528.5 28.4286
4529.5 58.5714
4530.5 46.4286
4531.5 50
4532.5 35.1429
4533.5 65
4534.5 49.8571
4535.5 66
4536.5 38.4286
4537.5 53.4286
4538.5 67.2857
4539.5 79.7143
4540.5 38.8571
4541.5 43
4542.5 59.7143
4543.5 51.1429
4544.5 27.5714
4545.5 39.8571
4546.5 50.7143
4547.5 52.2857
4548.5 34.1429
4549.5 44.8571
4550.5 50.4286
4551.5 61
4552.5 63.1429
4553.5 42.2857
4554.5 34.7143
4555.5 33.4286
4556.5 53.5714
4557.5 33
4558.5 25.7143
4559.5 50.7143
4560.5 43.1429
4561.5 52.2857
4562.5 32.2857
4563.5 51.5714
4564.5 55
4565.5 65.4286
4566.5 53.4286
4567.5 36.7143
4568.5 51.5714
4569.5 34.2857
4570.5 34.5714
4571.5 45.5714
4572.5 50.7143
4573.5 60.8571
4574.5 45.1429
4575.5 24.1429
4576.5 77.2857
4577.5 55.5714
4578.5 59.4286
4579.5 46.2857
4580.5 62.2857
4581.5 49.4286
4582.5 55.7143
4583.5 36
4584.5 46.5714
4585.5 43.4286
4586.5 57
4587.5 45.2857
4588.5 37
4589.5 46.7143
4590.5 35.1429
4591.5 40.4286
4592.5 30.2857
4593.5 36.4286
4594.5 54.7143
4595.5 80.8571
4596.5 87.8571
4597.5 115.714
4598.5 104.857
4599.5 117
4600.5 91
4601.5 72.7143
4602.5 47.8571
4603.5 35.8571
4604.5 35
4605.5 50.5714
4606.5 41.5714
4607.5 33.1429
4608.5 33.8571
4609.5 62.2857
4610.5 38
4611.5 40.5714
4612.5 57.1429
4613.5 70.8571
4614.5 81.8571
4615.5 87.5714
4616.5 93.8571
4617.5 108
4618.5 94.7143
4619.5 64
4620.5 51.7143
4621.5 61.1429
4622.5 69.8571
4623.5 70.5714
4624.5 47.1429
4625.5 63.5714
4626.5 58.4286
4627.5 55.2857
4628.5 55.7143
4629.5 59.2857
4630.5 46.8571
4631.5 30.4286
4632.5 34.7143
4633.5 23.2857
4634.5 39
4635.5 61.4286
4636.5 43.7143
4637.5 47.7143
4638.5 55
4639.5 40.8571
4640.5 52.1429
4641.5 36
4642.5 52.4286
4643.5 23.2857
4644.5 36.4286
4645.5 48.2857
4646.5 43.4286
4647.5 43.1429
4648.5 34.4286
4649.5 43
4650.5 66.8571
4651.5 57.7143
4652.5 71.1429
4653.5 55
4654.5 123.429
4655.5 143.571
4656.5 192
4657.5 241.714
4658.5 214.429
4659.5 162.571
4660.5 97.8571
4661.5 82.8571
4662.5 42.5714
4663.5 42.7143
4664.5 46.5714
4665.5 42
4666.5 41.1429
4667.5 43.5714
4668.5 27.5714
4669.5 43.8571
4670.5 27.5714
4671.5 44.5714
4672.5 71.1429
4673.5 60.7143
4674.5 23.1429
4675.5 60.7143
4676.5 40.2857
4677.5 44
4678.5 60.5714
4679.5 49.4286
4680.5 53
4681.5 36.2857
4682.5 45.8571
4683.5 36.5714
4684.5 67.4286
4685.5 47.8571
4686.5 35.8571
4687.5 28.5714
4688.5 37.7143
4689.5 43
4690.5 34.4286
4691.5 53.8571
4692.5 28.2857
4693.5 44.8571
4694.5 31.5714
4695.5 37.1429
4696.5 34.4286
4697.5 33.7143
4698.5 24.5714
4699.5 56
4700.5 52
4701.5 35.1429
4702.5 58.4286
4703.5 27
4704.5 58.1429
4705.5 51.1429
4706.5 46.7143
4707.5 61.1429
4708.5 38.4286
4709.5 35.2857
4710.5 56.1429
4711.5 24.8571
4712.5 31
4713.5 59.4286
4714.5 55.7143
4715.5 51.2857
4716.5 69.2857
4717.5 53.8571
4718.5 26.5714
4719.5 42.2857
4720.5 40.8571
4721.5 48.1429
4722.5 50
4723.5 33.4286
4724.5 58
4725.5 54.4286
4726.5 42.8571
4727.5 74.1429
4728.5 60
4729.5 60.2857
4730.5 38.8571
4731.5 45
4732.5 49.5714
4733.5 44
4734.5 52
4735.5 57.5714
4736.5 36.2857
4737.5 43.7143
4738.5 40.2857
4739.5 33.5714
4740.5 43
4741.5 39.7143
4742.5 39.4286
4743.5 42
4744.5 58.4286
4745.5 52.8571
4746.5 69.7143
4747.5 67
4748.5 71.1429
4749.5 78.4286
4750.5 24.2857
4751.5 52.8571
4752.5 37.2857
4753.5 23.8571
4754.5 42.8571
4755.5 56.5714
4756.5 35.8571
4757.5 36.1429
4758.5 16.2857
4759.5 39
4760.5 36.4286
4761.5 36.4286
4762.5 30
4763.5 29.5714
4764.5 28.8571
4765.5 42.2857
4766.5 31
4767.5 33.2857
4768.5 20
4769.5 36.4286
4770.5 40.1429
4771.5 36.8571
4772.5 44.4286
4773.5 36.5714
4774.5 40.5714
4775.5 34
4776.5 43.7143
4777.5 39.5714
4778.5 44.1429
4779.5 45.7143
4780.5 47.2857
4781.5 28.4286
4782.5 36.4286
4783.5 53
4784.5 47.2857
4785.5 50.4286
4786.5 52.4286
4787.5 40.8571
4788.5 30.4286
4789.5 39.7143
4790.5 49.1429
4791.5 41
4792.5 44.1429
4793.5 39.7143
4794.5 39.7143
4795.5 46.7143
4796.5 41.8571
4797.5 32.8571
4798.5 51.1429
4799.5 55.8571
4800.5 50.4286
4801.5 35.2857
4802.5 40.7143
4803.5 54.7143
4804.5 55.2857
4805.5 42
4806.5 69.5714
4807.5 67
4808.5 69.2857
4809.5 55.7143
4810.5 58.5714
4811.5 58.2857
4812.5 44.8571
4813.5 80.4286
4814.5 71.4286
4815.5 49.7143
4816.5 57.2857
4817.5 61.4286
4818.5 30
4819.5 60.5714
4820.5 37.1429
4821.5 43.2857
4822.5 47.8571
4823.5 33
4824.5 48.5714
4825.5 38.8571
4826.5 53.2857
4827.5 50.7143
4828.5 31.7143
4829.5 34
4830.5 30.2857
4831.5 40.5714
4832.5 44.8571
4833.5 49.5714
4834.5 54.5714
4835.5 46
4836.5 49.2857
4837.5 50
4838.5 52.1429
4839.5 71.4286
4840.5 66
4841.5 99.1429
4842.5 112
4843.5 108.857
4844.5 102.286
4845.5 119
4846.5 60
4847.5 61.5714
4848.5 31.2857
4849.5 52.1429
4850.5 13.8571
4851.5 43.5714
4852.5 49
4853.5 46.5714
4854.5 39.5714
4855.5 46.4286
4856.5 31.2857
4857.5 46.7143
4858.5 34.1429
4859.5 34.1429
4860.5 48.5714
4861.5 46.7143
4862.5 37.8571
4863.5 28.5714
4864.5 37
4865.5 27.2857
4866.5 29.4286
4867.5 30
4868.5 42.7143
4869.5 49.7143
4870.5 32.8571
4871.5 25.8571
4872.5 27
4873.5 33.5714
4874.5 35.5714
4875.5 59.5714
4876.5 55.5714
4877.5 54.5714
4878.5 59.4286
4879.5 42.8571
4880.5 58.7143
4881.5 29.4286
4882.5 48
4883.5 41
4884.5 47.2857
4885.5 58.2857
4886.5 76.7143
4887.5 49.2857
4888.5 64.4286
4889.5 47.1429
4890.5 23.2857
4891.5 50.5714
4892.5 46.8571
4893.5 21
4894.5 41.8571
4895.5 43.2857
4896.5 38.4286
4897.5 55.2857
4898.5 36.1429
4899.5 52.4286
4900.5 48.8571
4901.5 43.2857
4902.5 53.7143
4903.5 72
4904.5 97
4905.5 101.714
4906.5 80.2857
4907.5 63.5714
4908.5 72
4909.5 62.2857
4910.5 37
4911.5 44.7143
4912.5 31.2857
4913.5 42
4914.5 51.2857
4915.5 43.4286
4916.5 47
4917.5 46.4286
4918.5 72
4919.5 100.714
4920.5 77.2857
4921.5 37.8571
4922.5 36.4286
4923.5 22.7143
4924.5 17.4286
4925.5 38.7143
4926.5 44.5714
4927.5 43
4928.5 36.2857
4929.5 44.4286
4930.5 33.5714
4931.5 34.1429
4932.5 36.8571
4933.5 36.8571
4934.5 29.7143
4935.5 57.4286
4936.5 37.8571
4937.5 42.8571
4938.5 47.4286
4939.5 45
4940.5 29.8571
4941.5 28.4286
4942.5 63.7143
4943.5 25.4286
4944.5 48.1429
4945.5 66.2857
4946.5 49.2857
4947.5 36.1429
4948.5 28.1429
4949.5 36
4950.5 28.7143
4951.5 38.8571
4952.5 41.4286
4953.5 47.8571
4954.5 51.8571
4955.5 37.2857
4956.5 64.4286
4957.5 44.7143
4958.5 55.8571
4959.5 65.2857
4960.5 75
4961.5 69.4286
4962.5 62
4963.5 37.2857
4964.5 55.2857
4965.5 38
4966.5 47.1429
4967.5 28
4968.5 48.5714
4969.5 51.1429
4970.5 53.7143
4971.5 53.8571
4972.5 79.8571
4973.5 62
4974.5 79.1429
4975.5 68.4286
4976.5 46.8571
4977.5 54.8571
4978.5 43.7143
4979.5 54
4980.5 53.7143
4981.5 37.5714
4982.5 62.1429
4983.5 52
4984.5 80.8571
4985.5 28.1429
4986.5 39
4987.5 23
4988.5 38.2857
4989.5 28.2857
4990.5 57.2857
4991.5 33.7143
4992.5 47.5714
4993.5 36.8571
4994.5 45.8571
4995.5 38.8571
4996.5 38.2857
4997.5 33
4998.5 39
4999.5 49.7143
5000.5 37
5001.5 41.5714
5002.5 39.5714
5003.5 42.4286
5004.5 43.7143
5005.5 53.2857
5006.5 30.4286
5007.5 37.1429
5008.5 40.5714
5009.5 21.5714
5010.5 42
5011.5 37.1429
5012.5 54.1429
5013.5 40.5714
5014.5 53.2857
5015.5 24.7143
5016.5 35.1429
5017.5 44.5714
5018.5 39
5019.5 37.5714
5020.5 44.2857
5021.5 38.2857
5022.5 32.5714
5023.5 40.1429
5024.5 35.7143
5025.5 44.7143
5026.5 51.5714
5027.5 43.5714
5028.5 47
5029.5 57.1429
5030.5 55.8571
5031.5 37.8571
5032.5 53.5714
5033.5 29.5714
5034.5 51.5714
5035.5 59.8571
5036.5 38
5037.5 42.4286
5038.5 52.4286
5039.5 60.7143
5040.5 42.8571
5041.5 49.1429
5042.5 58.5714
5043.5 57.8571
5044.5 84.2857
5045.5 80.4286
5046.5 92
5047.5 90.8571
5048.5 71.4286
5049.5 66
5050.5 51.7143
5051.5 45.7143
5052.5 52.5714
5053.5 29.4286
5054.5 38
5055.5 52.7143
5056.5 50.5714
5057.5 26.5714
5058.5 36.1429
5059.5 49.2857
5060.5 42.1429
5061.5 45
5062.5 46.5714
5063.5 31.2857
5064.5 32.4286
5065.5 26.7143
5066.5 51.5714
5067.5 55.4286
5068.5 46.7143
5069.5 38.1429
5070.5 28
5071.5 53.7143
5072.5 37.5714
5073.5 64.1429
5074.5 36.7143
5075.5 31.7143
5076.5 37.2857
5077.5 44.2857
5078.5 35.8571
5079.5 57.2857
5080.5 38.7143
5081.5 47.4286
5082.5 35
5083.5 45.5714
5084.5 43
5085.5 46.7143
5086.5 47.4286
5087.5 90.2857
5088.5 57.2857
5089.5 66.7143
5090.5 59.7143
5091.5 93
5092.5 63.7143
5093.5 38.5714
5094.5 31.8571
5095.5 53.8571
5096.5 47.4286
5097.5 44.4286
5098.5 41.2857
5099.5 42
5100.5 46.2857
5101.5 48.4286
5102.5 38.4286
5103.5 50.2857
5104.5 39.1429
5105.5 44.2857
5106.5 37.8571
5107.5 58.7143
5108.5 52.1429
5109.5 37.5714
5110.5 41
5111.5 37.2857
5112.5 55.4286
5113.5 31.4286
5114.5 50.4286
5115.5 25
5116.5 38
5117.5 38.2857
5118.5 29
5119.5 56.5714
5120.5 46.1429
5121.5 36.8571
5122.5 53.4286
5123.5 32.1429
5124.5 38.8571
5125.5 30.1429
5126.5 41.7143
5127.5 38.4286
5128.5 73
5129.5 32.4286
5130.5 34.1429
5131.5 41.4286
5132.5 44.5714
5133.5 51.5714
5134.5 39.1429
5135.5 53.8571
5136.5 58.2857
5137.5 38.2857
5138.5 48.1429
5139.5 39.7143
5140.5 24.8571
5141.5 47.5714
5142.5 55.4286
5143.5 29
5144.5 53
5145.5 64.8571
5146.5 63.1429
5147.5 68.4286
5148.5 69.8571
5149.5 84.2857
5150.5 99.7143
5151.5 87.2857
5152.5 63.1429
5153.5 75.2857
5154.5 51
5155.5 32.4286
5156.5 39.2857
5157.5 53
5158.5 59.4286
5159.5 53
5160.5 56.2857
5161.5 38.8571
5162.5 54.8571
5163.5 33.2857
5164.5 62.1429
5165.5 46.2857
5166.5 40.7143
5167.5 46.7143
5168.5 30.8571
5169.5 42
5170.5 32.1429
5171.5 33.8571
5172.5 54.2857
5173.5 28.7143
5174.5 49.1429
5175.5 37.4286
5176.5 45.4286
5177.5 41.7143
5178.5 37.7143
5179.5 32.4286
5180.5 62.5714
5181.5 36.2857
5182.5 53.5714
5183.5 34.2857
5184.5 28.5714
5185.5 25.5714
5186.5 52.1429
5187.5 59
5188.5 40.8571
5189.5 36.1429
5190.5 44.2857
5191.5 44.2857
5192.5 58.2857
5193.5 55.8571
5194.5 30
5195.5 55.1429
5196.5 30.8571
5197.5 46.2857
5198.5 28.1429
5199.5 44
5200.5 30.4286
5201.5 45.5714
5202.5 39.1429
5203.5 26.4286
5204.5 41.5714
5205.5 38
5206.5 46
5207.5 35.1429
5208.5 48.2857
5209.5 50.4286
5210.5 51
5211.5 58.7143
5212.5 52.1429
5213.5 33.4286
5214.5 47.2857
5215.5 27
5216.5 41.1429
5217.5 46.4286
5218.5 52
5219.5 41.4286
5220.5 44.1429
5221.5 47.8571
5222.5 51.1429
5223.5 59
5224.5 49.7143
5225.5 44.1429
5226.5 42.1429
5227.5 37.4286
5228.5 64
5229.5 60.2857
5230.5 53.7143
5231.5 34
5232.5 37.7143
5233.5 36.2857
5234.5 37.5714
5235.5 38
5236.5 43.7143
5237.5 30.5714
5238.5 44.8571
5239.5 54
5240.5 60.4286
5241.5 52.2857
5242.5 46.1429
5243.5 36.1429
5244.5 42.7143
5245.5 33.4286
5246.5 32.5714
5247.5 29.2857
5248.5 30.8571
5249.5 50.8571
5250.5 39.1429
5251.5 54.5714
5252.5 39.4286
5253.5 21.1429
5254.5 42.7143
5255.5 48
5256.5 42.8571
5257.5 42.2857
5258.5 38.1429
5259.5 37.4286
5260.5 60.1429
5261.5 24.1429
5262.5 47
5263.5 37.1429
5264.5 44.4286
5265.5 46.8571
5266.5 52.5714
5267.5 38.7143
5268.5 47
5269.5 62
5270.5 41.8571
5271.5 37.2857
5272.5 46.2857
5273.5 52.7143
5274.5 38.1429
5275.5 36.5714
5276.5 44.7143
5277.5 28.8571
5278.5 44.2857
5279.5 36.1429
5280.5 57.1429
5281.5 52
5282.5 48.8571
5283.5 52.2857
5284.5 55.5714
5285.5 49.2857
5286.5 51.5714
5287.5 39.2857
5288.5 36
5289.5 42.8571
5290.5 37
5291.5 30.7143
5292.5 63
5293.5 34.5714
5294.5 53.8571
5295.5 47.4286
5296.5 41
5297.5 44.5714
5298.5 25.4286
5299.5 49
5300.5 58
5301.5 47.1429
5302.5 72.7143
5303.5 83.1429
5304.5 71.2857
5305.5 60.7143
5306.5 49.4286
5307.5 29.2857
5308.5 45
5309.5 25.7143
5310.5 46.7143
5311.5 37.4286
5312.5 31.7143
5313.5 39.1429
5314.5 44.2857
5315.5 39.4286
5316.5 43.7143
5317.5 36
5318.5 51.2857
5319.5 56.1429
5320.5 34.8571
5321.5 46.8571
5322.5 42.1429
5323.5 37.1429
5324.5 40.7143
5325.5 39
5326.5 34.5714
5327.5 40.2857
5328.5 73.4286
5329.5 65.1429
5330.5 65.4286
5331.5 48.7143
5332.5 37.8571
5333.5 55.5714
5334.5 49.4286
5335.5 40.5714
5336.5 36.8571
5337.5 51.7143
5338.5 33.2857
5339.5 42.8571
5340.5 31.4286
5341.5 42.2857
5342.5 50.4286
5343.5 51.4286
5344.5 40.1429
5345.5 44.4286
5346.5 53.7143
5347.5 55.8571
5348.5 58
5349.5 63.1429
5350.5 116.571
5351.5 135.143
5352.5 174
5353.5 229
5354.5 301.429
5355.5 280.286
5356.5 245.286
5357.5 168
5358.5 108.286
5359.5 72.8571
5360.5 50.5714
5361.5 42.8571
5362.5 43.5714
5363.5 55.7143
5364.5 62
5365.5 53
5366.5 45.8571
5367.5 45.8571
5368.5 20.8571
5369.5 45.2857
5370.5 36
5371.5 34.4286
5372.5 42.2857
5373.5 53.7143
5374.5 27
5375.5 35
5376.5 48.7143
5377.5 39.8571
5378.5 38
5379.5 51.7143
5380.5 50.2857
5381.5 44.2857
5382.5 44.7143
5383.5 49.5714
5384.5 62.2857
5385.5 48.1429
5386.5 52.5714
5387.5 71.2857
5388.5 61.4286
5389.5 82.8571
5390.5 91.7143
5391.5 93.2857
5392.5 58.5714
5393.5 50.4286
5394.5 93.1429
5395.5 53.2857
5396.5 79.7143
5397.5 74.7143
5398.5 64
5399.5 64.4286
5400.5 60
5401.5 52.5714
5402.5 50
5403.5 37.7143
5404.5 50.1429
5405.5 50.8571
5406.5 51.1429
5407.5 32.4286
5408.5 61.4286
5409.5 43.5714
5410.5 33.1429
5411.5 51.8571
5412.5 51.5714
5413.5 30
5414.5 40.2857
5415.5 50.2857
5416.5 47.5714
5417.5 79.1429
5418.5 78.7143
5419.5 63.5714
5420.5 58.5714
5421.5 54.2857
5422.5 52
5423.5 44.5714
5424.5 36
5425.5 46.2857
5426.5 32.4286
5427.5 45.4286
5428.5 33.8571
5429.5 34.1429
5430.5 44.7143
5431.5 31.4286
5432.5 54.5714
5433.5 31.2857
5434.5 43.4286
5435.5 18.1429
5436.5 51.2857
5437.5 36.1429
5438.5 46.8571
5439.5 25
5440.5 49.7143
5441.5 41.8571
5442.5 43.5714
5443.5 43.5714
5444.5 24.8571
5445.5 41.7143
5446.5 41.7143
5447.5 47.4286
5448.5 41.8571
5449.5 33.2857
5450.5 26.8571
5451.5 70.5714
5452.5 42.4286
5453.5 51.1429
5454.5 54.8571
5455.5 42.4286
5456.5 38.4286
5457.5 34.2857
5458.5 45.7143
5459.5 54.2857
5460.5 55.2857
5461.5 35.1429
5462.5 44.1429
5463.5 37.1429
5464.5 59.1429
5465.5 56.8571
5466.5 44.8571
5467.5 49.7143
5468.5 69.8571
5469.5 84.7143
5470.5 104.286
5471.5 135.286
5472.5 113.286
5473.5 91
5474.5 94.2857
5475.5 55.2857
5476.5 45.1429
5477.5 50.2857
5478.5 50.1429
5479.5 39.1429
5480.5 38.4286
5481.5 49.1429
5482.5 46.2857
5483.5 37.1429
5484.5 54.1429
5485.5 46
5486.5 47.1429
5487.5 47.1429
5488.5 40.8571
5489.5 30.4286
5490.5 55.7143
5491.5 60.8571
5492.5 40.8571
5493.5 52.2857
5494.5 41.5714
5495.5 40.2857
5496.5 39.8571
5497.5 39.2857
5498.5 46.8571
5499.5 40.5714
5500.5 34.5714
5501.5 43.1429
5502.5 58.5714
5503.5 42.7143
5504.5 42.8571
5505.5 41.8571
5506.5 43.2857
5507.5 48.1429
5508.5 37.1429
5509.5 48.1429
5510.5 55.8571
5511.5 56.2857
5512.5 35.8571
5513.5 56.8571
5514.5 62.7143
5515.5 60.1429
5516.5 70.5714
5517.5 74.8571
5518.5 112
5519.5 141.286
5520.5 217
5521.5 283.429
5522.5 449.571
5523.5 626.714
5524.5 663.429
5525.5 598.571
5526.5 377.429
5527.5 212.857
5528.5 123.143
5529.5 117.143
5530.5 71.7143
5531.5 79.5714
5532.5 72.1429
5533.5 55
5534.5 72.7143
5535.5 59.2857
5536.5 66.1429
5537.5 43
5538.5 70.4286
5539.5 76.8571
5540.5 61.7143
5541.5 63.8571
5542.5 58
5543.5 64.7143
5544.5 50.5714
5545.5 62.4286
5546.5 50.7143
5547.5 52.8571
5548.5 74.8571
5549.5 73.2857
5550.5 70.5714
5551.5 47.7143
5552.5 56.8571
5553.5 64.7143
5554.5 56.7143
5555.5 61.4286
5556.5 68
5557.5 60.5714
5558.5 44
5559.5 57.7143
5560.5 58.2857
5561.5 61.1429
5562.5 68
5563.5 40.4286
5564.5 77.1429
5565.5 75.5714
5566.5 62.2857
5567.5 60.4286
5568.5 62.1429
5569.5 68.2857
5570.5 58.8571
5571.5 79.4286
5572.5 55.8571
5573.5 62.7143
5574.5 81.8571
5575.5 61.4286
5576.5 45.7143
5577.5 69.5714
5578.5 44
5579.5 64.5714
5580.5 77.5714
5581.5 47.8571
5582.5 60
5583.5 50.1429
5584.5 75.7143
5585.5 67
5586.5 60.2857
5587.5 66.4286
5588.5 66.1429
5589.5 81.2857
5590.5 57.8571
5591.5 83.1429
5592.5 70.1429
5593.5 72.4286
5594.5 87.5714
5595.5 83.1429
5596.5 75.1429
5597.5 84.4286
5598.5 54.1429
5599.5 65.1429
5600.5 56.4286
5601.5 49.5714
5602.5 58.8571
5603.5 61.8571
5604.5 60.8571
5605.5 49.1429
5606.5 51.4286
5607.5 86
5608.5 67.4286
5609.5 59.7143
5610.5 61
5611.5 69.4286
5612.5 67.2857
5613.5 86
5614.5 58.5714
5615.5 67.7143
5616.5 69
5617.5 64.8571
5618.5 60.1429
5619.5 81
5620.5 61.2857
5621.5 71.2857
5622.5 68.8571
5623.5 63.2857
5624.5 49.1429
5625.5 61.4286
5626.5 79.7143
5627.5 57.4286
5628.5 51.1429
5629.5 67.5714
5630.5 59.2857
5631.5 81.4286
5632.5 55.5714
5633.5 66.4286
5634.5 78.2857
5635.5 54.2857
5636.5 71.2857
5637.5 83.5714
5638.5 76.7143
5639.5 67.4286
5640.5 44.4286
5641.5 60.8571
5642.5 73.7143
5643.5 80
5644.5 67
5645.5 49.8571
5646.5 91.1429
5647.5 67.7143
5648.5 75.8571
5649.5 73.7143
5650.5 73
5651.5 69.4286
5652.5 53.5714
5653.5 58.7143
5654.5 59.7143
5655.5 70.7143
5656.5 65.8571
5657.5 93.5714
5658.5 61.4286
5659.5 67.4286
5660.5 67.7143
5661.5 73.5714
5662.5 75.1429
5663.5 59.7143
5664.5 62.7143
5665.5 77.4286
5666.5 74.1429
5667.5 58.7143
5668.5 75.4286
5669.5 63.8571
5670.5 70.5714
5671.5 73.2857
5672.5 82.7143
5673.5 74
5674.5 61.4286
5675.5 70
5676.5 65
5677.5 79.1429
5678.5 78.8571
5679.5 66.4286
5680.5 70.8571
5681.5 73.7143
5682.5 77.7143
5683.5 71.7143
5684.5 91.5714
5685.5 58.2857
5686.5 86.7143
5687.5 87.1429
5688.5 63.5714
5689.5 72.2857
5690.5 65
5691.5 50.5714
5692.5 79.8571
5693.5 80.5714
5694.5 89.4286
5695.5 69
5696.5 75.7143
5697.5 90
5698.5 84.1429
5699.5 82
5700.5 76.7143
5701.5 67
5702.5 87.5714
5703.5 79.8571
5704.5 77.2857
5705.5 74
5706.5 71.7143
5707.5 74.4286
5708.5 61.5714
5709.5 54.5714
5710.5 70
5711.5 74
5712.5 77.2857
5713.5 70.7143
5714.5 92
5715.5 48.2857
5716.5 45.8571
5717.5 63.1429
5718.5 68.4286
5719.5 92.7143
5720.5 97
5721.5 80.7143
5722.5 75.4286
5723.5 72.5714
5724.5 75.8571
5725.5 60.2857
5726.5 77.2857
5727.5 58
5728.5 75.5714
5729.5 74.5714
5730.5 86.7143
5731.5 89.7143
5732.5 81.1429
5733.5 62.8571
5734.5 87.1429
5735.5 76.4286
5736.5 84.4286
5737.5 66
5738.5 82.4286
5739.5 78
5740.5 73.1429
5741.5 85.7143
5742.5 77.4286
5743.5 81.4286
5744.5 81.1429
5745.5 66.8571
5746.5 84.7143
5747.5 64.4286
5748.5 77.4286
5749.5 69.5714
5750.5 86.2857
5751.5 81.8571
5752.5 72.5714
5753.5 95.1429
5754.5 74.5714
5755.5 67.1429
5756.5 52.7143
5757.5 89
5758.5 79.2857
5759.5 69.1429
5760.5 47.5714
5761.5 60.1429
5762.5 83.2857
5763.5 59.8571
5764.5 71.8571
5765.5 79.7143
5766.5 61
5767.5 72.1429
5768.5 63.2857
5769.5 77.5714
5770.5 69.8571
5771.5 67.8571
5772.5 104.571
5773.5 74.4286
5774.5 67.5714
5775.5 75.7143
5776.5 91.5714
5777.5 84.7143
5778.5 71.4286
5779.5 78.7143
5780.5 84
5781.5 72.7143
5782.5 85.4286
5783.5 72.5714
5784.5 59.1429
5785.5 76.4286
5786.5 72.8571
5787.5 81.8571
5788.5 82.4286
5789.5 76.1429
5790.5 58.8571
5791.5 81.5714
5792.5 88.4286
5793.5 61
5794.5 95
5795.5 70.5714
5796.5 68.1429
5797.5 92
5798.5 60.4286
5799.5 78.2857
5800.5 80.4286
5801.5 66.7143
5802.5 83.5714
5803.5 82.4286
5804.5 86
5805.5 78.7143
5806.5 100.571
5807.5 89.2857
5808.5 92.1429
5809.5 84.8571
5810.5 80.4286
5811.5 76.1429
5812.5 84.4286
5813.5 74.1429
5814.5 87.7143
5815.5 86.7143
5816.5 56.4286
5817.5 79.5714
5818.5 94.4286
5819.5 79.7143
5820.5 85.8571
5821.5 85.4286
5822.5 84.7143
5823.5 68.2857
5824.5 88.7143
5825.5 64.1429
5826.5 121
5827.5 67.7143
5828.5 97.4286
5829.5 91.2857
5830.5 79.5714
5831.5 90.5714
5832.5 91.8571
5833.5 88
5834.5 103.143
5835.5 85.2857
5836.5 107.571
5837.5 87.4286
5838.5 84.8571
5839.5 108.143
5840.5 114.143
5841.5 118.857
5842.5 119.429
5843.5 107.571
5844.5 122.714
5845.5 108.429
5846.5 93
5847.5 105.429
5848.5 85.8571
5849.5 80.4286
5850.5 101.143
5851.5 103.714
5852.5 68.8571
5853.5 93.4286
5854.5 90
5855.5 94.8571
5856.5 90.1429
5857.5 63
5858.5 90.2857
5859.5 80
5860.5 104.857
5861.5 67.7143
5862.5 81.5714
5863.5 89.2857
5864.5 82
5865.5 84.7143
5866.5 103.286
5867.5 72.8571
5868.5 85.8571
5869.5 83.8571
5870.5 87.1429
5871.5 72.8571
5872.5 72
5873.5 92.5714
5874.5 72.4286
5875.5 73.5714
5876.5 83.4286
5877.5 66.8571
5878.5 84.8571
5879.5 84.7143
5880.5 63.2857
5881.5 79.5714
5882.5 69.4286
5883.5 80.4286
5884.5 65
5885.5 83.7143
5886.5 84.5714
5887.5 73.1429
5888.5 85.7143
5889.5 68.4286
5890.5 60.5714
5891.5 68.5714
5892.5 92.5714
5893.5 65
5894.5 83.4286
5895.5 78.7143
5896.5 119.286
5897.5 105.714
5898.5 159.143
5899.5 153.571
5900.5 178.143
5901.5 163.714
5902.5 135.143
5903.5 131.286
5904.5 85.7143
5905.5 90.7143
5906.5 63.5714
5907.5 63.2857
5908.5 87.8571
5909.5 109.286
5910.5 77.2857
5911.5 97.4286
5912.5 61.7143
5913.5 95.2857
5914.5 71.8571
5915.5 72.2857
5916.5 71.2857
5917.5 69.1429
5918.5 62.7143
5919.5 62.4286
5920.5 74.2857
5921.5 78.2857
5922.5 83.8571
5923.5 61.5714
5924.5 58.8571
5925.5 70.8571
5926.5 78.7143
5927.5 82.5714
5928.5 80.4286
5929.5 63.8571
5930.5 83
5931.5 67.8571
5932.5 72.5714
5933.5 65.5714
5934.5 72.4286
5935.5 66.1429
5936.5 73.7143
5937.5 61.7143
5938.5 75
5939.5 60.8571
5940.5 71.4286
5941.5 78.2857
5942.5 69.2857
5943.5 62
5944.5 83.1429
5945.5 53.2857
5946.5 82.1429
5947.5 60.2857
5948.5 60
5949.5 68.4286
5950.5 57
5951.5 63.8571
5952.5 59
5953.5 55
5954.5 62.4286
5955.5 66.2857
5956.5 71.2857
5957.5 66.7143
5958.5 46.8571
5959.5 96.4286
5960.5 63.5714
5961.5 53.7143
5962.5 61.4286
5963.5 64.1429
5964.5 64.7143
5965.5 62.4286
5966.5 53.4286
5967.5 62.4286
5968.5 82.2857
5969.5 74.4286
5970.5 76.1429
5971.5 50.5714
5972.5 65.5714
5973.5 50.5714
5974.5 75.5714
5975.5 58.7143
5976.5 54.1429
5977.5 63.8571
5978.5 63
5979.5 71.5714
5980.5 59.1429
5981.5 56.1429
5982.5 58.1429
5983.5 68.4286
5984.5 66.5714
5985.5 79.8571
5986.5 66
5987.5 66.7143
5988.5 40.1429
5989.5 64.2857
5990.5 57.2857
5991.5 57.5714
5992.5 54.5714
5993.5 62.1429
5994.5 64.2857
5995.5 79.2857
5996.5 64.8571
5997.5 101.143
5998.5 70.7143
5999.5 103.429
6000.5 94.1429
6001.5 38
6002.5 55.2857
6003.5 61.5714
6004.5 83.4286
6005.5 76
6006.5 54.7143
6007.5 50
6008.5 71.8571
6009.5 48.2857
6010.5 55.4286
6011.5 57.2857
6012.5 71.8571
6013.5 60.7143
6014.5 52.8571
6015.5 70.5714
6016.5 44.1429
6017.5 72.4286
6018.5 58.1429
6019.5 69.8571
6020.5 64
6021.5 70.8571
6022.5 83.4286
6023.5 72
6024.5 118
6025.5 105.857
6026.5 151
6027.5 208.143
6028.5 287
6029.5 477.286
6030.5 618.143
6031.5 828
6032.5 1132
6033.5 1494.29
6034.5 1724.57
6035.5 1841.86
6036.5 1535.29
6037.5 1105.43
6038.5 753
6039.5 420.429
6040.5 226.857
6041.5 155.429
6042.5 117.857
6043.5 102.571
6044.5 95.8571
6045.5 96.5714
6046.5 89.4286
6047.5 86.7143
6048.5 99.1429
6049.5 61.1429
6050.5 97.8571
6051.5 81.2857
6052.5 84.7143
6053.5 78.1429
6054.5 63.4286
6055.5 85.5714
6056.5 71
6057.5 96.8571
6058.5 82
6059.5 86.4286
6060.5 70.5714
6061.5 77.1429
6062.5 75.2857
6063.5 76.5714
6064.5 103.857
6065.5 64.2857
6066.5 63.2857
6067.5 74.5714
6068.5 73.8571
6069.5 76.7143
6070.5 78.4286
6071.5 74.7143
6072.5 91.5714
6073.5 83.2857
6074.5 89.7143
6075.5 84
6076.5 86.4286
6077.5 74.4286
6078.5 58
6079.5 72.7143
6080.5 58.4286
6081.5 58
6082.5 75
6083.5 80.2857
6084.5 69.5714
6085.5 62.2857
6086.5 83.1429
6087.5 86
6088.5 83.1429
6089.5 74.8571
6090.5 79.8571
6091.5 75.4286
6092.5 79.5714
6093.5 63.2857
6094.5 82.7143
6095.5 79
6096.5 73.8571
6097.5 55.7143
6098.5 80.8571
6099.5 68.1429
6100.5 83.4286
6101.5 80.2857
6102.5 74.5714
6103.5 75.7143
6104.5 75.2857
6105.5 101.143
6106.5 94.4286
6107.5 72.4286
6108.5 87.8571
6109.5 83.7143
6110.5 99.1429
6111.5 80.4286
6112.5 77.5714
6113.5 93.8571
6114.5 65.1429
6115.5 75.4286
6116.5 81
6117.5 86.7143
6118.5 81.5714
6119.5 78.4286
6120.5 75.4286
6121.5 73.2857
6122.5 95.8571
6123.5 67.7143
6124.5 92.8571
6125.5 69.2857
6126.5 57.4286
6127.5 80.1429
6128.5 67.7143
6129.5 67.4286
6130.5 71.7143
6131.5 91.8571
6132.5 69.5714
6133.5 80.1429
6134.5 74.2857
6135.5 68.5714
6136.5 97.4286
6137.5 79.4286
6138.5 88.7143
6139.5 89.4286
6140.5 82.5714
6141.5 83.7143
6142.5 60.4286
6143.5 77.1429
6144.5 79.4286
6145.5 67
6146.5 90.2857
6147.5 73.4286
6148.5 71.2857
6149.5 82.2857
6150.5 60
6151.5 82.5714
6152.5 72.8571
6153.5 76.5714
6154.5 88.7143
6155.5 71.8571
6156.5 80.1429
6157.5 79.5714
6158.5 73.7143
6159.5 68.8571
6160.5 72.5714
6161.5 71.5714
6162.5 65.7143
6163.5 87.8571
6164.5 81.5714
6165.5 63.1429
6166.5 89.1429
6167.5 69.4286
6168.5 75.8571
6169.5 78.5714
6170.5 75.1429
6171.5 68.1429
6172.5 79.1429
6173.5 63
6174.5 76.8571
6175.5 79.5714
6176.5 67.8571
6177.5 82.8571
6178.5 77.8571
6179.5 76.7143
6180.5 79.5714
6181.5 74.1429
6182.5 86.8571
6183.5 78.1429
6184.5 86.8571
6185.5 84.1429
6186.5 77.8571
6187.5 71.1429
6188.5 86.5714
6189.5 67.8571
6190.5 91.5714
6191.5 81.2857
6192.5 69.5714
6193.5 85.1429
6194.5 80.8571
6195.5 86
6196.5 81.2857
6197.5 83.8571
6198.5 81.1429
6199.5 84.1429
6200.5 106.714
6201.5 86.8571
6202.5 76.5714
6203.5 89
6204.5 91.7143
6205.5 83.8571
6206.5 87.1429
6207.5 96.2857
6208.5 94.1429
6209.5 77.7143
6210.5 85.4286
6211.5 85.4286
6212.5 76.7143
6213.5 85.1429
6214.5 82.5714
6215.5 69.5714
6216.5 75.8571
6217.5 95.7143
6218.5 97.4286
6219.5 104.286
6220.5 82.2857
6221.5 72
6222.5 91.1429
6223.5 83.8571
6224.5 94.8571
6225.5 85.4286
6226.5 86.4286
6227.5 69.2857
6228.5 96.1429
6229.5 81.4286
6230.5 82.5714
6231.5 84.5714
6232.5 73.2857
6233.5 77.1429
6234.5 87.1429
6235.5 99.4286
6236.5 82.8571
6237.5 77
6238.5 85.4286
6239.5 77.1429
6240.5 78.4286
6241.5 67.1429
6242.5 97.7143
6243.5 77.2857
6244.5 74.1429
6245.5 91.2857
6246.5 78.2857
6247.5 98.8571
6248.5 83.5714
6249.5 87.1429
6250.5 74.1429
6251.5 87.5714
6252.5 81
6253.5 89.7143
6254.5 84.5714
6255.5 74.5714
6256.5 88.5714
6257.5 97.8571
6258.5 98.4286
6259.5 97.2857
6260.5 72
6261.5 80.8571
6262.5 105.143
6263.5 82.1429
6264.5 81.4286
6265.5 87.7143
6266.5 90.4286
6267.5 83.5714
6268.5 88.7143
6269.5 99.8571
6270.5 97.8571
6271.5 102.857
6272.5 109.429
6273.5 97.2857
6274.5 114.143
6275.5 101.143
6276.5 92.1429
6277.5 92.7143
6278.5 94.4286
6279.5 100.857
6280.5 88.4286
6281.5 104.857
6282.5 104.143
6283.5 85.4286
6284.5 102.714
6285.5 100.429
6286.5 95.2857
6287.5 115.143
6288.5 95.4286
6289.5 102.143
6290.5 96.1429
6291.5 87.7143
6292.5 98.1429
6293.5 99.1429
6294.5 98.1429
6295.5 102.143
6296.5 77
6297.5 99.4286
6298.5 100.857
6299.5 104.571
6300.5 111.143
6301.5 93.1429
6302.5 79.7143
6303.5 83.7143
6304.5 94
6305.5 86.4286
6306.5 82.2857
6307.5 77.7143
6308.5 83.4286
6309.5 88.4286
6310.5 74.8571
6311.5 73.1429
6312.5 72.4286
6313.5 76.1429
6314.5 86.8571
6315.5 84.1429
6316.5 74.8571
6317.5 76.8571
6318.5 75.1429
6319.5 91.7143
6320.5 77.7143
6321.5 70.1429
6322.5 62.7143
6323.5 89.7143
6324.5 63.4286
6325.5 64.5714
6326.5 79.7143
6327.5 95.7143
6328.5 81.2857
6329.5 83.4286
6330.5 67.7143
6331.5 82.7143
6332.5 101.143
6333.5 69.2857
6334.5 102.857
6335.5 76.1429
6336.5 68.4286
6337.5 71.7143
6338.5 71.8571
6339.5 73.7143
6340.5 84.1429
6341.5 75
6342.5 67.4286
6343.5 85.4286
6344.5 85.4286
6345.5 65.1429
6346.5 83.5714
6347.5 76.8571
6348.5 78.7143
6349.5 86.1429
6350.5 102.571
6351.5 84
6352.5 87.1429
6353.5 65.4286
6354.5 81.8571
6355.5 73.5714
6356.5 79.7143
6357.5 75
6358.5 79.7143
6359.5 91.4286
6360.5 101
6361.5 85.2857
6362.5 75
6363.5 87.7143
6364.5 80.1429
6365.5 73.4286
6366.5 80.4286
6367.5 86.7143
6368.5 86.4286
6369.5 67.8571
6370.5 62.5714
6371.5 81.7143
6372.5 80
6373.5 76
6374.5 65.7143
6375.5 77.4286
6376.5 61.1429
6377.5 61.1429
6378.5 81
6379.5 64
6380.5 89.4286
6381.5 45.4286
6382.5 84.4286
6383.5 79.4286
6384.5 74.7143
6385.5 72.7143
6386.5 47.8571
6387.5 72.4286
6388.5 81.1429
6389.5 87.1429
6390.5 58.1429
6391.5 71.5714
6392.5 54.1429
6393.5 56.8571
6394.5 49.2857
6395.5 74.1429
6396.5 75.4286
6397.5 75.8571
6398.5 68.4286
6399.5 66.4286
6400.5 58.4286
6401.5 79
6402.5 57
6403.5 69.4286
6404.5 58.4286
6405.5 59.4286
6406.5 57.7143
6407.5 62.4286
6408.5 61.4286
6409.5 59.4286
6410.5 55
6411.5 60.7143
6412.5 61.4286
6413.5 62
6414.5 57
6415.5 48
6416.5 57.7143
6417.5 57.8571
6418.5 52.4286
6419.5 53.4286
6420.5 44.1429
6421.5 53.5714
6422.5 61.4286
6423.5 58
6424.5 52.1429
6425.5 42.1429
6426.5 54.4286
6427.5 46.4286
6428.5 47.7143
6429.5 48.4286
6430.5 50.7143
6431.5 42.4286
6432.5 56.8571
6433.5 39.8571
6434.5 40.8571
6435.5 46.7143
6436.5 44
6437.5 40.1429
6438.5 52.7143
6439.5 41.1429
6440.5 37.7143
6441.5 37.1429
6442.5 34.5714
6443.5 34.5714
6444.5 48.1429
6445.5 40.1429
6446.5 37.4286
6447.5 36.7143
6448.5 28.1429
6449.5 47.4286
6450.5 34.1429
6451.5 29.4286
6452.5 38.7143
6453.5 42.4286
6454.5 37.4286
6455.5 23.7143
6456.5 33.7143
6457.5 27.1429
6458.5 29
6459.5 25.4286
6460.5 31.8571
6461.5 36.7143
6462.5 32.1429
6463.5 27.7143
6464.5 29
6465.5 34.4286
6466.5 33
6467.5 36.7143
6468.5 29.1429
6469.5 18.4286
6470.5 35
6471.5 32.4286
6472.5 24
6473.5 24.7143
6474.5 22.7143
6475.5 30.4286
6476.5 44.4286
6477.5 17.7143
6478.5 0.285715
6479.5 40.1429
6480.5 37.4286
6481.5 27.4286
6482.5 48
6483.5 45
6484.5 27.5714
6485.5 16.8571
6486.5 18.1429
6487.5 24.7143
6488.5 29.7143
6489.5 26
6490.5 24.4286
6491.5 20.1429
6492.5 28.4286
6493.5 30.4286
6494.5 22.7143
6495.5 24.8571
6496.5 18.4286
6497.5 26.7143
6498.5 24.5714
6499.5 24.4286
6500.5 25
6501.5 18.4286
6502.5 22.7143
6503.5 22.7143
6504.5 29.7143
6505.5 25
6506.5 13.7143
6507.5 27.1429
6508.5 26
6509.5 32
6510.5 39
6511.5 26.7143
6512.5 25.4286
6513.5 34
6514.5 38
6515.5 27.7143
6516.5 23
6517.5 26.4286
6518.5 21.7143
6519.5 30
6520.5 37
6521.5 31.4286
6522.5 27.7143
6523.5 30
6524.5 31.7143
6525.5 22
6526.5 28.4286
6527.5 32
6528.5 35.7143
6529.5 21.7143
6530.5 33.1429
6531.5 31.7143
6532.5 27.1429
6533.5 32.4286
6534.5 53.4286
6535.5 71
6536.5 87.4286
6537.5 143
6538.5 258.143
6539.5 436.714
6540.5 678.857
6541.5 1113.14
6542.5 1635.86
6543.5 2174.43
6544.5 2866
6545.5 3606.43
6546.5 3715.29
6547.5 3240.29
6548.5 2213.57
6549.5 1273
6550.5 654.143
6551.5 267.571
6552.5 177.143
6553.5 126
6554.5 92
6555.5 62.7143
6556.5 61
6557.5 32.4286
6558.5 25.7143
6559.5 28.1429
6560.5 23.7143
6561.5 9.85714
6562.5 6.42857
6563.5 -0.714286
6564.5 -1.42857
6565.5 -0.571429
6566.5 -2.14286
6567.5 -1.42857
6568.5 -1.85714
6569.5 -1.85714
6570.5 -9.28571
6571.5 -2.14286
6572.5 2
6573.5 0
6574.5 0.428571
6575.5 -0.857143
6576.5 4
6577.5 1
6578.5 -3.85714
6579.5 0.428571
6580.5 0
6581.5 2.71429
6582.5 -1.57143
6583.5 1.71429
6584.5 -1.57143
6585.5 1.71429
6586.5 2
6587.5 1
6588.5 -0.571429
6589.5 1
6590.5 -0.571429
6591.5 2
6592.5 3
6593.5 0.714286
6594.5 0.714286
6595.5 1.71429
6596.5 2.71429
6597.5 3
6598.5 2.71429
6599.5 3.42857
6600.5 2
6601.5 5
6602.5 2.14286
6603.5 0.714286
6604.5 1.71429
6605.5 0.714286
6606.5 -0.857143
6607.5 3
6608.5 -0.857143
6609.5 3
6610.5 2.42857
6611.5 -0.285714
6612.5 -0.285714
6613.5 0.714286
6614.5 0.714286
6615.5 3
6616.5 0.428571
6617.5 -2.85714
6618.5 -0.571429
6619.5 -1.85714
6620.5 5
6621.5 0.714286
6622.5 0.714286
6623.5 1.14286
6624.5 2.71429
6625.5 1.71429
6626.5 4
6627.5 1.42857
6628.5 1.42857
6629.5 1.71429
6630.5 1.71429
6631.5 3
6632.5 1
6633.5 -1.28571
6634.5 1
6635.5 1.71429
6636.5 2
6637.5 -1.28571
6638.5 1.71429
6639.5 3
6640.5 2
6641.5 1.71429
6642.5 4
6643.5 -5.14286
6644.5 -0.571429
6645.5 0.714286
6646.5 2
6647.5 4
6648.5 -0.857143
6649.5 -1.57143
6650.5 -3.85714
6651.5 5
6652.5 1.71429
6653.5 2.71429
6654.5 -4.42857
6655.5 -2.57143
6656.5 -1.57143
6657.5 0.428571
6658.5 -0.571429
6659.5 -0.285714
6660.5 -0.285714
6661.5 -1.57143
6662.5 -3.85714
6663.5 2
6664.5 -0.285714
6665.5 3
6666.5 -1.28571
6667.5 4
6668.5 3
6669.5 3
6670.5 2
6671.5 1
6672.5 2
6673.5 -2.14286
6674.5 3.71429
6675.5 1
6676.5 0.714286
6677.5 4
6678.5 -1.85714
6679.5 0.714286
6680.5 0.714286
6681.5 0.428571
6682.5 2
6683.5 2.42857
6684.5 0.714286
6685.5 1
6686.5 2
6687.5 -0.571429
6688.5 -2.85714
6689.5 -1.57143
6690.5 -0.285714
6691.5 -0.285714
6692.5 2
6693.5 3
6694.5 -1.14286
6695.5 1.71429
6696.5 0.428571
6697.5 -0.571429
6698.5 2.71429
6699.5 4
6700.5 -0.285714
6701.5 -0.571429
6702.5 1
6703.5 -1.28571
6704.5 -1.28571
6705.5 1
6706.5 0
6707.5 -1.57143
6708.5 4.71429
6709.5 0.714286
6710.5 -0.571429
6711.5 3
6712.5 0.714286
6713.5 1.71429
6714.5 0.714286
6715.5 0.714286
6716.5 -1.85714
6717.5 0.714286
6718.5 1
6719.5 1.71429
6720.5 1.42857
6721.5 -2.14286
6722.5 1
6723.5 -0.571429
6724.5 5
6725.5 -0.571429
6726.5 1.71429
6727.5 2
6728.5 3
6729.5 -1.28571
6730.5 1.71429
6731.5 3
6732.5 8
6733.5 -0.285714
6734.5 2
6735.5 -0.285714
6736.5 0.714286
6737.5 1
6738.5 0
6739.5 1.71429
6740.5 2
6741.5 2
6742.5 -2.57143
6743.5 2
6744.5 0
6745.5 2.71429
6746.5 4
6747.5 1.71429
6748.5 3
6749.5 0.714286
6750.5 0.428571
6751.5 3.71429
6752.5 5
6753.5 -0.285714
6754.5 5
6755.5 2.71429
6756.5 -2.57143
6757.5 4
6758.5 0.714286
6759.5 1.42857
6760.5 4
6761.5 -1.57143
6762.5 3.71429
6763.5 3
6764.5 -0.285714
6765.5 1.71429
6766.5 0.714286
6767.5 2
6768.5 -0.285714
6769.5 1.71429
6770.5 2.14286
6771.5 5.71429
6772.5 4.42857
6773.5 -2.14286
6774.5 2.42857
6775.5 5
6776.5 -1.57143
6777.5 5
6778.5 0.714286
6779.5 0.428571
6780.5 1.42857
6781.5 1
6782.5 -0.857143
6783.5 1.42857
6784.5 4
6785.5 -1.14286
6786.5 -2.57143
6787.5 0
6788.5 1
6789.5 -0.285714
6790.5 1
6791.5 2
6792.5 2.42857
6793.5 2
6794.5 0.714286
6795.5 -0.571429
6796.5 2
6797.5 0.714286
6798.5 -2.57143
6799.5 1
6800.5 -2.57143
6801.5 3
6802.5 -0.285714
6803.5 1
6804.5 0
6805.5 -1.57143
6806.5 1
6807.5 1.71429
6808.5 0.714286
6809.5 -1.28571
6810.5 1
6811.5 -1.57143
6812.5 4
6813.5 -1.28571
6814.5 1.71429
6815.5 -1.28571
6816.5 -2.57143
6817.5 0
6818.5 1
6819.5 1
6820.5 -1.28571
6821.5 0.714286
6822.5 4
6823.5 -0.285714
6824.5 1
6825.5 0.714286
6826.5 1
6827.5 0
6828.5 2
6829.5 1
6830.5 2
6831.5 -0.285714
6832.5 0
6833.5 2
6834.5 3
6835.5 1
6836.5 2
6837.5 -0.571429
6838.5 -0.285714
6839.5 1
6840.5 1
6841.5 1.42857
6842.5 0.714286
6843.5 2
6844.5 6
6845.5 -1.28571
6846.5 3
6847.5 0.428571
6848.5 3.42857
6849.5 1
6850.5 -0.285714
6851.5 -0.285714
6852.5 -1.28571
6853.5 -0.285714
6854.5 0.714286
6855.5 0
6856.5 2
6857.5 1.71429
6858.5 -2.57143
6859.5 1
6860.5 1
6861.5 0
6862.5 2
6863.5 0
6864.5 -0.285714
6865.5 2
6866.5 1
6867.5 3
6868.5 -1.57143
6869.5 1
6870.5 0
6871.5 0.714286
6872.5 1.71429
6873.5 1.71429
6874.5 0.714286
6875.5 2.71429
6876.5 -0.285714
6877.5 1
6878.5 3
6879.5 1.71429
6880.5 0
6881.5 -1.57143
6882.5 -1.28571
6883.5 2
6884.5 -2.57143
6885.5 2.71429
6886.5 -0.285714
6887.5 3
6888.5 3
6889.5 -0.285714
6890.5 2
6891.5 2
6892.5 2
6893.5 6
6894.5 1
6895.5 1
6896.5 1
6897.5 2
6898.5 -1.28571
6899.5 -1.28571
6900.5 0
6901.5 1
6902.5 0.714286
6903.5 -0.857143
6904.5 -0.857143
6905.5 3.71429
6906.5 0.428571
6907.5 2.71429
6908.5 0.428571
6909.5 4
6910.5 2
6911.5 -1.57143
6912.5 -1.57143
6913.5 1
6914.5 -1.28571
6915.5 0.428571
6916.5 2
6917.5 -2.57143
6918.5 1.71429
6919.5 0
6920.5 -0.571429
6921.5 0.714286
6922.5 0
6923.5 1
6924.5 -0.285714
6925.5 2
6926.5 0
6927.5 -0.285714
6928.5 0
6929.5 0.857143
6930.5 -1.28571
6931.5 -2.14286
6932.5 -1.28571
6933.5 3.71429
6934.5 3
6935.5 -2.42857
6936.5 -4.14286
6937.5 2.71429
6938.5 0.714286
6939.5 2.42857
6940.5 3
6941.5 4
6942.5 -1.85714
6943.5 2
6944.5 0
6945.5 1
6946.5 -1.57143
6947.5 2
6948.5 2
6949.5 2
6950.5 -0.571429
6951.5 0.714286
6952.5 1.71429
6953.5 2
6954.5 0.714286
6955.5 3
6956.5 3
6957.5 1.42857
6958.5 -0.285714
6959.5 -0.285714
6960.5 -1.28571
6961.5 1.71429
6962.5 -1.28571
6963.5 1
6964.5 -1.28571
6965.5 1
6966.5 -0.285714
6967.5 -0.285714
6968.5 -3.14286
6969.5 -1.28571
6970.5 0.714286
6971.5 0.428571
6972.5 3
6973.5 -0.571429
6974.5 1
6975.5 4
6976.5 0.714286
6977.5 5
6978.5 0
6979.5 -1.85714
6980.5 0.714286
6981.5 3
6982.5 2
6983.5 3
6984.5 1
6985.5 0.428571
6986.5 2.71429
6987.5 1
6988.5 1
6989.5 0
6990.5 5
6991.5 0.714286
6992.5 0
6993.5 1.71429
6994.5 1
6995.5 0
6996.5 1
6997.5 0.428571
6998.5 -1.28571
6999.5 3
7000.5 -1.28571
7001.5 -0.571429
7002.5 0
7003.5 2
7004.5 -1.28571
7005.5 -0.285714
7006.5 1
7007.5 0.714286
7008.5 0.714286
7009.5 1
7010.5 1
7011.5 1.42857
7012.5 1
7013.5 1
7014.5 3
7015.5 1
7016.5 -1.57143
7017.5 1
7018.5 0
7019.5 1.71429
7020.5 -1.57143
7021.5 4
7022.5 3
7023.5 0
7024.5 0
7025.5 -2.57143
7026.5 0.714286
7027.5 1.71429
7028.5 -0.285714
7029.5 1
7030.5 3
7031.5 3
7032.5 4
7033.5 3
7034.5 2
7035.5 1
7036.5 0
7037.5 0
7038.5 1
7039.5 1
7040.5 2
7041.5 2
7042.5 -1.28571
7043.5 2
7044.5 1
7045.5 2
7046.5 2.71429
7047.5 1
7048.5 2
7049.5 1
7050.5 -0.285714
7051.5 -1.28571
7052.5 1
7053.5 -2.85714
7054.5 0.714286
7055.5 2
7056.5 -1.28571
7057.5 1
7058.5 1
7059.5 1
7060.5 1.71429
7061.5 0
7062.5 2
7063.5 -1.57143
7064.5 -1.57143
7065.5 3
7066.5 -0.285714
7067.5 -0.285714
7068.5 0.714286
7069.5 0.714286
7070.5 -1.28571
7071.5 0.714286
7072.5 1
7073.5 -0.285714
7074.5 0
7075.5 2
7076.5 2
7077.5 -1.57143
7078.5 2
7079.5 1
7080.5 4
7081.5 0
7082.5 -0.285714
7083.5 -0.285714
7084.5 0.714286
7085.5 1
7086.5 1
7087.5 -0.571429
7088.5 1
7089.5 1
7090.5 0.714286
7091.5 2
7092.5 4
7093.5 -1.28571
7094.5 3
7095.5 1
7096.5 -1.28571
7097.5 1
7098.5 1
7099.5 2
7100.5 1
7101.5 1
7102.5 0
7103.5 1.71429
7104.5 3
7105.5 1
7106.5 -0.285714
7107.5 0
7108.5 4.71429
7109.5 -0.285714
7110.5 0.714286
7111.5 3
7112.5 4
7113.5 0
7114.5 3
7115.5 -0.285714
7116.5 -1.57143
7117.5 3
7118.5 2
7119.5 1
7120.5 -0.285714
7121.5 2
7122.5 3
7123.5 -0.285714
7124.5 0.714286
7125.5 0
7126.5 0
7127.5 0
7128.5 -1.28571
7129.5 2.71429
7130.5 1
7131.5 1
7132.5 3
7133.5 0
7134.5 2
7135.5 1
7136.5 0.714286
7137.5 -0.285714
7138.5 0.428571
7139.5 2
7140.5 3
7141.5 0.714286
7142.5 0
7143.5 0
7144.5 2
7145.5 1
7146.5 0
7147.5 0.714286
7148.5 0
7149.5 1.71429
7150.5 -1.57143
7151.5 1
7152.5 1.71429
7153.5 1
7154.5 0.714286
7155.5 1
7156.5 1
7157.5 0
7158.5 0
7159.5 -1.28571
7160.5 1
7161.5 1
7162.5 0.714286
7163.5 -0.571429
7164.5 -0.285714
7165.5 -1.57143
7166.5 -2.57143
7167.5 -2.57143
7168.5 -6.71429
7169.5 -4.14286
7170.5 -3.85714
7171.5 -2.85714
7172.5 -0.285714
7173.5 1
7174.5 0
7175.5 -1.28571
7176.5 1
7177.5 -0.571429
7178.5 3
7179.5 -0.571429
7180.5 1.71429
7181.5 1
7182.5 2
7183.5 3
7184.5 -0.571429
7185.5 2
7186.5 2
7187.5 5
7188.5 1
7189.5 1
7190.5 9
7191.5 -1.85714
7192.5 3
7193.5 -1.28571
7194.5 2
7195.5 3
7196.5 1.42857
7197.5 1
7198.5 3
7199.5 4
7200.5 0
7201.5 2
7202.5 0
7203.5 0.428571
7204.5 1.71429
7205.5 1
7206.5 0.428571
7207.5 1.42857
7208.5 4
7209.5 2.42857
7210.5 1.71429
7211.5 1
7212.5 -1.28571
7213.5 1.71429
7214.5 0
7215.5 -0.285714
7216.5 -1.28571
7217.5 -0.285714
7218.5 2
7219.5 0
7220.5 3
7221.5 3
7222.5 0.428571
7223.5 -1.28571
7224.5 1
7225.5 2
7226.5 2
7227.5 0
7228.5 0
7229.5 0
7230.5 1.71429
7231.5 3
7232.5 -2.57143
7233.5 0
7234.5 -1.28571
7235.5 0
7236.5 -1.28571
7237.5 -1.85714
7238.5 -3.85714
7239.5 -0.285714
7240.5 -1.28571
7241.5 -1.85714
7242.5 0.714286
7243.5 2
7244.5 1
7245.5 0.714286
7246.5 5
7247.5 3
7248.5 3
7249.5 0
7250.5 2
7251.5 1
7252.5 1
7253.5 2
7254.5 0
7255.5 -1.28571
7256.5 0.714286
7257.5 3
7258.5 3.71429
7259.5 3
7260.5 4
7261.5 0.857143
7262.5 1.71429
7263.5 0.714286
7264.5 7
7265.5 0.714286
7266.5 3
7267.5 1
7268.5 -1.57143
7269.5 2.71429
7270.5 3
7271.5 1.71429
7272.5 0.714286
7273.5 -0.285714
7274.5 -0.285714
7275.5 0
7276.5 1
7277.5 0.714286
7278.5 1
7279.5 3
7280.5 0
7281.5 0
7282.5 3
7283.5 0
7284.5 2
7285.5 -1.28571
7286.5 4
7287.5 3
7288.5 2
7289.5 1
7290.5 2
7291.5 1
7292.5 3
7293.5 0.714286
7294.5 -1.28571
7295.5 -0.285714
7296.5 1
7297.5 -0.285714
7298.5 1
7299.5 1
7300.5 0
7301.5 2
7302.5 2.71429
7303.5 1.71429
7304.5 1
7305.5 3
7306.5 1
7307.5 3
7308.5 0
7309.5 -0.285714
7310.5 -1.28571
7311.5 0
7312.5 2
7313.5 3.71429
7314.5 2
7315.5 2
7316.5 -0.571429
7317.5 -1.28571
7318.5 -1.57143
7319.5 1
7320.5 -1.28571
7321.5 1
7322.5 2
7323.5 0.714286
7324.5 0
7325.5 -0.285714
7326.5 0.714286
7327.5 3
7328.5 2
7329.5 1
7330.5 0
7331.5 2
7332.5 1
7333.5 -0.285714
7334.5 1
7335.5 1
7336.5 1.71429
7337.5 -1.57143
7338.5 -1.28571
7339.5 -0.285714
7340.5 0
7341.5 1
7342.5 2
7343.5 3
7344.5 -0.571429
7345.5 1
7346.5 -0.285714
7347.5 1.71429
7348.5 0.714286
7349.5 1
7350.5 0
7351.5 2
7352.5 1
7353.5 1.71429
7354.5 0.428571
7355.5 2
7356.5 2
7357.5 1.71429
7358.5 1
7359.5 0
7360.5 0
7361.5 1.71429
7362.5 0
7363.5 1
7364.5 -1.28571
7365.5 0.714286
7366.5 -0.285714
7367.5 0
7368.5 2
7369.5 -1.57143
7370.5 2
7371.5 1
7372.5 -1.28571
7373.5 1
7374.5 -1.28571
7375.5 2
7376.5 1
7377.5 0
7378.5 0
7379.5 1.71429
7380.5 2
7381.5 0.714286
7382.5 2
7383.5 1
7384.5 0
7385.5 1.71429
7386.5 1
7387.5 0
7388.5 5
7389.5 0.714286
7390.5 -0.285714
7391.5 -1.28571
7392.5 0
7393.5 0.714286
7394.5 2
7395.5 1.71429
7396.5 -0.285714
7397.5 1
7398.5 1
7399.5 2
7400.5 0
7401.5 1
7402.5 -0.285714
7403.5 0.714286
7404.5 -0.285714
7405.5 1
7406.5 0
7407.5 -0.285714
7408.5 -1.57143
7409.5 -1.28571
7410.5 1.71429
7411.5 -0.285714
7412.5 1
7413.5 2.71429
7414.5 0.714286
7415.5 4
7416.5 3
7417.5 2.71429
7418.5 2.71429
7419.5 3
7420.5 -0.285714
7421.5 -2.57143
7422.5 1.71429
7423.5 0
7424.5 1
7425.5 1
7426.5 2
7427.5 1
7428.5 1
7429.5 0
7430.5 0
7431.5 1
7432.5 -1.28571
7433.5 3
7434.5 0.714286
7435.5 0
7436.5 -2.57143
7437.5 -2.57143
7438.5 -0.285714
7439.5 0
7440.5 0
7441.5 2
7442.5 -1.28571
7443.5 3
7444.5 -0.285714
7445.5 2.71429
7446.5 2
7447.5 0.714286
7448.5 1
7449.5 -1.28571
7450.5 1
7451.5 3
7452.5 0
7453.5 1
7454.5 2
7455.5 -0.285714
7456.5 2
7457.5 0
7458.5 0
7459.5 0
7460.5 0
7461.5 2
7462.5 0.714286
7463.5 3
7464.5 -0.571429
7465.5 1
7466.5 0.714286
7467.5 3
7468.5 0.714286
7469.5 -0.285714
7470.5 -1.28571
7471.5 0.714286
7472.5 3
7473.5 0
7474.5 0.714286
7475.5 2
7476.5 1
7477.5 2
7478.5 -0.285714
7479.5 -0.285714
7480.5 2
7481.5 0
7482.5 1
7483.5 1
7484.5 1
7485.5 2
7486.5 3
7487.5 1
7488.5 -1.28571
7489.5 2
7490.5 1
7491.5 0
7492.5 -0.285714
7493.5 1
7494.5 4
7495.5 1
7496.5 3
7497.5 2
7498.5 0
7499.5 0
7500.5 1
7501.5 1
7502.5 0
7503.5 3
7504.5 0
7505.5 1
7506.5 -1.57143
7507.5 0
7508.5 -0.285714
7509.5 1
7510.5 2
7511.5 1
7512.5 0
7513.5 2
7514.5 1
7515.5 0
7516.5 0
7517.5 0
7518.5 0
7519.5 1
7520.5 1
7521.5 2
7522.5 0.714286
7523.5 0
7524.5 0
7525.5 -1.57143
7526.5 -1.28571
7527.5 0
7528.5 0
7529.5 2
7530.5 -1.28571
7531.5 0.714286
7532.5 -1.28571
7533.5 2
7534.5 1
7535.5 2
7536.5 0
7537.5 3
7538.5 0
7539.5 -0.285714
7540.5 1
7541.5 0
7542.5 0
7543.5 -1.28571
7544.5 1
7545.5 0
7546.5 1
7547.5 1
7548.5 2
7549.5 -1.28571
7550.5 -1.57143
7551.5 0
7552.5 -1.28571
7553.5 0
7554.5 0
7555.5 2
7556.5 0
7557.5 0
7558.5 0
7559.5 0
7560.5 1
7561.5 1
7562.5 1.71429
7563.5 -2.57143
7564.5 1
7565.5 1
7566.5 1
7567.5 0
7568.5 1
7569.5 1
7570.5 1
7571.5 1
7572.5 -1.28571
7573.5 1
7574.5 0
7575.5 2
7576.5 1
7577.5 0
7578.5 -1.28571
7579.5 0
7580.5 1
7581.5 0
7582.5 0
7583.5 1
7584.5 -0.285714
7585.5 0
7586.5 0
7587.5 0
7588.5 -1.28571
7589.5 -1.28571
7590.5 -0.285714
7591.5 1
7592.5 -0.285714
7593.5 1
7594.5 -3.85714
7595.5 -0.285714
7596.5 2
7597.5 -1.28571
7598.5 -0.285714
7599.5 -0.285714
7600.5 0
7601.5 0
7602.5 0
7603.5 0
7604.5 1
7605.5 1
7606.5 1
7607.5 0
7608.5 1
7609.5 0
7610.5 0
7611.5 2
7612.5 -1.28571
7613.5 0
7614.5 0
7615.5 -0.285714
7616.5 1
7617.5 0
7618.5 0
7619.5 1
7620.5 0
7621.5 -0.285714
7622.5 -1.57143
7623.5 0
7624.5 1
7625.5 1
7626.5 0
7627.5 1
7628.5 0
7629.5 0
7630.5 1.42857
7631.5 3
7632.5 2
7633.5 2
7634.5 -0.285714
7635.5 0
7636.5 -1.28571
7637.5 0
7638.5 -1.28571
7639.5 0
7640.5 0
7641.5 -1.28571
7642.5 -0.285714
7643.5 0
7644.5 1
7645.5 0
7646.5 0
7647.5 3
7648.5 1
7649.5 1
7650.5 0
7651.5 2
7652.5 1
7653.5 0
7654.5 0
7655.5 1
7656.5 0
7657.5 2
7658.5 2
7659.5 0
7660.5 0
7661.5 0
7662.5 1
7663.5 0
7664.5 0
7665.5 1
7666.5 0
7667.5 0
7668.5 0
7669.5 0
7670.5 1
7671.5 -0.285714
7672.5 1
7673.5 0
7674.5 0
7675.5 2
7676.5 1
7677.5 0
7678.5 0
7679.5 0
7680.5 0
7681.5 0
7682.5 -1.28571
7683.5 0
7684.5 1
7685.5 1
7686.5 1
7687.5 0
7688.5 -0.285714
7689.5 1
7690.5 1
7691.5 1
7692.5 -1.28571
7693.5 1
7694.5 1.71429
7695.5 4
7696.5 2
7697.5 6
7698.5 5.71429
7699.5 6.71429
7700.5 6
7701.5 3
7702.5 7
7703.5 4
7704.5 3
7705.5 3
7706.5 0
7707.5 2
7708.5 0
7709.5 -0.285714
7710.5 0
7711.5 0
7712.5 -1.28571
7713.5 1
7714.5 1
7715.5 1
7716.5 0
7717.5 -1.28571
7718.5 1
7719.5 1
7720.5 -0.285714
7721.5 3
7722.5 0
7723.5 -0.285714
7724.5 1
7725.5 0.714286
7726.5 1
7727.5 2
7728.5 1
7729.5 0
7730.5 0
7731.5 0
7732.5 0
7733.5 0
7734.5 2
7735.5 0
7736.5 0
7737.5 1
7738.5 0
7739.5 -2.57143
7740.5 0
7741.5 0
7742.5 1
7743.5 0
7744.5 -0.285714
7745.5 -1.28571
7746.5 1
7747.5 -1.28571
7748.5 0
7749.5 1
7750.5 0
7751.5 1
7752.5 1
7753.5 0
7754.5 0
7755.5 0
7756.5 0
7757.5 0
7758.5 1
7759.5 0
7760.5 0
7761.5 1
7762.5 0
7763.5 0
7764.5 0
7765.5 -0.285714
7766.5 0
7767.5 0.714286
7768.5 0
7769.5 3.71429
7770.5 2
7771.5 3
7772.5 3.42857
7773.5 -0.857143
7774.5 6
7775.5 -0.285714
7776.5 1.71429
7777.5 -0.285714
7778.5 0
7779.5 1
7780.5 0
7781.5 1
7782.5 0
7783.5 0
7784.5 0
7785.5 0
7786.5 2
7787.5 -1.28571
7788.5 0
7789.5 3
7790.5 -1.28571
7791.5 -1.28571
7792.5 0
7793.5 1
7794.5 -1.57143
7795.5 0
7796.5 0
7797.5 0
7798.5 0
7799.5 1
7800.5 -0.285714
7801.5 0
7802.5 0
7803.5 -1.28571
7804.5 1
7805.5 0
7806.5 0
7807.5 0
7808.5 -1.28571
7809.5 -0.285714
7810.5 0
7811.5 -1.28571
7812.5 0
7813.5 0
7814.5 0
7815.5 0
7816.5 0
7817.5 -1.28571
7818.5 0
7819.5 -0.285714
7820.5 1
7821.5 0
7822.5 -1.28571
7823.5 0
7824.5 -0.285714
7825.5 1
7826.5 -1.28571
7827.5 0
7828.5 1
7829.5 2
7830.5 0
7831.5 1
7832.5 -1.28571
7833.5 0
7834.5 1
7835.5 0
7836.5 0
7837.5 0
7838.5 0
7839.5 1
7840.5 0
7841.5 -1.28571
7842.5 0
7843.5 1
7844.5 -1.28571
7845.5 0
7846.5 1
7847.5 0
7848.5 0
7849.5 0
7850.5 -1.28571
7851.5 -1.28571
7852.5 1
7853.5 0
7854.5 0
7855.5 -1.28571
7856.5 0
7857.5 -1.28571
7858.5 0
7859.5 1
7860.5 -1.28571
7861.5 0
7862.5 1
7863.5 0
7864.5 0
7865.5 1
7866.5 0
7867.5 0
7868.5 0
7869.5 1
7870.5 2
7871.5 0
7872.5 1
7873.5 1
7874.5 1
7875.5 0
7876.5 1
7877.5 0
7878.5 1
7879.5 -0.285714
7880.5 0
7881.5 0
7882.5 0
7883.5 0
7884.5 1
7885.5 1
7886.5 0
7887.5 -1.28571
7888.5 0
7889.5 0
7890.5 -1.28571
7891.5 2
7892.5 0
7893.5 0
7894.5 0
7895.5 0
7896.5 0
7897.5 0
7898.5 0
7899.5 0
7900.5 1
7901.5 0
7902.5 0
7903.5 -1.28571
7904.5 0
7905.5 0
7906.5 0
7907.5 0
7908.5 0
7909.5 0
7910.5 0
7911.5 -0.285714
7912.5 0
7913.5 0
7914.5 0
7915.5 1
7916.5 0
7917.5 -1.28571
7918.5 1
7919.5 0
7920.5 1
7921.5 1
7922.5 1
7923.5 0
7924.5 0
7925.5 0
7926.5 0
7927.5 0
7928.5 0
7929.5 0
7930.5 0
7931.5 0
7932.5 1
7933.5 1
7934.5 0
7935.5 1
7936.5 -0.285714
7937.5 0
7938.5 0
7939.5 0
7940.5 0
7941.5 0
7942.5 0
7943.5 0
7944.5 0
7945.5 0
7946.5 0
7947.5 0
7948.5 0
7949.5 0
7950.5 0
7951.5 0
7952.5 0
7953.5 1
7954.5 -1.28571
7955.5 1
7956.5 -1.28571
7957.5 1
7958.5 -1.28571
7959.5 0
7960.5 -0.285714
7961.5 1
7962.5 0
7963.5 1
7964.5 0
7965.5 1
7966.5 -1.28571
7967.5 -1.28571
7968.5 -1.28571
7969.5 0
7970.5 -1.28571
7971.5 0
7972.5 0
7973.5 0
7974.5 0
7975.5 0
7976.5 0
7977.5 0
7978.5 1
7979.5 0
7980.5 0
7981.5 0
7982.5 1
7983.5 1
7984.5 0
7985.5 1
7986.5 0
7987.5 -1.57143
7988.5 1
7989.5 1
7990.5 0
7991.5 0.714286
7992.5 0
7993.5 1
7994.5 0
7995.5 -1.28571
7996.5 0
7997.5 -1.28571
7998.5 1
7999.5 1
8000.5 0
8001.5 -1.57143
8002.5 1
8003.5 -1.57143
8004.5 1
8005.5 1
8006.5 1
8007.5 0
8008.5 0
8009.5 1
8010.5 2
8011.5 0
8012.5 -0.285714
8013.5 0
8014.5 0.714286
8015.5 0
8016.5 0
8017.5 0
8018.5 0
8019.5 2
8020.5 1
8021.5 0
8022.5 -1.28571
8023.5 0
8024.5 0
8025.5 1
8026.5 0
8027.5 0
8028.5 1
8029.5 1
8030.5 0
8031.5 0
8032.5 0
8033.5 1
8034.5 2
8035.5 2
8036.5 -1.28571
8037.5 -1.28571
8038.5 -2.57143
8039.5 0
8040.5 0
8041.5 0
8042.5 0
8043.5 0
8044.5 1
8045.5 0
8046.5 0
8047.5 0
8048.5 0
8049.5 1
8050.5 0
8051.5 0
8052.5 -1.28571
8053.5 -1.28571
8054.5 1
8055.5 0.714286
8056.5 0
8057.5 1
8058.5 1
8059.5 1
8060.5 0
8061.5 0
8062.5 1
8063.5 0
8064.5 0
8065.5 1
8066.5 0
8067.5 0.714286
8068.5 0
8069.5 0
8070.5 1
8071.5 0
8072.5 -0.285714
8073.5 0
8074.5 0
8075.5 0
8076.5 0
8077.5 1
8078.5 1
8079.5 0
8080.5 1
8081.5 -1.28571
8082.5 2
8083.5 -1.28571
8084.5 1
8085.5 2
8086.5 1
8087.5 -2.57143
8088.5 1
8089.5 1
8090.5 -2.57143
8091.5 1
8092.5 0
8093.5 0
8094.5 0
8095.5 1
8096.5 0
8097.5 0
8098.5 1
8099.5 0
8100.5 0
8101.5 0
8102.5 0
8103.5 0
8104.5 0
8105.5 -2.57143
8106.5 1
8107.5 -1.28571
8108.5 1
8109.5 -1.28571
8110.5 1
8111.5 1
8112.5 0
8113.5 1
8114.5 0
8115.5 0
8116.5 0
8117.5 0
8118.5 1
8119.5 0
8120.5 0
8121.5 0
8122.5 0
8123.5 0
8124.5 0
8125.5 0
8126.5 0
8127.5 0
8128.5 0
8129.5 -1.28571
8130.5 -1.28571
8131.5 0
8132.5 1
8133.5 0
8134.5 0
8135.5 0
8136.5 0
8137.5 0
8138.5 0
8139.5 1
8140.5 0
8141.5 0
8142.5 0
8143.5 0
8144.5 -1.28571
8145.5 0
8146.5 0
8147.5 -0.285714
8148.5 -1.28571
8149.5 1
8150.5 -1.28571
8151.5 0
8152.5 1
8153.5 0
8154.5 1
8155.5 0
8156.5 0
8157.5 1
8158.5 -1.28571
8159.5 0
8160.5 1
8161.5 -0.285714
8162.5 0
8163.5 1
8164.5 0
8165.5 0
8166.5 2
8167.5 0
8168.5 0
8169.5 0
8170.5 -1.28571
8171.5 0
8172.5 0
8173.5 1
8174.5 0
8175.5 0
8176.5 -1.28571
8177.5 0
8178.5 0
8179.5 0
8180.5 1
8181.5 0
8182.5 1
8183.5 0
8184.5 0
8185.5 0
8186.5 0
8187.5 0
8188.5 0
8189.5 0
8190.5 0
8191.5 1
8192.5 0
8193.5 1
8194.5 0
8195.5 0
8196.5 0
8197.5 0
8198.5 0
8199.5 0
8200.5 0
8201.5 0
8202.5 0
8203.5 0
8204.5 -1.28571
8205.5 0
8206.5 0
8207.5 0
8208.5 0
8209.5 1
8210.5 0
8211.5 -1.28571
8212.5 0
8213.5 0
8214.5 -1.28571
8215.5 0
8216.5 1
8217.5 1
8218.5 0
8219.5 2
8220.5 0
8221.5 0
8222.5 0
8223.5 0
8224.5 0
8225.5 2
8226.5 0
8227.5 1
8228.5 0
8229.5 1
8230.5 0
8231.5 1
8232.5 0
8233.5 0
8234.5 0
8235.5 0
8236.5 0
8237.5 0
8238.5 0
8239.5 0
8240.5 0
8241.5 1
8242.5 0
8243.5 0
8244.5 1
8245.5 0
8246.5 0
8247.5 2
8248.5 0
8249.5 0
8250.5 0
8251.5 0
8252.5 0
8253.5 -1.57143
8254.5 -1.28571
8255.5 0
8256.5 0
8257.5 0
8258.5 1
8259.5 1
8260.5 0
8261.5 0
8262.5 -1.28571
8263.5 0
8264.5 0
8265.5 0
8266.5 1
8267.5 0
8268.5 -0.285714
8269.5 0
8270.5 0
8271.5 1
8272.5 0
8273.5 1
8274.5 0
8275.5 0
8276.5 0
8277.5 0
8278.5 0
8279.5 0
8280.5 2
8281.5 1
8282.5 1
8283.5 1
8284.5 0
8285.5 1
8286.5 0
8287.5 1
8288.5 0
8289.5 0
8290.5 0
8291.5 -1.28571
8292.5 0
8293.5 1
8294.5 0
8295.5 0
8296.5 1
8297.5 0
8298.5 1
8299.5 -1.28571
8300.5 1
8301.5 0
8302.5 0
8303.5 0
8304.5 0
8305.5 0
8306.5 0
8307.5 0
8308.5 1
8309.5 -2.57143
8310.5 0
8311.5 0
8312.5 1
8313.5 1
8314.5 0
8315.5 0
8316.5 1
8317.5 0
8318.5 0
8319.5 0
8320.5 0
8321.5 0
8322.5 0
8323.5 0
8324.5 0
8325.5 0
8326.5 0
8327.5 1
8328.5 0
8329.5 1
8330.5 0
8331.5 0
8332.5 2
8333.5 0
8334.5 0
8335.5 2
8336.5 0
8337.5 0
8338.5 -0.285714
8339.5 0
8340.5 0
8341.5 0
8342.5 1
8343.5 0
8344.5 0
8345.5 0
8346.5 3
8347.5 0
8348.5 -1.28571
8349.5 0
8350.5 1
8351.5 0
8352.5 0
8353.5 0
8354.5 0
8355.5 -1.28571
8356.5 1
8357.5 0
8358.5 0
8359.5 0
8360.5 0
8361.5 0
8362.5 0
8363.5 1
8364.5 0
8365.5 0
8366.5 0
8367.5 0
8368.5 0
8369.5 0
8370.5 1
8371.5 -1.28571
8372.5 0
8373.5 0
8374.5 1
8375.5 0
8376.5 -1.28571
8377.5 -1.28571
8378.5 1
8379.5 0
8380.5 0
8381.5 1
8382.5 0
8383.5 0
8384.5 1
8385.5 1
8386.5 0
8387.5 0
8388.5 1
8389.5 0
8390.5 -1.28571
8391.5 1
8392.5 0
8393.5 0
8394.5 0
8395.5 0
8396.5 1
8397.5 0
8398.5 0
8399.5 0
8400.5 1
8401.5 0
8402.5 0
8403.5 0
8404.5 1
8405.5 0
8406.5 0
8407.5 0
8408.5 2
8409.5 0
8410.5 0
8411.5 0
8412.5 0
8413.5 0
8414.5 0
8415.5 0
8416.5 -1.28571
8417.5 0
8418.5 0
8419.5 0
8420.5 0
8421.5 1
8422.5 1
8423.5 1
8424.5 0
8425.5 0
8426.5 1
8427.5 0
8428.5 -1.28571
8429.5 1
8430.5 0
8431.5 0
8432.5 0
8433.5 1
8434.5 -1.28571
8435.5 -1.28571
8436.5 0
8437.5 0
8438.5 0
8439.5 0
8440.5 0
8441.5 0
8442.5 0
8443.5 -1.28571
8444.5 1
8445.5 0
8446.5 1
8447.5 1
8448.5 0
8449.5 0
8450.5 0
8451.5 0
8452.5 -1.28571
8453.5 0
8454.5 1
8455.5 0
8456.5 0
8457.5 0
8458.5 0
8459.5 0
8460.5 0
8461.5 2
8462.5 1
8463.5 0
8464.5 -0.285714
8465.5 1
8466.5 0
8467.5 0
8468.5 0
8469.5 0
8470.5 0
8471.5 0
8472.5 1
8473.5 1
8474.5 0
8475.5 0
8476.5 -1.28571
8477.5 1
8478.5 0
8479.5 0
8480.5 0
8481.5 0
8482.5 -1.28571
8483.5 0
8484.5 0
8485.5 1
8486.5 0
8487.5 -1.28571
8488.5 0
8489.5 -1.28571
8490.5 0
8491.5 0
8492.5 0
8493.5 0
8494.5 1
8495.5 -1.28571
8496.5 0
8497.5 1
8498.5 0
8499.5 0
8500.5 -1.28571
8501.5 0
8502.5 0
8503.5 0
8504.5 -1.28571
8505.5 1
8506.5 0
8507.5 0
8508.5 0
8509.5 0
8510.5 0
8511.5 0
8512.5 0
8513.5 0
8514.5 0
8515.5 0
8516.5 1
8517.5 0
8518.5 1
8519.5 0
8520.5 0
8521.5 0
8522.5 0
8523.5 0
8524.5 0
8525.5 1
8526.5 1
8527.5 0
8528.5 -1.28571
8529.5 1
8530.5 0
8531.5 -0.285714
8532.5 1
8533.5 1
8534.5 0
8535.5 1
8536.5 0
8537.5 0
8538.5 0
8539.5 0.714286
8540.5 1
8541.5 0
8542.5 0
8543.5 0
8544.5 0
8545.5 0
8546.5 1
8547.5 -1.28571
8548.5 1
8549.5 1
8550.5 0
8551.5 -1.28571
8552.5 1
8553.5 0
8554.5 0
8555.5 0
8556.5 -1.28571
8557.5 0
8558.5 0
8559.5 0
8560.5 0
8561.5 1
8562.5 0
8563.5 -0.285714
8564.5 0
8565.5 0
8566.5 -0.285714
8567.5 0
8568.5 0
8569.5 -1.28571
8570.5 0
8571.5 0
8572.5 0
8573.5 1
8574.5 0
8575.5 0
8576.5 0
8577.5 0
8578.5 0
8579.5 0
8580.5 0
8581.5 0
8582.5 1
8583.5 0
8584.5 0
8585.5 0
8586.5 0
8587.5 0
8588.5 0
8589.5 0
8590.5 0
8591.5 0
8592.5 -1.28571
8593.5 0
8594.5 0
8595.5 0
8596.5 0
8597.5 0
8598.5 0
8599.5 1
8600.5 -1.28571
8601.5 0
8602.5 0
8603.5 2
8604.5 0
8605.5 0
8606.5 0
8607.5 0
8608.5 0
8609.5 0
8610.5 0
8611.5 1
8612.5 0
8613.5 0
8614.5 0
8615.5 0
8616.5 0
8617.5 0
8618.5 0
8619.5 0
8620.5 0
8621.5 -1.28571
8622.5 0
8623.5 1
8624.5 0
8625.5 0
8626.5 0
8627.5 1
8628.5 1
8629.5 0
8630.5 0
8631.5 0
8632.5 0
8633.5 0
8634.5 1
8635.5 0
8636.5 1
8637.5 0
8638.5 -1.28571
8639.5 1
8640.5 0
8641.5 1
8642.5 2
8643.5 0
8644.5 0
8645.5 0
8646.5 0
8647.5 2
8648.5 0
8649.5 0
8650.5 0
8651.5 0
8652.5 0
8653.5 0
8654.5 0
8655.5 1
8656.5 0
8657.5 0
8658.5 0
8659.5 0
8660.5 1
8661.5 0
8662.5 0
8663.5 0
8664.5 0
8665.5 1
8666.5 0
8667.5 0
8668.5 1
8669.5 0
8670.5 0
8671.5 0
8672.5 0
8673.5 0
8674.5 0
8675.5 0
8676.5 0
8677.5 -1.28571
8678.5 0
8679.5 0
8680.5 0
8681.5 0
8682.5 0
8683.5 0
8684.5 -1.28571
8685.5 0
8686.5 1
8687.5 0
8688.5 0
8689.5 -0.285714
8690.5 0
8691.5 0
8692.5 0
8693.5 0
8694.5 0
8695.5 0
8696.5 0
8697.5 -1.28571
8698.5 1
8699.5 0
8700.5 0
8701.5 0
8702.5 0
8703.5 0
8704.5 0
8705.5 0
8706.5 1
8707.5 1
8708.5 3
8709.5 -1.28571
8710.5 1
8711.5 1
8712.5 0
8713.5 0
8714.5 0
8715.5 0
8716.5 0
8717.5 0
8718.5 0
8719.5 0
8720.5 0
8721.5 0
8722.5 -0.285714
8723.5 0
8724.5 1
8725.5 0
8726.5 0
8727.5 1
8728.5 0
8729.5 0
8730.5 0
8731.5 0
8732.5 1
8733.5 0
8734.5 0
8735.5 0
8736.5 1
8737.5 1
8738.5 0
8739.5 1
8740.5 0
8741.5 0
8742.5 -1.28571
8743.5 0
8744.5 0
8745.5 0
8746.5 0
8747.5 -1.28571
8748.5 0
8749.5 0
8750.5 1
8751.5 0
8752.5 -1.28571
8753.5 0
8754.5 0
8755.5 0
8756.5 0
8757.5 0
8758.5 0
8759.5 0
8760.5 -2.57143
8761.5 0
8762.5 0
8763.5 -1.28571
8764.5 0
8765.5 1
8766.5 0
8767.5 -1.28571
8768.5 1
8769.5 0
8770.5 0
8771.5 0
8772.5 0
8773.5 1
8774.5 0
8775.5 0
8776.5 1
8777.5 0
8778.5 0
8779.5 0
8780.5 0
8781.5 0
8782.5 0
8783.5 1
8784.5 1
8785.5 0
8786.5 0
8787.5 -1.28571
8788.5 0
8789.5 0
8790.5 0
8791.5 0
8792.5 1
8793.5 1
8794.5 1
8795.5 1
8796.5 0
8797.5 0
8798.5 -0.285714
8799.5 0
8800.5 -1.28571
8801.5 0
8802.5 0
8803.5 -1.28571
8804.5 0
8805.5 0
8806.5 0
8807.5 0
8808.5 1
8809.5 0
8810.5 1
8811.5 0
8812.5 0
8813.5 1
8814.5 1
8815.5 1
8816.5 0
8817.5 0
8818.5 -1.28571
8819.5 0
8820.5 0
8821.5 -1.28571
8822.5 0
8823.5 0
8824.5 0
8825.5 0
8826.5 0
8827.5 0
8828.5 0
8829.5 0
8830.5 1
8831.5 1
8832.5 1
8833.5 0
8834.5 0
8835.5 0
8836.5 1
8837.5 1
8838.5 0
8839.5 1
8840.5 0
8841.5 0
8842.5 0
8843.5 0
8844.5 1
8845.5 -1.28571
8846.5 2
8847.5 -1.28571
8848.5 -0.285714
8849.5 0
8850.5 2
8851.5 0
8852.5 0
8853.5 -0.285714
8854.5 0
8855.5 0
8856.5 0
8857.5 2
8858.5 0
8859.5 0
8860.5 0
8861.5 0
8862.5 0
8863.5 0
8864.5 0
8865.5 0
8866.5 -1.28571
8867.5 0
8868.5 0
8869.5 1
8870.5 0
8871.5 -1.28571
8872.5 0
8873.5 0
8874.5 1
8875.5 0
8876.5 0
8877.5 1
8878.5 0
8879.5 -1.28571
8880.5 0
8881.5 0
8882.5 -1.28571
8883.5 0
8884.5 0
8885.5 0
8886.5 0
8887.5 0
8888.5 0
8889.5 0
8890.5 0
8891.5 0
8892.5 0
8893.5 0
8894.5 0
8895.5 0
8896.5 0
8897.5 0
8898.5 0
8899.5 0
8900.5 0
8901.5 0
8902.5 0
8903.5 0
8904.5 1
8905.5 0
8906.5 0
8907.5 0
8908.5 0
8909.5 0
8910.5 0
8911.5 -1.28571
8912.5 0
8913.5 0
8914.5 0
8915.5 1
8916.5 -1.28571
8917.5 0
8918.5 0
8919.5 0
8920.5 -1.28571
8921.5 -1.28571
8922.5 0
8923.5 0
8924.5 0
8925.5 0
8926.5 0
8927.5 0
8928.5 0
8929.5 0
8930.5 0
8931.5 1
8932.5 0
8933.5 -1.28571
8934.5 -0.285714
8935.5 0
8936.5 0
8937.5 0
8938.5 0
8939.5 -1.28571
8940.5 0
8941.5 0
8942.5 1
8943.5 0
8944.5 0
8945.5 0
8946.5 -1.28571
8947.5 0
8948.5 0
8949.5 0
8950.5 0
8951.5 0
8952.5 -1.28571
8953.5 0
8954.5 0
8955.5 0
8956.5 0
8957.5 0
8958.5 0
8959.5 0
8960.5 0
8961.5 0
8962.5 0
8963.5 0
8964.5 1
8965.5 1
8966.5 0
8967.5 0
8968.5 -1.28571
8969.5 0
8970.5 0
8971.5 1
8972.5 0
8973.5 0
8974.5 0
8975.5 0
8976.5 1
8977.5 0
8978.5 0
8979.5 0
8980.5 0
8981.5 0
8982.5 0
8983.5 1
8984.5 -1.28571
8985.5 1
8986.5 0
8987.5 0
8988.5 0
8989.5 0
8990.5 0
8991.5 0
8992.5 0
8993.5 0
8994.5 1
8995.5 0
8996.5 -0.285714
8997.5 -1.28571
8998.5 -1.28571
8999.5 0
9000.5 0
9001.5 0
9002.5 0
9003.5 1
9004.5 0
9005.5 0
9006.5 0
9007.5 0
9008.5 0
9009.5 -1.28571
9010.5 0
9011.5 0
9012.5 0
9013.5 1
9014.5 0
9015.5 0
9016.5 1
9017.5 1
9018.5 0
9019.5 0
9020.5 0
9021.5 0
9022.5 0
9023.5 0
9024.5 0
9025.5 0
9026.5 2
9027.5 0
9028.5 0
9029.5 0
9030.5 0
9031.5 0
9032.5 0
9033.5 0
9034.5 0
9035.5 1
9036.5 0
9037.5 0
9038.5 0
9039.5 0
9040.5 0
9041.5 0
9042.5 0
9043.5 0
9044.5 0
9045.5 0
9046.5 1
9047.5 0
9048.5 0
9049.5 1
9050.5 0
9051.5 1
9052.5 0
9053.5 0
9054.5 0
9055.5 0
9056.5 0
9057.5 0
9058.5 0
9059.5 -0.285714
9060.5 -1.28571
9061.5 0
9062.5 0
9063.5 0
9064.5 0
9065.5 0
9066.5 0
9067.5 0
9068.5 0
9069.5 0
9070.5 0
9071.5 0
9072.5 0
9073.5 0
9074.5 0
9075.5 0
9076.5 0
9077.5 0
9078.5 -1.28571
9079.5 0
9080.5 0
9081.5 0
9082.5 0
9083.5 1
9084.5 0
9085.5 0
9086.5 0
9087.5 0
9088.5 0
9089.5 0
9090.5 0
9091.5 0
9092.5 0
9093.5 0
9094.5 2
9095.5 0
9096.5 0
9097.5 -1.28571
9098.5 0
9099.5 0
9100.5 0
9101.5 -1.28571
9102.5 1
9103.5 0
9104.5 0
9105.5 0
9106.5 0
9107.5 0
9108.5 0
9109.5 0
9110.5 0
9111.5 0
9112.5 0
9113.5 0
9114.5 0
9115.5 0
9116.5 0
9117.5 0
9118.5 0
9119.5 0
9120.5 0
9121.5 0
9122.5 -0.285714
9123.5 0
9124.5 0
9125.5 0
9126.5 1
9127.5 0
9128.5 0
9129.5 1
9130.5 0
9131.5 1
9132.5 0
9133.5 0
9134.5 0
9135.5 1
9136.5 0
9137.5 0
9138.5 0
9139.5 1
9140.5 0
9141.5 0
9142.5 0
9143.5 0
9144.5 1
9145.5 0
9146.5 -1.28571
9147.5 0
9148.5 -1.28571
9149.5 1
9150.5 0
9151.5 0
9152.5 -1.28571
9153.5 0
9154.5 1
9155.5 0
9156.5 0
9157.5 0
9158.5 0
9159.5 -1.28571
9160.5 0
9161.5 0
9162.5 0
9163.5 -1.28571
9164.5 1
9165.5 0
9166.5 0
9167.5 0
9168.5 0
9169.5 0
9170.5 0
9171.5 1
9172.5 0
9173.5 0
9174.5 0
9175.5 0
9176.5 0
9177.5 0
9178.5 0
9179.5 0
9180.5 1
9181.5 0
9182.5 0
9183.5 0
9184.5 1
9185.5 0
9186.5 0
9187.5 0
9188.5 0
9189.5 0
9190.5 -1.28571
9191.5 0
9192.5 0
9193.5 0
9194.5 0
9195.5 0
9196.5 0
9197.5 0
9198.5 0
9199.5 0
9200.5 0
9201.5 0
9202.5 1
9203.5 0
9204.5 0
9205.5 0
9206.5 0
9207.5 0
9208.5 0
9209.5 0
9210.5 0
9211.5 1
9212.5 1
9213.5 0
9214.5 0
9215.5 0
9216.5 1
9217.5 0
9218.5 0
9219.5 0
9220.5 0
9221.5 0
9222.5 0
9223.5 0
9224.5 0
9225.5 0
9226.5 0
9227.5 0
9228.5 0
9229.5 0
9230.5 1
9231.5 0
9232.5 0
9233.5 0
9234.5 0
9235.5 0
9236.5 0
9237.5 0
9238.5 0
9239.5 0
9240.5 0
9241.5 -1.28571
9242.5 1
9243.5 0
9244.5 1
9245.5 0
9246.5 0
9247.5 0
9248.5 0
9249.5 0
9250.5 0
9251.5 0
9252.5 0
9253.5 0
9254.5 1
9255.5 0
9256.5 0
9257.5 0
9258.5 0
9259.5 0
9260.5 0
9261.5 0
9262.5 0
9263.5 0
9264.5 0
9265.5 0
9266.5 0
9267.5 0
9268.5 0
9269.5 0
9270.5 -1.28571
9271.5 0
9272.5 0
9273.5 0
9274.5 0
9275.5 0
9276.5 0
9277.5 0
9278.5 1
9279.5 0
9280.5 1
9281.5 0
9282.5 0
9283.5 0
9284.5 0
9285.5 0
9286.5 0
9287.5 0
9288.5 0
9289.5 1
9290.5 0
9291.5 0
9292.5 0
9293.5 0
9294.5 1
9295.5 1
9296.5 0
9297.5 0
9298.5 -0.285714
9299.5 0
9300.5 0
9301.5 0
9302.5 0
9303.5 0
9304.5 0
9305.5 1
9306.5 1
9307.5 0
9308.5 0
9309.5 0
9310.5 0
9311.5 0
9312.5 0
9313.5 0
9314.5 0
9315.5 0
9316.5 0
9317.5 0
9318.5 0
9319.5 0
9320.5 0
9321.5 0
9322.5 0
9323.5 0
9324.5 -1.28571
9325.5 0
9326.5 -2.57143
9327.5 0
9328.5 0
9329.5 2
9330.5 0
9331.5 0
9332.5 2
9333.5 0
9334.5 0
9335.5 0
9336.5 1
9337.5 0
9338.5 0
9339.5 0
9340.5 0
9341.5 1
9342.5 0
9343.5 0
9344.5 0
9345.5 -1.28571
9346.5 1
9347.5 0
9348.5 0
9349.5 0
9350.5 0
9351.5 0
9352.5 -1.28571
9353.5 0
9354.5 0
9355.5 0
9356.5 0
9357.5 0
9358.5 0
9359.5 -1.28571
9360.5 0
9361.5 0
9362.5 0
9363.5 0
9364.5 0
9365.5 0
9366.5 0
9367.5 0
9368.5 0
9369.5 0
9370.5 0
9371.5 -2.57143
9372.5 0
9373.5 0
9374.5 0
9375.5 0
9376.5 0
9377.5 0
9378.5 0
9379.5 0
9380.5 0
9381.5 0
9382.5 0
9383.5 1
9384.5 0
9385.5 -0.285714
9386.5 0
9387.5 0
9388.5 0
9389.5 0
9390.5 0
9391.5 0
9392.5 0
9393.5 0
9394.5 1
9395.5 0
9396.5 0
9397.5 1
9398.5 -1.28571
9399.5 0
9400.5 -1.28571
9401.5 0
9402.5 0
9403.5 0
9404.5 0
9405.5 0
9406.5 -1.28571
9407.5 0
9408.5 0
9409.5 0
9410.5 1
9411.5 0
9412.5 0
9413.5 0
9414.5 0
9415.5 0
9416.5 0
9417.5 0
9418.5 0
9419.5 0
9420.5 0
9421.5 0
9422.5 -1.28571
9423.5 1
9424.5 0
9425.5 0
9426.5 0
9427.5 0
9428.5 1
9429.5 0
9430.5 0
9431.5 0
9432.5 -0.285714
9433.5 1
9434.5 0
9435.5 0
9436.5 1
9437.5 0
9438.5 0
9439.5 0
9440.5 0
9441.5 0
9442.5 0
9443.5 -1.28571
9444.5 -1.28571
9445.5 0
9446.5 0
9447.5 0
9448.5 0
9449.5 0
9450.5 0
9451.5 0
9452.5 -1.28571
9453.5 0
9454.5 0
9455.5 1
9456.5 0
9457.5 0
9458.5 -1.28571
9459.5 0
9460.5 0
9461.5 -1.28571
9462.5 0
9463.5 1
9464.5 1
9465.5 0
9466.5 0
9467.5 1
9468.5 0
9469.5 -1.28571
9470.5 0
9471.5 0
9472.5 0
9473.5 0
9474.5 0
9475.5 0
9476.5 0
9477.5 0
9478.5 0
9479.5 0
9480.5 0
9481.5 1
9482.5 -1.28571
9483.5 0
9484.5 0
9485.5 0
9486.5 0
9487.5 0
9488.5 0
9489.5 0
9490.5 -1.28571
9491.5 1
9492.5 0
9493.5 1
9494.5 0
9495.5 -2.57143
9496.5 0
9497.5 0
9498.5 1
9499.5 0
9500.5 0
9501.5 0
9502.5 1
9503.5 0
9504.5 0
9505.5 0
9506.5 0
9507.5 0
9508.5 0
9509.5 0
9510.5 1
9511.5 0
9512.5 0
9513.5 0
9514.5 0
9515.5 0
9516.5 0
9517.5 0
9518.5 0
9519.5 0
9520.5 0
9521.5 0
9522.5 -1.28571
9523.5 0
9524.5 0
9525.5 0
9526.5 0
9527.5 0
9528.5 -1.28571
9529.5 0
9530.5 0
9531.5 0
9532.5 0
9533.5 0
9534.5 0
9535.5 1
9536.5 0
9537.5 0
9538.5 0
9539.5 0
9540.5 0
9541.5 0
9542.5 1
9543.5 0
9544.5 0
9545.5 0
9546.5 -1.28571
9547.5 0
9548.5 0
9549.5 1
9550.5 0
9551.5 0
9552.5 1
9553.5 0
9554.5 0
9555.5 0
9556.5 0
9557.5 0
9558.5 0
9559.5 0
9560.5 0
9561.5 0
9562.5 0
9563.5 0
9564.5 0
9565.5 0
9566.5 0
9567.5 0
9568.5 0
9569.5 0
9570.5 0
9571.5 0
9572.5 0
9573.5 0
9574.5 0
9575.5 0
9576.5 0
9577.5 -1.28571
9578.5 0
9579.5 0
9580.5 -1.28571
9581.5 0
9582.5 0
9583.5 0
9584.5 0
9585.5 0
9586.5 0
9587.5 0
9588.5 0
9589.5 0
9590.5 -1.28571
9591.5 0
9592.5 0
9593.5 0
9594.5 0
9595.5 0
9596.5 0
9597.5 0
9598.5 0
9599.5 0
9600.5 0
9601.5 0
9602.5 1
9603.5 0
9604.5 0
9605.5 0
9606.5 0
9607.5 0
9608.5 0
9609.5 1
9610.5 1
9611.5 0
9612.5 0
9613.5 0
9614.5 0
9615.5 0
9616.5 0
9617.5 0
9618.5 0
9619.5 0
9620.5 0
9621.5 0
9622.5 0
9623.5 0
9624.5 0
9625.5 0
9626.5 0
9627.5 0
9628.5 0
9629.5 0
9630.5 0
9631.5 0
9632.5 0
9633.5 0
9634.5 0
9635.5 0
9636.5 0
9637.5 0
9638.5 0
9639.5 0
9640.5 0
9641.5 0
9642.5 0
9643.5 1
9644.5 0
9645.5 1
9646.5 0
9647.5 0
9648.5 0
9649.5 0
9650.5 0
9651.5 1
9652.5 0
9653.5 0
9654.5 0
9655.5 0
9656.5 0
9657.5 0
9658.5 -1.28571
9659.5 -1.28571
9660.5 0
9661.5 0
9662.5 0
9663.5 1
9664.5 0
9665.5 0
9666.5 0
9667.5 0
9668.5 0
9669.5 0
9670.5 0
9671.5 0
9672.5 0
9673.5 0
9674.5 0
9675.5 1
9676.5 1
9677.5 0
9678.5 0
9679.5 0
9680.5 0
9681.5 0
9682.5 0
9683.5 0
9684.5 0
9685.5 0
9686.5 0
9687.5 0
9688.5 0
9689.5 0
9690.5 0
9691.5 0
9692.5 0
9693.5 0
9694.5 0
9695.5 0
9696.5 0
9697.5 -1.28571
9698.5 0
9699.5 0
9700.5 0
9701.5 0
9702.5 0
9703.5 0
9704.5 0
9705.5 0
9706.5 0
9707.5 0
9708.5 0
9709.5 0
9710.5 0
9711.5 0
9712.5 0
9713.5 0
9714.5 -1.28571
9715.5 0
9716.5 0
9717.5 0
9718.5 -1.28571
9719.5 1
9720.5 0
9721.5 0
9722.5 0
9723.5 0
9724.5 -1.28571
9725.5 0
9726.5 0
9727.5 0
9728.5 0
9729.5 0
9730.5 0
9731.5 0
9732.5 0
9733.5 0
9734.5 0
9735.5 0
9736.5 0
9737.5 -1.28571
9738.5 0
9739.5 0
9740.5 0
9741.5 0
9742.5 0
9743.5 0
9744.5 0
9745.5 0
9746.5 0
9747.5 0
9748.5 0
9749.5 0
9750.5 0
9751.5 0
9752.5 0
9753.5 0
9754.5 0
9755.5 0
9756.5 0
9757.5 0
9758.5 0
9759.5 0
9760.5 0
9761.5 0
9762.5 0
9763.5 0
9764.5 0
9765.5 0
9766.5 0
9767.5 0
9768.5 0
9769.5 0
9770.5 0
9771.5 0
9772.5 0
9773.5 0
9774.5 0
9775.5 0
9776.5 0
9777.5 0
9778.5 0
9779.5 0
9780.5 0
9781.5 1
9782.5 0
9783.5 0
9784.5 1
9785.5 0
9786.5 0
9787.5 0
9788.5 0
9789.5 0
9790.5 0
9791.5 0
9792.5 0
9793.5 0
9794.5 0
9795.5 0
9796.5 0
9797.5 0
9798.5 0
9799.5 0
9800.5 0
9801.5 0
9802.5 0
9803.5 0
9804.5 0
9805.5 1
9806.5 0
9807.5 0
9808.5 0
9809.5 0
9810.5 0
9811.5 0
9812.5 0
9813.5 0
9814.5 0
9815.5 0
9816.5 0
9817.5 0
9818.5 0
9819.5 0
9820.5 0
9821.5 0
9822.5 0
9823.5 0
9824.5 0
9825.5 0
9826.5 0
9827.5 0
9828.5 0
9829.5 0
9830.5 0
9831.5 0
9832.5 0
9833.5 0
9834.5 0
9835.5 0
9836.5 0
9837.5 0
9838.5 0
9839.5 0
9840.5 0
9841.5 0
9842.5 0
9843.5 0
9844.5 0
9845.5 0
9846.5 0
9847.5 0
9848.5 0
9849.5 0
9850.5 0
9851.5 0
9852.5 0
9853.5 0
9854.5 0
9855.5 1
9856.5 0
9857.5 0
9858.5 1
9859.5 0
9860.5 0
9861.5 0
9862.5 0
9863.5 0
9864.5 0
9865.5 0
9866.5 0
9867.5 0
9868.5 0
9869.5 0
9870.5 0
9871.5 0
9872.5 0
9873.5 0
9874.5 0
9875.5 0
9876.5 0
9877.5 0
9878.5 0
9879.5 0
9880.5 0
9881.5 0
9882.5 0
9883.5 0
9884.5 0
9885.5 0
9886.5 0
9887.5 0
9888.5 0
9889.5 0
9890.5 0
9891.5 0
9892.5 0
9893.5 0
9894.5 0
9895.5 0
9896.5 0
9897.5 0
9898.5 0
9899.5 0
9900.5 0
9901.5 0
9902.5 0
9903.5 0
9904.5 1
9905.5 0
9906.5 0
9907.5 0
9908.5 0
9909.5 0
9910.5 0
9911.5 0
9912.5 0
9913.5 0
9914.5 0
9915.5 0
9916.5 0
9917.5 0
9918.5 0
9919.5 0
9920.5 0
9921.5 0
9922.5 0
9923.5 0
9924.5 0
9925.5 1
9926.5 0
9927.5 0
9928.5 0
9929.5 0
9930.5 0
9931.5 0
9932.5 0
9933.5 0
9934.5 -1.28571
9935.5 0
9936.5 0
9937.5 0
9938.5 0
9939.5 0
9940.5 0
9941.5 0
9942.5 1
9943.5 0
9944.5 0
9945.5 0
9946.5 1
9947.5 0
9948.5 0
9949.5 0
9950.5 0
9951.5 0
9952.5 0
9953.5 0
9954.5 0
9955.5 0
9956.5 0
9957.5 0
9958.5 0
9959.5 1
9960.5 0
9961.5 0
9962.5 0
9963.5 0
9964.5 0
9965.5 -1.28571
9966.5 0
9967.5 0
9968.5 0
9969.5 0
9970.5 0
9971.5 0
9972.5 0
9973.5 0
9974.5 0
9975.5 1
9976.5 0
9977.5 0
9978.5 1
9979.5 0
9980.5 0
9981.5 0
9982.5 0
9983.5 0
9984.5 0
9985.5 0
9986.5 0
9987.5 1
9988.5 0
9989.5 0
9990.5 0
9991.5 0
9992.5 0
9993.5 0
9994.5 0
9995.5 0
9996.5 0
9997.5 0
9998.5 0
9999.5 1
10000.5 0
10001.5 0
10002.5 0
10003.5 0
10004.5 0
10005.5 0
10006.5 0
10007.5 0
10008.5 0
10009.5 0
10010.5 0
10011.5 0
10012.5 0
10013.5 0
10014.5 0
10015.5 0
10016.5 0
10017.5 0
10018.5 0
10019.5 0
10020.5 0
10021.5 0
10022.5 0
10023.5 0
10024.5 0
10025.5 0
10026.5 0
10027.5 0
10028.5 0
10029.5 0
10030.5 0
10031.5 0
10032.5 0
10033.5 0
10034.5 0
10035.5 0
10036.5 0
10037.5 0
10038.5 0
10039.5 0
10040.5 0
10041.5 0
10042.5 0
10043.5 1
10044.5 0
10045.5 0
10046.5 0
10047.5 0
10048.5 0
10049.5 0
10050.5 0
10051.5 0
10052.5 0
10053.5 0
10054.5 0
10055.5 0
10056.5 0
10057.5 0
10058.5 0
10059.5 0
10060.5 0
10061.5 0
10062.5 0
10063.5 0
10064.5 0
10065.5 0
10066.5 0
10067.5 0
10068.5 0
10069.5 0
10070.5 0
10071.5 0
10072.5 0
10073.5 0
10074.5 0
10075.5 0
10076.5 0
10077.5 0
10078.5 0
10079.5 0
10080.5 0
10081.5 0
10082.5 0
10083.5 1
10084.5 0
10085.5 0
10086.5 0
10087.5 0
10088.5 0
10089.5 0
10090.5 0
10091.5 0
10092.5 0
10093.5 0
10094.5 0
10095.5 0
10096.5 0
10097.5 0
10098.5 0
10099.5 0
10100.5 0
10101.5 0
10102.5 0
10103.5 0
10104.5 0
10105.5 0
10106.5 0
10107.5 0
10108.5 0
10109.5 0
10110.5 0
10111.5 0
10112.5 0
10113.5 0
10114.5 0
10115.5 0
10116.5 0
10117.5 0
10118.5 0
10119.5 0
10120.5 0
10121.5 0
10122.5 0
10123.5 0
10124.5 0
10125.5 0
10126.5 0
10127.5 0
10128.5 0
10129.5 0
10130.5 0
10131.5 0
10132.5 0
10133.5 0
10134.5 0
10135.5 0
10136.5 0
10137.5 0
10138.5 0
10139.5 0
10140.5 0
10141.5 -1.28571
10142.5 0
10143.5 0
10144.5 0
10145.5 1
10146.5 0
10147.5 0
10148.5 0
10149.5 0
10150.5 0
10151.5 0
10152.5 0
10153.5 0
10154.5 0
10155.5 0
10156.5 0
10157.5 0
10158.5 0
10159.5 0
10160.5 0
10161.5 0
10162.5 0
10163.5 0
10164.5 0
10165.5 0
10166.5 0
10167.5 0
10168.5 0
10169.5 0
10170.5 0
10171.5 0
10172.5 0
10173.5 0
10174.5 0
10175.5 0
10176.5 0
10177.5 0
10178.5 0
10179.5 0
10180.5 0
10181.5 1
10182.5 0
10183.5 0
10184.5 0
10185.5 0
10186.5 0
10187.5 0
10188.5 0
10189.5 0
10190.5 0
10191.5 0
10192.5 0
10193.5 0
10194.5 0
10195.5 0
10196.5 0
10197.5 0
10198.5 0
10199.5 0
10200.5 0
10201.5 0
10202.5 0
10203.5 -1.28571
10204.5 0
10205.5 0
10206.5 0
10207.5 0
10208.5 0
10209.5 0
10210.5 1
10211.5 0
10212.5 0
10213.5 0
10214.5 0
10215.5 0
10216.5 0
10217.5 0
10218.5 0
10219.5 0
10220.5 0
10221.5 0
10222.5 0
10223.5 0
10224.5 0
10225.5 0
10226.5 0
10227.5 0
10228.5 0
10229.5 0
10230.5 1
10231.5 0
10232.5 0
10233.5 0
10234.5 0
10235.5 -1.28571
10236.5 0
10237.5 0
10238.5 0
10239.5 0
10240.5 0
10241.5 0
10242.5 0
10243.5 0
10244.5 0
10245.5 0
10246.5 0
10247.5 0
10248.5 0
10249.5 0
10250.5 0
10251.5 0
10252.5 0
10253.5 0
10254.5 0
10255.5 0
10256.5 0
10257.5 0
10258.5 0
10259.5 0
10260.5 0
10261.5 0
10262.5 0
10263.5 0
10264.5 0
10265.5 0
10266.5 0
10267.5 0
10268.5 0
10269.5 0
10270.5 0
10271.5 0
10272.5 0
10273.5 0
10274.5 0
10275.5 0
10276.5 0
10277.5 0
10278.5 0
10279.5 0
10280.5 0
10281.5 0
10282.5 0
10283.5 0
10284.5 0
10285.5 0
10286.5 0
10287.5 1
10288.5 0
10289.5 0
10290.5 0
10291.5 0
10292.5 0
10293.5 0
10294.5 0
10295.5 1
10296.5 0
10297.5 0
10298.5 0
10299.5 0
10300.5 0
10301.5 0
10302.5 0
10303.5 0
10304.5 0
10305.5 0
10306.5 0
10307.5 0
10308.5 0
10309.5 0
10310.5 0
10311.5 0
10312.5 0
10313.5 0
10314.5 0
10315.5 0
10316.5 0
10317.5 0
10318.5 0
10319.5 0
10320.5 0
10321.5 0
10322.5 0
10323.5 0
10324.5 0
10325.5 0
10326.5 0
10327.5 0
10328.5 0
10329.5 0
10330.5 0
10331.5 0
10332.5 0
10333.5 0
10334.5 0
10335.5 0
10336.5 0
10337.5 0
10338.5 0
10339.5 0
10340.5 0
10341.5 0
10342.5 0
10343.5 0
10344.5 -1.28571
10345.5 0
10346.5 0
10347.5 0
10348.5 0
10349.5 0
10350.5 0
10351.5 0
10352.5 0
10353.5 0
10354.5 0
10355.5 0
10356.5 0
10357.5 0
10358.5 0
10359.5 0
10360.5 0
10361.5 0
10362.5 0
10363.5 0
10364.5 0
10365.5 0
10366.5 -1.28571
10367.5 0
10368.5 0
10369.5 0
10370.5 0
10371.5 0
10372.5 0
10373.5 0
10374.5 0
10375.5 0
10376.5 0
10377.5 0
10378.5 0
10379.5 0
10380.5 0
10381.5 0
10382.5 0
10383.5 0
10384.5 0
10385.5 1
10386.5 0
10387.5 -1.28571
10388.5 0
10389.5 0
10390.5 0
10391.5 0
10392.5 0
10393.5 -1.28571
10394.5 0
10395.5 0
10396.5 0
10397.5 0
10398.5 0
10399.5 0
10400.5 0
10401.5 0
10402.5 0
10403.5 0
10404.5 0
10405.5 0
10406.5 0
10407.5 0
10408.5 0
10409.5 0
10410.5 0
10411.5 0
10412.5 0
10413.5 0
10414.5 0
10415.5 0
10416.5 0
10417.5 0
10418.5 0
10419.5 0
10420.5 0
10421.5 0
10422.5 0
10423.5 0
10424.5 0
10425.5 0
10426.5 0
10427.5 0
10428.5 0
10429.5 0
10430.5 0
10431.5 0
10432.5 0
10433.5 0
10434.5 0
10435.5 0
10436.5 0
10437.5 0
10438.5 0
10439.5 0
10440.5 0
10441.5 0
10442.5 0
10443.5 0
10444.5 0
10445.5 0
10446.5 0
10447.5 0
10448.5 0
10449.5 0
10450.5 0
10451.5 0
10452.5 0
10453.5 0
10454.5 0
10455.5 0
10456.5 0
10457.5 0
10458.5 0
10459.5 0
10460.5 0
10461.5 0
10462.5 0
10463.5 0
10464.5 0
10465.5 0
10466.5 0
10467.5 0
10468.5 0
10469.5 0
10470.5 0
10471.5 0
10472.5 0
10473.5 0
10474.5 0
10475.5 0
10476.5 0
10477.5 0
10478.5 0
10479.5 0
10480.5 0
10481.5 0
10482.5 0
10483.5 0
10484.5 0
10485.5 0
10486.5 0
10487.5 0
10488.5 0
10489.5 0
10490.5 0
10491.5 0
10492.5 0
10493.5 0
10494.5 0
10495.5 0
10496.5 0
10497.5 0
10498.5 0
10499.5 0
10500.5 0
10501.5 0
10502.5 0
10503.5 0
10504.5 0
10505.5 0
10506.5 0
10507.5 0
10508.5 0
10509.5 0
10510.5 0
10511.5 0
10512.5 0
10513.5 0
10514.5 0
10515.5 0
10516.5 0
10517.5 0
10518.5 0
10519.5 0
10520.5 0
10521.5 0
10522.5 0
10523.5 0
10524.5 0
10525.5 0
10526.5 0
10527.5 0
10528.5 0
10529.5 0
10530.5 0
10531.5 0
10532.5 0
10533.5 0
10534.5 0
10535.5 0
10536.5 0
10537.5 0
10538.5 0
10539.5 0
10540.5 0
10541.5 0
10542.5 0
10543.5 0
10544.5 0
10545.5 0
10546.5 0
10547.5 0
10548.5 0
10549.5 0
10550.5 0
10551.5 0
10552.5 0
10553.5 0
10554.5 0
10555.5 0
10556.5 0
10557.5 0
10558.5 0
10559.5 0
10560.5 0
10561.5 0
10562.5 0
10563.5 0
10564.5 0
10565.5 0
10566.5 0
10567.5 0
10568.5 0
10569.5 0
10570.5 0
10571.5 0
10572.5 0
10573.5 0
10574.5 0
10575.5 1
10576.5 0
10577.5 0
10578.5 0
10579.5 0
10580.5 0
10581.5 0
10582.5 0
10583.5 0
10584.5 0
10585.5 0
10586.5 0
10587.5 0
10588.5 0
10589.5 0
10590.5 0
10591.5 0
10592.5 0
10593.5 0
10594.5 0
10595.5 0
10596.5 0
10597.5 0
10598.5 0
10599.5 0
10600.5 0
10601.5 0
10602.5 0
10603.5 0
10604.5 0
10605.5 0
10606.5 0
10607.5 0
10608.5 0
10609.5 1
10610.5 0
10611.5 0
10612.5 0
10613.5 0
10614.5 0
10615.5 0
10616.5 0
10617.5 0
10618.5 0
10619.5 0
10620.5 0
10621.5 0
10622.5 0
10623.5 0
10624.5 0
10625.5 0
10626.5 0
10627.5 0
10628.5 0
10629.5 0
10630.5 0
10631.5 0
10632.5 0
10633.5 0
10634.5 0
10635.5 0
10636.5 0
10637.5 0
10638.5 0
10639.5 0
10640.5 0
10641.5 0
10642.5 0
10643.5 0
10644.5 0
10645.5 0
10646.5 0
10647.5 0
10648.5 0
10649.5 0
10650.5 0
10651.5 0
10652.5 0
10653.5 0
10654.5 0
10655.5 0
10656.5 0
10657.5 0
10658.5 0
10659.5 0
10660.5 0
10661.5 0
10662.5 0
10663.5 0
10664.5 0
10665.5 0
10666.5 0
10667.5 0
10668.5 0
10669.5 0
10670.5 0
10671.5 0
10672.5 0
10673.5 0
10674.5 0
10675.5 0
10676.5 0
10677.5 0
10678.5 0
10679.5 0
10680.5 0
10681.5 0
10682.5 0
10683.5 0
10684.5 0
10685.5 1
10686.5 0
10687.5 0
10688.5 0
10689.5 0
10690.5 0
10691.5 0
10692.5 0
10693.5 1
10694.5 0
10695.5 0
10696.5 0
10697.5 0
10698.5 0
10699.5 0
10700.5 0
10701.5 0
10702.5 0
10703.5 0
10704.5 0
10705.5 0
10706.5 0
10707.5 0
10708.5 0
10709.5 0
10710.5 0
10711.5 0
10712.5 0
10713.5 0
10714.5 0
10715.5 0
10716.5 0
10717.5 0
10718.5 0
10719.5 0
10720.5 0
10721.5 0
10722.5 0
10723.5 0
10724.5 0
10725.5 0
10726.5 0
10727.5 1
10728.5 0
10729.5 0
10730.5 0
10731.5 0
10732.5 0
10733.5 0
10734.5 0
10735.5 0
10736.5 0
10737.5 0
10738.5 0
10739.5 0
10740.5 0
10741.5 0
10742.5 0
10743.5 0
10744.5 0
10745.5 0
10746.5 0
10747.5 0
10748.5 0
10749.5 0
10750.5 0
10751.5 0
10752.5 0
10753.5 0
10754.5 0
10755.5 0
10756.5 0
10757.5 0
10758.5 0
10759.5 0
10760.5 0
10761.5 0
10762.5 0
10763.5 0
10764.5 0
10765.5 0
10766.5 0
10767.5 0
10768.5 0
10769.5 0
10770.5 0
10771.5 0
10772.5 0
10773.5 0
10774.5 0
10775.5 0
10776.5 0
10777.5 0
10778.5 0
10779.5 0
10780.5 0
10781.5 0
10782.5 0
10783.5 0
10784.5 0
10785.5 0
10786.5 0
10787.5 0
10788.5 0
10789.5 0
10790.5 0
10791.5 0
10792.5 0
10793.5 0
10794.5 0
10795.5 0
10796.5 0
10797.5 0
10798.5 0
10799.5 0
10800.5 0
10801.5 0
10802.5 0
10803.5 0
10804.5 0
10805.5 0
10806.5 0
10807.5 0
10808.5 0
10809.5 0
10810.5 0
10811.5 0
10812.5 0
10813.5 0
10814.5 0
10815.5 0
10816.5 0
10817.5 0
10818.5 0
10819.5 0
10820.5 0
10821.5 0
10822.5 0
10823.5 0
10824.5 0
10825.5 0
10826.5 0
10827.5 0
10828.5 0
10829.5 0
10830.5 0
10831.5 0
10832.5 0
10833.5 0
10834.5 0
10835.5 0
10836.5 0
10837.5 0
10838.5 0
10839.5 0
10840.5 0
10841.5 0
10842.5 0
10843.5 0
10844.5 0
10845.5 0
10846.5 0
10847.5 0
10848.5 0
10849.5 0
10850.5 0
10851.5 0
10852.5 0
10853.5 0
10854.5 0
10855.5 0
10856.5 0
10857.5 0
10858.5 1
10859.5 0
10860.5 0
10861.5 0
10862.5 0
10863.5 0
10864.5 0
10865.5 0
10866.5 0
10867.5 0
10868.5 0
10869.5 0
10870.5 0
10871.5 0
10872.5 0
10873.5 0
10874.5 0
10875.5 0
10876.5 0
10877.5 0
10878.5 1
10879.5 0
10880.5 0
10881.5 0
10882.5 0
10883.5 0
10884.5 0
10885.5 0
10886.5 0
10887.5 0
10888.5 0
10889.5 0
10890.5 0
10891.5 0
10892.5 0
10893.5 0
10894.5 0
10895.5 0
10896.5 0
10897.5 0
10898.5 0
10899.5 0
10900.5 0
10901.5 0
10902.5 0
10903.5 0
10904.5 0
10905.5 0
10906.5 0
10907.5 0
10908.5 0
10909.5 0
10910.5 0
10911.5 0
10912.5 0
10913.5 0
10914.5 0
10915.5 0
10916.5 0
10917.5 0
10918.5 0
10919.5 0
10920.5 0
10921.5 0
10922.5 0
10923.5 0
10924.5 0
10925.5 0
10926.5 0
10927.5 0
10928.5 0
10929.5 0
10930.5 0
10931.5 0
10932.5 0
10933.5 0
10934.5 0
10935.5 0
10936.5 0
10937.5 0
10938.5 0
10939.5 0
10940.5 0
10941.5 0
10942.5 0
10943.5 0
10944.5 0
10945.5 0
10946.5 0
10947.5 0
10948.5 0
10949.5 0
10950.5 0
10951.5 0
10952.5 0
10953.5 0
10954.5 0
10955.5 0
10956.5 0
10957.5 0
10958.5 0
10959.5 0
10960.5 0
10961.5 0
10962.5 0
10963.5 0
10964.5 -1.28571
10965.5 0
10966.5 0
10967.5 0
10968.5 0
10969.5 0
10970.5 0
10971.5 0
10972.5 0
10973.5 0
10974.5 0
10975.5 0
10976.5 0
10977.5 0
10978.5 0
10979.5 0
10980.5 0
10981.5 0
10982.5 0
10983.5 0
10984.5 0
10985.5 0
10986.5 0
10987.5 0
10988.5 0
10989.5 0
10990.5 0
10991.5 0
10992.5 0
10993.5 0
10994.5 0
10995.5 0
10996.5 0
10997.5 0
10998.5 0
10999.5 0
11000.5 0
11001.5 0
11002.5 0
11003.5 0
11004.5 0
11005.5 0
11006.5 0
11007.5 0
11008.5 0
11009.5 0
11010.5 0
11011.5 0
11012.5 0
11013.5 0
11014.5 0
11015.5 0
11016.5 0
11017.5 0
11018.5 0
11019.5 0
11020.5 0
11021.5 0
11022.5 0
11023.5 0
11024.5 0
11025.5 0
11026.5 0
11027.5 0
11028.5 0
11029.5 0
11030.5 0
11031.5 0
11032.5 0
11033.5 0
11034.5 0
11035.5 0
11036.5 0
11037.5 0
11038.5 0
11039.5 0
11040.5 0
11041.5 0
11042.5 0
11043.5 0
11044.5 0
11045.5 0
11046.5 0
11047.5 0
11048.5 0
11049.5 0
11050.5 1
11051.5 0
11052.5 0
11053.5 0
11054.5 0
11055.5 1
11056.5 0
11057.5 0
11058.5 0
11059.5 0
11060.5 0
11061.5 0
11062.5 0
11063.5 0
11064.5 0
11065.5 0
11066.5 0
11067.5 0
11068.5 0
11069.5 0
11070.5 0
11071.5 0
11072.5 0
11073.5 0
11074.5 0
11075.5 0
11076.5 0
11077.5 0
11078.5 0
11079.5 0
11080.5 0
11081.5 0
11082.5 0
11083.5 0
11084.5 0
11085.5 0
11086.5 0
11087.5 0
11088.5 0
11089.5 0
11090.5 0
11091.5 0
11092.5 0
11093.5 0
11094.5 0
11095.5 0
11096.5 0
11097.5 0
11098.5 0
11099.5 0
11100.5 0
11101.5 0
11102.5 0
11103.5 0
11104.5 0
11105.5 0
11106.5 0
11107.5 0
11108.5 0
11109.5 0
11110.5 0
11111.5 0
11112.5 0
11113.5 0
11114.5 0
11115.5 0
11116.5 0
11117.5 0
11118.5 0
11119.5 0
11120.5 0
11121.5 0
11122.5 0
11123.5 0
11124.5 0
11125.5 0
11126.5 0
11127.5 0
11128.5 0
11129.5 0
11130.5 0
11131.5 0
11132.5 0
11133.5 0
11134.5 0
11135.5 0
11136.5 0
11137.5 0
11138.5 0
11139.5 0
11140.5 -1.28571
11141.5 0
11142.5 0
11143.5 0
11144.5 0
11145.5 0
11146.5 0
11147.5 0
11148.5 0
11149.5 0
11150.5 0
11151.5 0
11152.5 0
11153.5 0
11154.5 0
11155.5 0
11156.5 0
11157.5 0
11158.5 0
11159.5 0
11160.5 0
11161.5 0
11162.5 0
11163.5 0
11164.5 0
11165.5 0
11166.5 1
11167.5 0
11168.5 0
11169.5 0
11170.5 0
11171.5 0
11172.5 0
11173.5 0
11174.5 0
11175.5 0
11176.5 0
11177.5 0
11178.5 0
11179.5 0
11180.5 0
11181.5 0
11182.5 0
11183.5 0
11184.5 0
11185.5 0
11186.5 0
11187.5 0
11188.5 0
11189.5 0
11190.5 0
11191.5 0
11192.5 0
11193.5 0
11194.5 0
11195.5 1
11196.5 0
11197.5 0
11198.5 0
11199.5 0
11200.5 0
11201.5 0
11202.5 0
11203.5 0
11204.5 0
11205.5 0
11206.5 0
11207.5 0
11208.5 0
11209.5 0
11210.5 0
11211.5 0
11212.5 0
11213.5 0
11214.5 0
11215.5 0
11216.5 0
11217.5 0
11218.5 0
11219.5 0
11220.5 0
11221.5 0
11222.5 0
11223.5 0
11224.5 0
11225.5 0
11226.5 0
11227.5 0
11228.5 0
11229.5 0
11230.5 0
11231.5 0
11232.5 0
11233.5 0
11234.5 0
11235.5 0
11236.5 0
11237.5 0
11238.5 0
11239.5 0
11240.5 0
11241.5 0
11242.5 0
11243.5 0
11244.5 0
11245.5 0
11246.5 0
11247.5 0
11248.5 0
11249.5 0
11250.5 0
11251.5 0
11252.5 0
11253.5 0
11254.5 0
11255.5 0
11256.5 0
11257.5 0
11258.5 0
11259.5 0
11260.5 0
11261.5 0
11262.5 0
11263.5 0
11264.5 0
11265.5 0
11266.5 0
11267.5 0
11268.5 0
11269.5 0
11270.5 0
11271.5 0
11272.5 0
11273.5 0
11274.5 0
11275.5 0
11276.5 0
11277.5 0
11278.5 0
11279.5 0
11280.5 0
11281.5 0
11282.5 0
11283.5 0
11284.5 0
11285.5 0
11286.5 0
11287.5 0
11288.5 0
11289.5 0
11290.5 0
11291.5 0
11292.5 0
11293.5 0
11294.5 0
11295.5 0
11296.5 0
11297.5 0
11298.5 0
11299.5 0
11300.5 0
11301.5 0
11302.5 0
11303.5 0
11304.5 0
11305.5 0
11306.5 0
11307.5 0
11308.5 0
11309.5 0
11310.5 0
11311.5 0
11312.5 0
11313.5 0
11314.5 0
11315.5 0
11316.5 0
11317.5 0
11318.5 0
11319.5 0
11320.5 0
11321.5 0
11322.5 0
11323.5 1
11324.5 0
11325.5 0
11326.5 0
11327.5 0
11328.5 0
11329.5 0
11330.5 0
11331.5 0
11332.5 0
11333.5 0
11334.5 0
11335.5 0
11336.5 0
11337.5 0
11338.5 0
11339.5 0
11340.5 0
11341.5 0
11342.5 0
11343.5 0
11344.5 0
11345.5 0
11346.5 0
11347.5 0
11348.5 0
11349.5 0
11350.5 0
11351.5 0
11352.5 0
11353.5 0
11354.5 0
11355.5 0
11356.5 0
11357.5 0
11358.5 0
11359.5 0
11360.5 0
11361.5 0
11362.5 0
11363.5 0
11364.5 0
11365.5 0
11366.5 0
11367.5 0
11368.5 0
11369.5 0
11370.5 0
11371.5 0
11372.5 0
11373.5 0
11374.5 0
11375.5 0
11376.5 0
11377.5 0
11378.5 0
11379.5 0
11380.5 0
11381.5 0
11382.5 0
11383.5 0
11384.5 0
11385.5 0
11386.5 0
11387.5 0
11388.5 0
11389.5 0
11390.5 0
11391.5 0
11392.5 0
11393.5 0
11394.5 0
11395.5 0
11396.5 0
11397.5 0
11398.5 0
11399.5 0
11400.5 0
11401.5 0
11402.5 0
11403.5 0
11404.5 0
11405.5 0
11406.5 0
11407.5 0
11408.5 0
11409.5 0
11410.5 0
11411.5 0
11412.5 0
11413.5 0
11414.5 0
11415.5 0
11416.5 0
11417.5 0
11418.5 0
11419.5 0
11420.5 0
11421.5 0
11422.5 0
11423.5 0
11424.5 0
11425.5 0
11426.5 0
11427.5 0
11428.5 0
11429.5 0
11430.5 0
11431.5 0
11432.5 0
11433.5 0
11434.5 0
11435.5 0
11436.5 0
11437.5 0
11438.5 0
11439.5 0
11440.5 0
11441.5 0
11442.5 0
11443.5 0
11444.5 0
11445.5 0
11446.5 0
11447.5 0
11448.5 0
11449.5 0
11450.5 0
11451.5 0
11452.5 0
11453.5 0
11454.5 0
11455.5 0
11456.5 0
11457.5 0
11458.5 0
11459.5 0
11460.5 0
11461.5 0
11462.5 0
11463.5 0
11464.5 0
11465.5 0
11466.5 0
11467.5 0
11468.5 0
11469.5 0
11470.5 0
11471.5 0
11472.5 0
11473.5 0
11474.5 0
11475.5 0
11476.5 0
11477.5 0
11478.5 0
11479.5 0
11480.5 0
11481.5 0
11482.5 0
11483.5 0
11484.5 0
11485.5 0
11486.5 0
11487.5 0
11488.5 0
11489.5 0
11490.5 0
11491.5 0
11492.5 0
11493.5 0
11494.5 0
11495.5 0
11496.5 0
11497.5 0
11498.5 0
11499.5 0
11500.5 0
11501.5 0
11502.5 0
11503.5 0
11504.5 0
11505.5 0
11506.5 0
11507.5 0
11508.5 0
11509.5 0
11510.5 0
11511.5 0
11512.5 0
11513.5 0
11514.5 0
11515.5 0
11516.5 0
11517.5 0
11518.5 0
11519.5 0
11520.5 0
11521.5 0
11522.5 0
11523.5 0
11524.5 0
11525.5 0
11526.5 0
11527.5 0
11528.5 0
11529.5 0
11530.5 0
11531.5 0
11532.5 0
11533.5 0
11534.5 0
11535.5 0
11536.5 0
11537.5 0
11538.5 0
11539.5 0
11540.5 0
11541.5 0
11542.5 0
11543.5 0
11544.5 0
11545.5 0
11546.5 0
11547.5 0
11548.5 0
11549.5 0
11550.5 0
11551.5 0
11552.5 0
11553.5 0
11554.5 0
11555.5 0
11556.5 0
11557.5 -1.28571
11558.5 0
11559.5 0
11560.5 0
11561.5 0
11562.5 0
11563.5 0
11564.5 0
11565.5 0
11566.5 0
11567.5 0
11568.5 0
11569.5 0
11570.5 0
11571.5 0
11572.5 0
11573.5 0
11574.5 0
11575.5 0
11576.5 0
11577.5 0
11578.5 0
11579.5 0
11580.5 0
11581.5 0
11582.5 0
11583.5 0
11584.5 0
11585.5 0
11586.5 0
11587.5 0
11588.5 0
11589.5 0
11590.5 0
11591.5 0
11592.5 0
11593.5 0
11594.5 0
11595.5 0
11596.5 0
11597.5 0
11598.5 0
11599.5 0
11600.5 0
11601.5 0
11602.5 0
11603.5 0
11604.5 0
11605.5 0
11606.5 0
11607.5 0
11608.5 0
11609.5 0
11610.5 0
11611.5 0
11612.5 0
11613.5 0
11614.5 0
11615.5 0
11616.5 0
11617.5 0
11618.5 0
11619.5 0
11620.5 0
11621.5 0
11622.5 0
11623.5 0
11624.5 0
11625.5 0
11626.5 0
11627.5 0
11628.5 0
11629.5 0
11630.5 0
11631.5 0
11632.5 0
11633.5 0
11634.5 0
11635.5 0
11636.5 0
11637.5 0
11638.5 0
11639.5 0
11640.5 0
11641.5 0
11642.5 0
11643.5 0
11644.5 0
11645.5 0
11646.5 0
11647.5 0
11648.5 0
11649.5 0
11650.5 0
11651.5 0
11652.5 0
11653.5 0
11654.5 0
11655.5 0
11656.5 0
11657.5 0
11658.5 0
11659.5 0
11660.5 0
11661.5 0
11662.5 0
11663.5 0
11664.5 0
11665.5 0
11666.5 0
11667.5 0
11668.5 0
11669.5 0
11670.5 0
11671.5 0
11672.5 0
11673.5 0
11674.5 0
11675.5 0
11676.5 0
11677.5 0
11678.5 0
11679.5 0
11680.5 0
11681.5 0
11682.5 0
11683.5 0
11684.5 0
11685.5 0
11686.5 0
11687.5 0
11688.5 0
11689.5 0
11690.5 0
11691.5 0
11692.5 0
11693.5 0
11694.5 0
11695.5 0
11696.5 0
11697.5 0
11698.5 0
11699.5 0
11700.5 0
11701.5 0
11702.5 0
11703.5 0
11704.5 0
11705.5 0
11706.5 0
11707.5 0
11708.5 0
11709.5 0
11710.5 0
11711.5 0
11712.5 0
11713.5 0
11714.5 0
11715.5 0
11716.5 0
11717.5 0
11718.5 0
11719.5 0
11720.5 0
11721.5 0
11722.5 0
11723.5 0
11724.5 0
11725.5 0
11726.5 0
11727.5 0
11728.5 0
11729.5 0
11730.5 0
11731.5 0
11732.5 0
11733.5 0
11734.5 0
11735.5 0
11736.5 0
11737.5 0
11738.5 0
11739.5 0
11740.5 0
11741.5 0
11742.5 0
11743.5 0
11744.5 0
11745.5 0
11746.5 0
11747.5 0
11748.5 0
11749.5 0
11750.5 0
11751.5 0
11752.5 0
11753.5 0
11754.5 0
11755.5 0
11756.5 0
11757.5 0
11758.5 0
11759.5 0
11760.5 0
11761.5 0
11762.5 0
11763.5 0
11764.5 0
11765.5 0
11766.5 0
11767.5 0
11768.5 0
11769.5 0
11770.5 0
11771.5 0
11772.5 0
11773.5 0
11774.5 0
11775.5 0
11776.5 0
11777.5 0
11778.5 0
11779.5 0
11780.5 0
11781.5 0
11782.5 0
11783.5 0
11784.5 0
11785.5 0
11786.5 0
11787.5 0
11788.5 0
11789.5 0
11790.5 0
11791.5 0
11792.5 0
11793.5 1
11794.5 0
11795.5 0
11796.5 0
11797.5 0
11798.5 0
11799.5 0
11800.5 0
11801.5 0
11802.5 0
11803.5 0
11804.5 0
11805.5 0
11806.5 0
11807.5 0
11808.5 0
11809.5 0
11810.5 0
11811.5 0
11812.5 0
11813.5 0
11814.5 0
11815.5 0
11816.5 0
11817.5 0
11818.5 0
11819.5 0
11820.5 0
11821.5 0
11822.5 0
11823.5 0
11824.5 0
11825.5 0
11826.5 0
11827.5 0
11828.5 0
11829.5 0
11830.5 0
11831.5 0
11832.5 0
11833.5 0
11834.5 0
11835.5 0
11836.5 0
11837.5 0
11838.5 0
11839.5 0
11840.5 0
11841.5 0
11842.5 0
11843.5 0
11844.5 0
11845.5 0
11846.5 0
11847.5 0
11848.5 0
11849.5 0
11850.5 0
11851.5 0
11852.5 0
11853.5 0
11854.5 0
11855.5 0
11856.5 0
11857.5 0
11858.5 0
11859.5 0
11860.5 0
11861.5 0
11862.5 0
11863.5 0
11864.5 0
11865.5 0
11866.5 0
11867.5 0
11868.5 0
11869.5 0
11870.5 0
11871.5 0
11872.5 0
11873.5 0
11874.5 0
11875.5 0
11876.5 0
11877.5 0
11878.5 0
11879.5 0
11880.5 0
11881.5 0
11882.5 0
11883.5 0
11884.5 0
11885.5 0
11886.5 0
11887.5 0
11888.5 0
11889.5 0
11890.5 0
11891.5 0
11892.5 0
11893.5 0
11894.5 0
11895.5 0
11896.5 0
11897.5 0
11898.5 0
11899.5 0
11900.5 0
11901.5 0
11902.5 0
11903.5 0
11904.5 0
11905.5 0
11906.5 0
11907.5 0
11908.5 0
11909.5 0
11910.5 0
11911.5 0
11912.5 0
11913.5 0
11914.5 0
11915.5 0
11916.5 0
11917.5 0
11918.5 0
11919.5 0
11920.5 0
11921.5 0
11922.5 0
11923.5 0
11924.5 0
11925.5 0
11926.5 0
11927.5 0
11928.5 0
11929.5 0
11930.5 0
11931.5 0
11932.5 0
11933.5 0
11934.5 0
11935.5 0
11936.5 0
11937.5 0
11938.5 0
11939.5 0
11940.5 0
11941.5 0
11942.5 0
11943.5 0
11944.5 0
11945.5 0
11946.5 0
11947.5 0
11948.5 0
11949.5 0
11950.5 0
11951.5 0
11952.5 0
11953.5 0
11954.5 0
11955.5 0
11956.5 0
11957.5 0
11958.5 0
11959.5 0
11960.5 0
11961.5 0
11962.5 0
11963.5 0
11964.5 0
11965.5 0
11966.5 0
11967.5 0
11968.5 0
11969.5 0
11970.5 0
11971.5 0
11972.5 0
11973.5 0
11974.5 0
11975.5 0
11976.5 0
11977.5 0
11978.5 0
11979.5 0
11980.5 0
11981.5 0
11982.5 0
11983.5 0
11984.5 0
11985.5 0
11986.5 0
11987.5 0
11988.5 0
11989.5 0
11990.5 0
11991.5 0
11992.5 0
11993.5 0
11994.5 0
11995.5 0
11996.5 0
11997.5 0
11998.5 0
11999.5 0
