# EGG_ProjY_E1983.5(4.5)_B1973.5(1.5)_B2022.0(2.0)
# X axis : Energy (keV) [Y axis]
# Y axis : Counts/1 keV
# N Bins : 12000
# X Min : 0
# X Max : 12000
# X value at the center of the bins
0.5 0
1.5 0
2.5 0
3.5 0
4.5 0
5.5 24.8571
6.5 14
7.5 28.2857
8.5 3.85714
9.5 -7.14286
10.5 10.2857
11.5 3.71429
12.5 35.8571
13.5 4.57143
14.5 40.5714
15.5 -14
16.5 85.7143
17.5 86.2857
18.5 165.429
19.5 168.286
20.5 197.286
21.5 176.571
22.5 239.143
23.5 228.571
24.5 276.429
25.5 288.286
26.5 477.857
27.5 503.143
28.5 433.857
29.5 607.857
30.5 953.857
31.5 677.571
32.5 768.286
33.5 532.429
34.5 691
35.5 657.429
36.5 729.714
37.5 832
38.5 665.714
39.5 908.143
40.5 597.143
41.5 1038.57
42.5 884.714
43.5 1228.71
44.5 913.143
45.5 746.429
46.5 828
47.5 1010.71
48.5 633.429
49.5 862
50.5 992.714
51.5 875.571
52.5 1048
53.5 1050
54.5 986
55.5 848
56.5 1112.14
57.5 1153.14
58.5 1420.86
59.5 1551.86
60.5 1110.86
61.5 1182.57
62.5 1210
63.5 755.571
64.5 1044.71
65.5 961.429
66.5 1192.43
67.5 1033.14
68.5 1286
69.5 1040
70.5 1121.71
71.5 941
72.5 1011
73.5 1212.29
74.5 1859.71
75.5 1921.14
76.5 2161.57
77.5 2526.86
78.5 1613.57
79.5 1020.57
80.5 840.286
81.5 1029.57
82.5 850.571
83.5 1116.14
84.5 1238.29
85.5 1210.57
86.5 1466.86
87.5 1610.43
88.5 1590.57
89.5 1566.57
90.5 1350.71
91.5 1358
92.5 1323.71
93.5 1281.14
94.5 998.857
95.5 1210.86
96.5 1282.71
97.5 1418.43
98.5 1429
99.5 1264.57
100.5 1294.57
101.5 1405.71
102.5 1248.71
103.5 1690.71
104.5 1511.29
105.5 1439
106.5 1321
107.5 1436
108.5 1282.57
109.5 1538.86
110.5 1240.14
111.5 1460.71
112.5 1382.86
113.5 1290.86
114.5 1157.86
115.5 1053
116.5 1196.14
117.5 1181.86
118.5 1193.43
119.5 991.429
120.5 955.143
121.5 877.714
122.5 1069.43
123.5 922.286
124.5 976
125.5 782.714
126.5 589.714
127.5 447
128.5 663.429
129.5 558
130.5 848.143
131.5 1329.86
132.5 1322.29
133.5 1416.86
134.5 1414
135.5 1574.57
136.5 1161.43
137.5 1481.14
138.5 1273.14
139.5 1535
140.5 1194.71
141.5 1293.29
142.5 1598.86
143.5 1253
144.5 1239.57
145.5 1322.71
146.5 1249.14
147.5 1232.29
148.5 1478
149.5 1460.71
150.5 1433.57
151.5 1456.43
152.5 1710.43
153.5 1527.57
154.5 1473.29
155.5 1523.57
156.5 1697.57
157.5 1901.14
158.5 1965.57
159.5 1739.14
160.5 2113
161.5 2553.71
162.5 2968.14
163.5 3230.14
164.5 3263.14
165.5 3145
166.5 3134.14
167.5 3126.43
168.5 2431.57
169.5 2017.57
170.5 1902.71
171.5 1402.14
172.5 1579
173.5 3399
174.5 4497.29
175.5 1494
176.5 -500
177.5 -764.857
178.5 11.4287
179.5 467.857
180.5 960.714
181.5 1081.43
182.5 1273.43
183.5 1241.86
184.5 1097.71
185.5 1280.14
186.5 1030.57
187.5 1482.14
188.5 1402.86
189.5 1102.86
190.5 1171.86
191.5 1095.57
192.5 1321.86
193.5 1424.71
194.5 1126.14
195.5 1203.43
196.5 494.286
197.5 -989.857
198.5 -2619.14
199.5 -4428.57
200.5 -5492.71
201.5 -4564.29
202.5 -2983
203.5 -829.143
204.5 564.429
205.5 1303.29
206.5 1328.57
207.5 1719.57
208.5 1723
209.5 1650.71
210.5 1842.86
211.5 2319.71
212.5 2379.71
213.5 2199.14
214.5 2447.71
215.5 2349.57
216.5 2249.57
217.5 2164.29
218.5 2482.86
219.5 1949.71
220.5 1856.29
221.5 1761.29
222.5 1546
223.5 1217.43
224.5 962.429
225.5 813.429
226.5 743.714
227.5 1115
228.5 1320
229.5 1388
230.5 1595.29
231.5 2218.14
232.5 2904.29
233.5 4858
234.5 7491.86
235.5 10493
236.5 12613.7
237.5 13835.1
238.5 14068.3
239.5 14048.7
240.5 13279.1
241.5 12067.1
242.5 9971
243.5 7254.71
244.5 3861.57
245.5 1023.29
246.5 -2199.29
247.5 -5451.57
248.5 -7279.43
249.5 -7792.57
250.5 -5476.86
251.5 -2988.43
252.5 -468.428
253.5 346.572
254.5 830.429
255.5 904.572
256.5 745.286
257.5 826.143
258.5 814.572
259.5 1026.29
260.5 802.286
261.5 1202.86
262.5 1071.14
263.5 1386.29
264.5 1137.86
265.5 1225.57
266.5 1171.43
267.5 1334.14
268.5 842.143
269.5 1005.57
270.5 933.714
271.5 898.143
272.5 893.857
273.5 939.143
274.5 623.857
275.5 394.429
276.5 880.857
277.5 570
278.5 573.286
279.5 730.286
280.5 661.429
281.5 884.714
282.5 943.571
283.5 870.429
284.5 943.857
285.5 846.857
286.5 899
287.5 928.571
288.5 969.571
289.5 916.571
290.5 980.714
291.5 1031.86
292.5 1017.29
293.5 1030.57
294.5 1197.71
295.5 1224.71
296.5 982.857
297.5 1113
298.5 1533.86
299.5 1548.57
300.5 1434.43
301.5 890.429
302.5 972.571
303.5 805.429
304.5 829.143
305.5 857.429
306.5 774.143
307.5 821.286
308.5 927.429
309.5 1129
310.5 999.143
311.5 1186.71
312.5 1247
313.5 1242.57
314.5 1111.14
315.5 1294.57
316.5 1253.14
317.5 1196.86
318.5 974.571
319.5 1219.29
320.5 946.429
321.5 513
322.5 761.714
323.5 750.714
324.5 588
325.5 673
326.5 373.286
327.5 495.714
328.5 652.286
329.5 868.286
330.5 519.714
331.5 762.714
332.5 902.857
333.5 903.286
334.5 751.714
335.5 809
336.5 725.571
337.5 769.571
338.5 883.429
339.5 803.857
340.5 781.143
341.5 753.571
342.5 574.857
343.5 756
344.5 701.286
345.5 712.143
346.5 873.286
347.5 899
348.5 930.286
349.5 882.143
350.5 571.429
351.5 690.571
352.5 688.857
353.5 670.857
354.5 854.714
355.5 720.429
356.5 792
357.5 663.857
358.5 690
359.5 787.286
360.5 642.286
361.5 729
362.5 770.714
363.5 791.714
364.5 649
365.5 646
366.5 708.286
367.5 641.429
368.5 773.286
369.5 625
370.5 776.571
371.5 696.857
372.5 514.286
373.5 800.143
374.5 652.429
375.5 622.429
376.5 736
377.5 713
378.5 615.571
379.5 601
380.5 540.571
381.5 696.714
382.5 664.571
383.5 817.429
384.5 656
385.5 758.286
386.5 644.571
387.5 809.286
388.5 774.714
389.5 645.429
390.5 858
391.5 778.429
392.5 871.143
393.5 782.143
394.5 658.286
395.5 642.143
396.5 677.714
397.5 455.286
398.5 641.143
399.5 569.714
400.5 645.286
401.5 536.571
402.5 795.143
403.5 2235.86
404.5 2115.86
405.5 999.143
406.5 436.571
407.5 536.286
408.5 480.857
409.5 405.857
410.5 450
411.5 393
412.5 455.714
413.5 328.714
414.5 360.857
415.5 560.571
416.5 660.429
417.5 649.143
418.5 652
419.5 591.143
420.5 496.286
421.5 559
422.5 822.143
423.5 423.714
424.5 533.429
425.5 475.714
426.5 578.857
427.5 644.143
428.5 550
429.5 466.143
430.5 676
431.5 509.286
432.5 721.429
433.5 884
434.5 648.714
435.5 643
436.5 628.429
437.5 563.714
438.5 654.429
439.5 757.571
440.5 693
441.5 650.143
442.5 826.286
443.5 704.857
444.5 783.857
445.5 690.714
446.5 828.286
447.5 715.857
448.5 627
449.5 570.286
450.5 806.143
451.5 648.143
452.5 641.714
453.5 453.857
454.5 708
455.5 452.714
456.5 583.714
457.5 433.857
458.5 508.714
459.5 596.429
460.5 654.571
461.5 403.286
462.5 538.143
463.5 618.571
464.5 449.571
465.5 666.571
466.5 585.286
467.5 555.286
468.5 553.143
469.5 419
470.5 468.143
471.5 584.714
472.5 405
473.5 595.429
474.5 463.286
475.5 636.286
476.5 364
477.5 763.857
478.5 700.143
479.5 714
480.5 564.857
481.5 653.143
482.5 634.286
483.5 666.143
484.5 489.286
485.5 482.857
486.5 649.286
487.5 461
488.5 673
489.5 551
490.5 562.571
491.5 525.286
492.5 433.286
493.5 415.571
494.5 230.714
495.5 47.2858
496.5 157.429
497.5 276.286
498.5 390.714
499.5 282.714
500.5 503.714
501.5 604.571
502.5 627.143
503.5 432.286
504.5 499.571
505.5 395.857
506.5 632.571
507.5 1065.86
508.5 2610.86
509.5 5257.71
510.5 6078.86
511.5 5115.57
512.5 2935.43
513.5 1523
514.5 869.286
515.5 730.286
516.5 782.857
517.5 557.714
518.5 634.571
519.5 544.143
520.5 683.143
521.5 497
522.5 503.857
523.5 431.286
524.5 503.429
525.5 511
526.5 436.429
527.5 474.571
528.5 393
529.5 653.571
530.5 609.857
531.5 768.857
532.5 720.429
533.5 826.571
534.5 832.143
535.5 786
536.5 779.571
537.5 668.143
538.5 638.286
539.5 531.143
540.5 544.286
541.5 393.429
542.5 459.143
543.5 385.143
544.5 423.143
545.5 472.571
546.5 441
547.5 485.714
548.5 555
549.5 497.714
550.5 566.714
551.5 546.429
552.5 400.571
553.5 529.143
554.5 295
555.5 331.429
556.5 376.286
557.5 423.429
558.5 470.714
559.5 507
560.5 484.714
561.5 435.857
562.5 463.429
563.5 517.429
564.5 460.143
565.5 489.571
566.5 508.571
567.5 601.857
568.5 448.143
569.5 488.857
570.5 465.143
571.5 499.286
572.5 462.857
573.5 400.857
574.5 401
575.5 442.714
576.5 482
577.5 467.429
578.5 405.857
579.5 515.429
580.5 368.286
581.5 398.571
582.5 215.143
583.5 336
584.5 200.286
585.5 317.714
586.5 432.571
587.5 566.714
588.5 389.286
589.5 422.286
590.5 467.143
591.5 527.571
592.5 364.286
593.5 289.714
594.5 297
595.5 129.429
596.5 237.571
597.5 191.857
598.5 335.857
599.5 413.143
600.5 324
601.5 296
602.5 371.571
603.5 381.286
604.5 452.714
605.5 439.429
606.5 459.571
607.5 461.286
608.5 530.286
609.5 410.429
610.5 292.714
611.5 392.714
612.5 476.571
613.5 321
614.5 462
615.5 465.143
616.5 408.857
617.5 467.857
618.5 443.286
619.5 505.143
620.5 456.571
621.5 579.286
622.5 477
623.5 384.571
624.5 514.286
625.5 432.286
626.5 505.429
627.5 549.143
628.5 583.857
629.5 616.143
630.5 565.571
631.5 529.857
632.5 502.714
633.5 501.857
634.5 629
635.5 974.857
636.5 2741
637.5 4318.29
638.5 2829
639.5 996
640.5 503
641.5 333.714
642.5 328.857
643.5 417.286
644.5 317.143
645.5 296
646.5 409.857
647.5 486.286
648.5 338.571
649.5 409.429
650.5 736.286
651.5 720.286
652.5 1035.57
653.5 1295.86
654.5 882
655.5 697
656.5 507.857
657.5 255
658.5 492.571
659.5 438.286
660.5 385.571
661.5 342.857
662.5 372.857
663.5 199.286
664.5 -285.429
665.5 -443.143
666.5 119.571
667.5 337.143
668.5 564.571
669.5 386.714
670.5 503
671.5 483.571
672.5 611.714
673.5 492.143
674.5 552.857
675.5 410.714
676.5 480.286
677.5 351.143
678.5 448.714
679.5 340.857
680.5 391.571
681.5 388.857
682.5 421
683.5 408
684.5 380.571
685.5 471.143
686.5 506.143
687.5 545.714
688.5 430.714
689.5 388
690.5 358.571
691.5 388.571
692.5 401.857
693.5 380.857
694.5 493.143
695.5 284.143
696.5 383.143
697.5 356.429
698.5 349.286
699.5 311.714
700.5 276.429
701.5 433.857
702.5 550.429
703.5 622.714
704.5 498.571
705.5 416.429
706.5 430.429
707.5 398.571
708.5 376
709.5 261.286
710.5 488.571
711.5 368.714
712.5 491.714
713.5 503.286
714.5 376.714
715.5 451.286
716.5 398.143
717.5 397.143
718.5 464.429
719.5 410.143
720.5 444.429
721.5 290.143
722.5 457.571
723.5 425.286
724.5 383
725.5 396.429
726.5 405.429
727.5 296
728.5 413.571
729.5 318
730.5 428.571
731.5 422.143
732.5 517
733.5 518.286
734.5 487.714
735.5 430.714
736.5 523.857
737.5 609.286
738.5 526.714
739.5 642.429
740.5 551.143
741.5 641.286
742.5 484.429
743.5 434.714
744.5 488.143
745.5 403.714
746.5 240.143
747.5 331.286
748.5 365.571
749.5 352
750.5 413.143
751.5 393.286
752.5 413.429
753.5 413.857
754.5 410.286
755.5 482.143
756.5 466.429
757.5 475
758.5 562.714
759.5 2100.86
760.5 5254.86
761.5 5832.29
762.5 2725.57
763.5 961.286
764.5 606.286
765.5 575
766.5 363
767.5 465
768.5 391.714
769.5 494.143
770.5 312.286
771.5 436
772.5 357.571
773.5 439
774.5 377.143
775.5 306.714
776.5 460.571
777.5 449.714
778.5 444.143
779.5 458.714
780.5 328.714
781.5 507.571
782.5 353.714
783.5 454.429
784.5 389.286
785.5 498.429
786.5 231.143
787.5 -464.286
788.5 -808.143
789.5 -307.286
790.5 255.286
791.5 452.857
792.5 398.857
793.5 453.286
794.5 503.286
795.5 282.857
796.5 354.143
797.5 405.714
798.5 410.143
799.5 460
800.5 440
801.5 440.714
802.5 407.714
803.5 445.286
804.5 453.857
805.5 340.571
806.5 556.429
807.5 526.429
808.5 415
809.5 373.714
810.5 477.857
811.5 434.429
812.5 397.429
813.5 393.286
814.5 361.857
815.5 590.714
816.5 547.714
817.5 493
818.5 515.429
819.5 573.714
820.5 409.286
821.5 494
822.5 572.429
823.5 387
824.5 376.429
825.5 585
826.5 474.286
827.5 417.571
828.5 433.571
829.5 418
830.5 547.429
831.5 560.714
832.5 344.143
833.5 459.143
834.5 454.429
835.5 477.857
836.5 414
837.5 470.714
838.5 340.571
839.5 363.714
840.5 433.857
841.5 481.286
842.5 494.571
843.5 375.857
844.5 349.857
845.5 492.286
846.5 565.429
847.5 346.286
848.5 426.143
849.5 507.429
850.5 461.429
851.5 523.714
852.5 347
853.5 384.857
854.5 364.143
855.5 324.286
856.5 537.714
857.5 627.571
858.5 563.857
859.5 554.571
860.5 526.429
861.5 470.571
862.5 511.286
863.5 451.429
864.5 487.714
865.5 542.143
866.5 408.571
867.5 388.714
868.5 364.571
869.5 355.571
870.5 613.571
871.5 409.143
872.5 451.857
873.5 483.286
874.5 441
875.5 587.857
876.5 1361.57
877.5 2909.29
878.5 3288.57
879.5 1707.86
880.5 646.714
881.5 560.714
882.5 438.429
883.5 513.143
884.5 479
885.5 571
886.5 552.857
887.5 630.143
888.5 524.143
889.5 384.714
890.5 507
891.5 401.429
892.5 520.143
893.5 518.571
894.5 540
895.5 475.714
896.5 590.714
897.5 466.143
898.5 548.143
899.5 552.571
900.5 605.571
901.5 587.143
902.5 616
903.5 530.714
904.5 565.571
905.5 576.429
906.5 590
907.5 587.714
908.5 482.429
909.5 540.571
910.5 456.286
911.5 503.143
912.5 450.143
913.5 456
914.5 571.429
915.5 580.286
916.5 450
917.5 578.571
918.5 483
919.5 428
920.5 518.429
921.5 325
922.5 533
923.5 466.143
924.5 540.571
925.5 459.429
926.5 408
927.5 578.857
928.5 418.714
929.5 502
930.5 552.286
931.5 439.571
932.5 535.714
933.5 615.714
934.5 523
935.5 586.714
936.5 428.714
937.5 632.714
938.5 477.429
939.5 527.714
940.5 649.429
941.5 608.857
942.5 646.571
943.5 549
944.5 560.286
945.5 533.143
946.5 418.571
947.5 483.571
948.5 523.857
949.5 417.143
950.5 337.286
951.5 441.143
952.5 383.571
953.5 424.857
954.5 374.571
955.5 281.571
956.5 336.714
957.5 470
958.5 489.714
959.5 476.143
960.5 445.857
961.5 400.714
962.5 485
963.5 499.143
964.5 1117.71
965.5 2451.43
966.5 3715.43
967.5 2639.71
968.5 1069.71
969.5 533.143
970.5 386.571
971.5 403.857
972.5 393.143
973.5 294.714
974.5 440.429
975.5 269.571
976.5 341.571
977.5 355.143
978.5 389.714
979.5 424
980.5 359.714
981.5 456.571
982.5 323.429
983.5 253.714
984.5 265
985.5 311
986.5 248.714
987.5 294.286
988.5 292.571
989.5 360.857
990.5 297.429
991.5 290.429
992.5 304.143
993.5 212.714
994.5 367.857
995.5 185.286
996.5 363.143
997.5 246
998.5 368.714
999.5 589.429
1000.5 1348.29
1001.5 2549.57
1002.5 2544.57
1003.5 1070.14
1004.5 629.714
1005.5 345.714
1006.5 314.857
1007.5 324.429
1008.5 303.286
1009.5 327.857
1010.5 246.143
1011.5 280
1012.5 199.571
1013.5 252.571
1014.5 252.429
1015.5 258.286
1016.5 303.429
1017.5 251.857
1018.5 286.571
1019.5 349
1020.5 205.143
1021.5 379.857
1022.5 325.429
1023.5 615.571
1024.5 785.143
1025.5 727.857
1026.5 306.714
1027.5 314.857
1028.5 261.286
1029.5 245.714
1030.5 321.714
1031.5 277.571
1032.5 139.429
1033.5 158.571
1034.5 278.429
1035.5 274.857
1036.5 330.286
1037.5 307.857
1038.5 268.143
1039.5 147.714
1040.5 235
1041.5 354.143
1042.5 314.571
1043.5 279.143
1044.5 226.857
1045.5 319.429
1046.5 227.571
1047.5 170.429
1048.5 170.857
1049.5 223.429
1050.5 392
1051.5 334.429
1052.5 268.429
1053.5 374.571
1054.5 287
1055.5 115
1056.5 194.143
1057.5 163
1058.5 265
1059.5 189.714
1060.5 151
1061.5 188.286
1062.5 139.857
1063.5 165
1064.5 280.571
1065.5 249
1066.5 167
1067.5 254.571
1068.5 236.714
1069.5 183
1070.5 276.857
1071.5 514.571
1072.5 1510.86
1073.5 3349
1074.5 4070.14
1075.5 2128.86
1076.5 541.571
1077.5 282.429
1078.5 165
1079.5 193.857
1080.5 209.143
1081.5 198.286
1082.5 193.571
1083.5 183.429
1084.5 197.857
1085.5 126.714
1086.5 267.286
1087.5 190
1088.5 128.857
1089.5 295.143
1090.5 294.143
1091.5 320.429
1092.5 251.571
1093.5 188.143
1094.5 155
1095.5 134
1096.5 186.571
1097.5 152
1098.5 182.286
1099.5 177.571
1100.5 57.8572
1101.5 120
1102.5 215.714
1103.5 202
1104.5 191.857
1105.5 163.857
1106.5 228.714
1107.5 211.857
1108.5 161.286
1109.5 225.429
1110.5 269.857
1111.5 93.7143
1112.5 236.571
1113.5 311
1114.5 165.571
1115.5 143.857
1116.5 185
1117.5 203.429
1118.5 187.857
1119.5 211.714
1120.5 174.429
1121.5 184.286
1122.5 592.143
1123.5 1324.71
1124.5 5229.43
1125.5 12061
1126.5 13374.1
1127.5 6386.29
1128.5 1542.29
1129.5 475
1130.5 179.714
1131.5 192.143
1132.5 132.143
1133.5 151.286
1134.5 80.1429
1135.5 169
1136.5 142.714
1137.5 180.571
1138.5 216.286
1139.5 222.714
1140.5 205
1141.5 153.857
1142.5 207.857
1143.5 170
1144.5 114.143
1145.5 110.857
1146.5 220.571
1147.5 218.429
1148.5 253.143
1149.5 114.571
1150.5 223.429
1151.5 167.143
1152.5 218.857
1153.5 650.429
1154.5 2329.29
1155.5 9335.86
1156.5 19931
1157.5 21013.9
1158.5 8861.14
1159.5 1838.29
1160.5 409.857
1161.5 212.286
1162.5 152.429
1163.5 60.8572
1164.5 115.286
1165.5 277.857
1166.5 175.286
1167.5 96.4286
1168.5 71
1169.5 65.8572
1170.5 95.2857
1171.5 78.8572
1172.5 98.4286
1173.5 147
1174.5 40.1429
1175.5 48.8572
1176.5 204.286
1177.5 119.286
1178.5 164.429
1179.5 143.429
1180.5 72.5714
1181.5 57.5714
1182.5 90.5714
1183.5 171.571
1184.5 43.4286
1185.5 58.8572
1186.5 143.429
1187.5 164.143
1188.5 129.571
1189.5 170.286
1190.5 48
1191.5 88.7143
1192.5 174.286
1193.5 101.571
1194.5 123
1195.5 21
1196.5 86.8572
1197.5 129.857
1198.5 80.5714
1199.5 93.4286
1200.5 97.7143
1201.5 93.8572
1202.5 99.5714
1203.5 45.5714
1204.5 123.857
1205.5 81.7143
1206.5 77.5714
1207.5 93.4286
1208.5 139.286
1209.5 38.4286
1210.5 162.143
1211.5 60.8572
1212.5 96.2857
1213.5 99.7143
1214.5 149.429
1215.5 149.714
1216.5 146.143
1217.5 196.429
1218.5 83.8572
1219.5 21.4286
1220.5 183.143
1221.5 123.857
1222.5 117.143
1223.5 135.571
1224.5 123.143
1225.5 116.429
1226.5 121.429
1227.5 104.286
1228.5 145.286
1229.5 88.5714
1230.5 49.2857
1231.5 73.7143
1232.5 137.143
1233.5 97.7143
1234.5 49.1429
1235.5 68.7143
1236.5 135.429
1237.5 126.143
1238.5 62.4286
1239.5 111
1240.5 139.714
1241.5 90.1429
1242.5 104.714
1243.5 76.2857
1244.5 40.1429
1245.5 134
1246.5 55
1247.5 75.4286
1248.5 104.857
1249.5 109.286
1250.5 141.571
1251.5 152
1252.5 106
1253.5 29.5714
1254.5 191.429
1255.5 44.4286
1256.5 110.429
1257.5 178
1258.5 365.286
1259.5 795.714
1260.5 1146
1261.5 778.857
1262.5 321.571
1263.5 163.143
1264.5 93.2857
1265.5 172.714
1266.5 247.429
1267.5 271.714
1268.5 171.571
1269.5 46.7143
1270.5 125.429
1271.5 142.286
1272.5 108.286
1273.5 76.7143
1274.5 101.286
1275.5 201.143
1276.5 116.857
1277.5 153
1278.5 75.8572
1279.5 127.286
1280.5 63
1281.5 115.571
1282.5 130.429
1283.5 99.5714
1284.5 56.4286
1285.5 66.1429
1286.5 130.286
1287.5 82.8571
1288.5 148.143
1289.5 120.714
1290.5 81
1291.5 87
1292.5 64.1429
1293.5 100
1294.5 119
1295.5 87.7143
1296.5 62.5714
1297.5 85.8572
1298.5 72
1299.5 77.1429
1300.5 122.143
1301.5 133.286
1302.5 70.2857
1303.5 120.857
1304.5 163.429
1305.5 73.4286
1306.5 108.857
1307.5 66.8572
1308.5 -33.2857
1309.5 100.143
1310.5 76
1311.5 115.143
1312.5 106.286
1313.5 132.143
1314.5 110.714
1315.5 131.857
1316.5 91.4286
1317.5 130
1318.5 97.1429
1319.5 114
1320.5 91
1321.5 159.286
1322.5 103.857
1323.5 81
1324.5 135
1325.5 189.286
1326.5 63.5714
1327.5 85.4286
1328.5 84.4286
1329.5 75.7143
1330.5 70.7143
1331.5 80.2857
1332.5 40.4286
1333.5 111.714
1334.5 60.5714
1335.5 15.1429
1336.5 96.4286
1337.5 51
1338.5 32.7143
1339.5 98.8571
1340.5 166.571
1341.5 92.1429
1342.5 77.7143
1343.5 119.429
1344.5 71.2857
1345.5 89.5714
1346.5 69.2857
1347.5 94.5714
1348.5 46.2857
1349.5 112.143
1350.5 84.5714
1351.5 66.1429
1352.5 89.5714
1353.5 98.8572
1354.5 69.7143
1355.5 63.2857
1356.5 100.857
1357.5 151.429
1358.5 63.2857
1359.5 54.2857
1360.5 35.2857
1361.5 61.8571
1362.5 7.71429
1363.5 85.1429
1364.5 70.5714
1365.5 99.1429
1366.5 122.429
1367.5 137
1368.5 115.857
1369.5 137.429
1370.5 46.4286
1371.5 74
1372.5 121.714
1373.5 116.857
1374.5 174.571
1375.5 67.2857
1376.5 155.286
1377.5 138
1378.5 188.286
1379.5 151.143
1380.5 115.571
1381.5 75.1429
1382.5 108.571
1383.5 151
1384.5 144.571
1385.5 144.714
1386.5 120.286
1387.5 68.4286
1388.5 114.571
1389.5 115.286
1390.5 128.857
1391.5 118.714
1392.5 86.7143
1393.5 73.2857
1394.5 84
1395.5 108.286
1396.5 69.1429
1397.5 126
1398.5 48.7143
1399.5 86.5714
1400.5 182
1401.5 78.2857
1402.5 54.8571
1403.5 98.5714
1404.5 119.286
1405.5 92.4286
1406.5 62.8571
1407.5 102.286
1408.5 16.1429
1409.5 111.286
1410.5 54.2857
1411.5 127.857
1412.5 84.1429
1413.5 83.5714
1414.5 86.8571
1415.5 87.1429
1416.5 90.4286
1417.5 108
1418.5 83.4286
1419.5 103.143
1420.5 77.8572
1421.5 99.1429
1422.5 41
1423.5 74.5714
1424.5 71.2857
1425.5 44.5714
1426.5 139.857
1427.5 265.714
1428.5 449.857
1429.5 348.286
1430.5 170.714
1431.5 53.8572
1432.5 208.143
1433.5 324
1434.5 522.429
1435.5 492.857
1436.5 157.714
1437.5 131.857
1438.5 119.143
1439.5 136.286
1440.5 142.714
1441.5 29.2857
1442.5 98.1429
1443.5 71.5714
1444.5 131.429
1445.5 101.714
1446.5 102.714
1447.5 72.2857
1448.5 144.714
1449.5 26.7143
1450.5 221.143
1451.5 107
1452.5 46.5714
1453.5 78.8571
1454.5 111
1455.5 132.714
1456.5 91
1457.5 134.143
1458.5 24.4286
1459.5 129
1460.5 127.143
1461.5 138.714
1462.5 71.4286
1463.5 19.7143
1464.5 89
1465.5 82.7143
1466.5 142.143
1467.5 77.2857
1468.5 120.143
1469.5 46.8571
1470.5 117.714
1471.5 76
1472.5 70
1473.5 87.5714
1474.5 88.4286
1475.5 29.2857
1476.5 74.5714
1477.5 74.7143
1478.5 62.2857
1479.5 95
1480.5 89
1481.5 85.7143
1482.5 159.286
1483.5 16.1429
1484.5 109.286
1485.5 114.857
1486.5 42.5714
1487.5 123.714
1488.5 58.1429
1489.5 108.857
1490.5 79
1491.5 118.429
1492.5 101.143
1493.5 11.5714
1494.5 98.1429
1495.5 28.5714
1496.5 145
1497.5 223.714
1498.5 382.857
1499.5 636
1500.5 400.857
1501.5 226.143
1502.5 94.5714
1503.5 66.8571
1504.5 92.1429
1505.5 58.7143
1506.5 21.8571
1507.5 146.714
1508.5 75.1429
1509.5 104.857
1510.5 51.8572
1511.5 89
1512.5 106.714
1513.5 51.8571
1514.5 56.8571
1515.5 88.8571
1516.5 70.5714
1517.5 94
1518.5 -9.14285
1519.5 51.7143
1520.5 75.8571
1521.5 14.5714
1522.5 -10.1429
1523.5 119.286
1524.5 66.4286
1525.5 97.2857
1526.5 87.8571
1527.5 90.8571
1528.5 102.286
1529.5 116.286
1530.5 106.571
1531.5 92
1532.5 66.5714
1533.5 81.8571
1534.5 99.7143
1535.5 127.857
1536.5 116.714
1537.5 118.286
1538.5 132.286
1539.5 144.286
1540.5 122
1541.5 53.8572
1542.5 87
1543.5 75.8572
1544.5 96.1429
1545.5 109.429
1546.5 130.571
1547.5 46.8571
1548.5 89.2857
1549.5 158.286
1550.5 154.143
1551.5 80
1552.5 135.571
1553.5 126.571
1554.5 92.1429
1555.5 96.2857
1556.5 103.286
1557.5 -16.8571
1558.5 60.8571
1559.5 64.5714
1560.5 81.4286
1561.5 107.857
1562.5 70.1429
1563.5 89.5714
1564.5 111.714
1565.5 51.8571
1566.5 141.714
1567.5 57.8571
1568.5 67.8571
1569.5 81.8571
1570.5 160.143
1571.5 285.857
1572.5 295
1573.5 233.143
1574.5 165.429
1575.5 138.857
1576.5 147
1577.5 90.4286
1578.5 129.286
1579.5 87.5714
1580.5 140.429
1581.5 155.286
1582.5 105.714
1583.5 53.4286
1584.5 93.7143
1585.5 64.7143
1586.5 83.2857
1587.5 73.2857
1588.5 148.429
1589.5 88.1429
1590.5 117.429
1591.5 84.5714
1592.5 72.4286
1593.5 120.714
1594.5 154.571
1595.5 123.286
1596.5 126.143
1597.5 55.7143
1598.5 72
1599.5 69.8571
1600.5 121.286
1601.5 90
1602.5 106.857
1603.5 118.143
1604.5 169.714
1605.5 90.2857
1606.5 87.5714
1607.5 65.5714
1608.5 32.1429
1609.5 91
1610.5 56
1611.5 51.1429
1612.5 45
1613.5 85.4286
1614.5 68.4286
1615.5 59.5714
1616.5 72.7143
1617.5 62.1429
1618.5 111.571
1619.5 129.143
1620.5 136.286
1621.5 30.4286
1622.5 156.429
1623.5 151.857
1624.5 95.5714
1625.5 68.4286
1626.5 144.143
1627.5 57.2857
1628.5 94
1629.5 24.7143
1630.5 75
1631.5 82.1429
1632.5 140.857
1633.5 136.286
1634.5 137.286
1635.5 97.1429
1636.5 120.143
1637.5 298.571
1638.5 359.143
1639.5 389.714
1640.5 274.286
1641.5 167.571
1642.5 27.1429
1643.5 82.5714
1644.5 82.1429
1645.5 114.429
1646.5 117.429
1647.5 143.286
1648.5 150.143
1649.5 165
1650.5 238.714
1651.5 354.143
1652.5 282.857
1653.5 162.143
1654.5 174.571
1655.5 128.857
1656.5 86.1429
1657.5 97.4286
1658.5 65.8572
1659.5 159.143
1660.5 101
1661.5 69
1662.5 95.8571
1663.5 92.8571
1664.5 61.7143
1665.5 98
1666.5 73.7143
1667.5 83.7143
1668.5 82.8571
1669.5 94.7143
1670.5 124.714
1671.5 64.7143
1672.5 66.2857
1673.5 94.5714
1674.5 112.143
1675.5 120.857
1676.5 91.8571
1677.5 98.5714
1678.5 88.1429
1679.5 52.4286
1680.5 34
1681.5 58
1682.5 27.8571
1683.5 24.4286
1684.5 107.571
1685.5 4.14286
1686.5 12
1687.5 14.8571
1688.5 4.14286
1689.5 83.5714
1690.5 82.4286
1691.5 59.7143
1692.5 171.857
1693.5 108
1694.5 61.2857
1695.5 36.7143
1696.5 96.7143
1697.5 78.1429
1698.5 95
1699.5 58.4286
1700.5 84
1701.5 121.714
1702.5 53.4286
1703.5 70.7143
1704.5 65.5714
1705.5 81.8571
1706.5 117.429
1707.5 106.143
1708.5 77.4286
1709.5 22.8571
1710.5 90.5714
1711.5 58
1712.5 83.5714
1713.5 88.8571
1714.5 66.8571
1715.5 112.286
1716.5 146.571
1717.5 80.2857
1718.5 48.2857
1719.5 107.857
1720.5 118.857
1721.5 51.1429
1722.5 94.7143
1723.5 75.8571
1724.5 161.429
1725.5 197.429
1726.5 564.286
1727.5 772.429
1728.5 618.286
1729.5 279.143
1730.5 134.571
1731.5 109.571
1732.5 59
1733.5 77.2857
1734.5 105.857
1735.5 156.429
1736.5 96.5714
1737.5 96.8571
1738.5 108.714
1739.5 93.2857
1740.5 109.429
1741.5 152
1742.5 159.143
1743.5 113
1744.5 40.8571
1745.5 135.857
1746.5 116.286
1747.5 116.429
1748.5 105.143
1749.5 90.8571
1750.5 97.8571
1751.5 65.8571
1752.5 54.8571
1753.5 -14.5714
1754.5 55.1429
1755.5 49
1756.5 55.4286
1757.5 64.2857
1758.5 82
1759.5 48
1760.5 64.5714
1761.5 64.2857
1762.5 112.286
1763.5 38.2857
1764.5 71.2857
1765.5 145.714
1766.5 51.5714
1767.5 83.5714
1768.5 17.7143
1769.5 35.7143
1770.5 1.14286
1771.5 87
1772.5 28.2857
1773.5 51.4286
1774.5 59.4286
1775.5 -4.57142
1776.5 68.1429
1777.5 3.14286
1778.5 96.5714
1779.5 115
1780.5 42.8571
1781.5 15.7143
1782.5 65.8571
1783.5 120.571
1784.5 57.2857
1785.5 -57
1786.5 -194.286
1787.5 -202.857
1788.5 -112.714
1789.5 -69
1790.5 67
1791.5 35.4286
1792.5 38.7143
1793.5 79
1794.5 16.8571
1795.5 77
1796.5 61.8571
1797.5 82.4286
1798.5 41.7143
1799.5 57.4286
1800.5 75.5714
1801.5 86
1802.5 97.1429
1803.5 88
1804.5 45.8571
1805.5 -0.428566
1806.5 75.8571
1807.5 64.1429
1808.5 44.5714
1809.5 81
1810.5 47.7143
1811.5 43.2857
1812.5 16
1813.5 23.8571
1814.5 53.2857
1815.5 81.8571
1816.5 56.2857
1817.5 72.8571
1818.5 105.429
1819.5 113.143
1820.5 77.1429
1821.5 58.8571
1822.5 2.57143
1823.5 7.14286
1824.5 113.286
1825.5 71.7143
1826.5 109.286
1827.5 64
1828.5 53.8571
1829.5 62
1830.5 64.4286
1831.5 60.7143
1832.5 128.714
1833.5 109.571
1834.5 114.143
1835.5 37
1836.5 35
1837.5 98.4286
1838.5 82.5714
1839.5 98
1840.5 82
1841.5 99.5714
1842.5 34.5714
1843.5 58.2857
1844.5 19.1429
1845.5 21
1846.5 60.8571
1847.5 58.4286
1848.5 36.7143
1849.5 69.5714
1850.5 -7.57142
1851.5 85.7143
1852.5 16.2857
1853.5 43.8571
1854.5 44.4286
1855.5 65.2857
1856.5 75.1429
1857.5 85.2857
1858.5 31.4286
1859.5 67.4286
1860.5 80.5714
1861.5 79.5714
1862.5 25.2857
1863.5 96.7143
1864.5 139.571
1865.5 137.571
1866.5 116.571
1867.5 56.2857
1868.5 4.28572
1869.5 19.7143
1870.5 25.7143
1871.5 -30
1872.5 -12.7143
1873.5 -94.4286
1874.5 -18.7143
1875.5 -14.8571
1876.5 -1.85714
1877.5 98.4286
1878.5 54.8571
1879.5 43.4286
1880.5 78.1429
1881.5 91
1882.5 110.429
1883.5 232.571
1884.5 551.429
1885.5 1231.14
1886.5 2335.57
1887.5 2479.29
1888.5 1212
1889.5 414.571
1890.5 166.286
1891.5 103.286
1892.5 97.8571
1893.5 98.2857
1894.5 90.5714
1895.5 40.8571
1896.5 10.1429
1897.5 68.2857
1898.5 39.7143
1899.5 76.2857
1900.5 61.8571
1901.5 86
1902.5 78.8571
1903.5 91.7143
1904.5 22.4286
1905.5 21
1906.5 88.2857
1907.5 50.5714
1908.5 59
1909.5 31.7143
1910.5 68.1429
1911.5 176
1912.5 97.4286
1913.5 64.1429
1914.5 102.429
1915.5 126.714
1916.5 122.714
1917.5 107.857
1918.5 60.7143
1919.5 79.4286
1920.5 23.8571
1921.5 130.714
1922.5 78
1923.5 69.5714
1924.5 82.1429
1925.5 123.429
1926.5 157.571
1927.5 89.7143
1928.5 81.1429
1929.5 113.143
1930.5 62.4286
1931.5 94.4286
1932.5 110.571
1933.5 63.8571
1934.5 100.857
1935.5 85.4286
1936.5 88.8571
1937.5 102
1938.5 79.8571
1939.5 160.857
1940.5 61
1941.5 173.429
1942.5 192.857
1943.5 155.143
1944.5 106.714
1945.5 102.714
1946.5 40.5714
1947.5 20.1429
1948.5 95.7143
1949.5 97.5714
1950.5 106.857
1951.5 106.286
1952.5 128
1953.5 36.8571
1954.5 63.5714
1955.5 55.5714
1956.5 104.857
1957.5 141
1958.5 219.857
1959.5 147.286
1960.5 134.714
1961.5 77.5714
1962.5 54.8571
1963.5 82.1429
1964.5 48.7143
1965.5 87
1966.5 88.2857
1967.5 86.4286
1968.5 43.2857
1969.5 56.4286
1970.5 57
1971.5 89.4286
1972.5 56.4286
1973.5 43.2857
1974.5 72.8571
1975.5 23.2857
1976.5 34.4286
1977.5 77.4286
1978.5 84.4286
1979.5 59.5714
1980.5 53.2857
1981.5 58.8571
1982.5 21.2857
1983.5 59.4286
1984.5 63.2857
1985.5 81.7143
1986.5 100.143
1987.5 48.4286
1988.5 54.1429
1989.5 66.8571
1990.5 112.143
1991.5 81.4286
1992.5 50.4286
1993.5 -21.4286
1994.5 16.7143
1995.5 -3.42856
1996.5 -27.1429
1997.5 29.7143
1998.5 40.8571
1999.5 55.7143
2000.5 40.8571
2001.5 29.4286
2002.5 27.5714
2003.5 -5.85714
2004.5 55.2857
2005.5 13.4286
2006.5 46
2007.5 96.1429
2008.5 56.4286
2009.5 76.2857
2010.5 -18.1429
2011.5 71.5714
2012.5 -27.7143
2013.5 29.4286
2014.5 111.857
2015.5 42.8571
2016.5 63.7143
2017.5 12
2018.5 25.4286
2019.5 37.5714
2020.5 35
2021.5 63.4286
2022.5 27.2857
2023.5 120.857
2024.5 76.2857
2025.5 36.4286
2026.5 65.7143
2027.5 118.714
2028.5 31
2029.5 79.4286
2030.5 24.2857
2031.5 -3.57142
2032.5 61.4286
2033.5 9.00001
2034.5 40.8571
2035.5 34.4286
2036.5 26.5714
2037.5 74.8571
2038.5 33.5714
2039.5 63.8571
2040.5 7.57143
2041.5 69
2042.5 38.8571
2043.5 88
2044.5 49.2857
2045.5 77.4286
2046.5 53.5714
2047.5 71.4286
2048.5 -16.5714
2049.5 35.2857
2050.5 57.5714
2051.5 37.2857
2052.5 38.5714
2053.5 -30.7143
2054.5 22.1429
2055.5 18.2857
2056.5 44.4286
2057.5 75.2857
2058.5 88.4286
2059.5 25.7143
2060.5 13.4286
2061.5 53
2062.5 69
2063.5 61.5714
2064.5 83.1429
2065.5 59.1429
2066.5 90
2067.5 73.7143
2068.5 62.1429
2069.5 99.5714
2070.5 3.57143
2071.5 60.1429
2072.5 61.2857
2073.5 6.57143
2074.5 79.5714
2075.5 73.8571
2076.5 50.4286
2077.5 47.2857
2078.5 66.7143
2079.5 74.2857
2080.5 104
2081.5 77.8571
2082.5 69.7143
2083.5 82.8571
2084.5 56.4286
2085.5 85.2857
2086.5 79.4286
2087.5 99
2088.5 69.2857
2089.5 129.857
2090.5 46
2091.5 31.8571
2092.5 111
2093.5 84.5714
2094.5 59.8571
2095.5 70.5714
2096.5 35.8571
2097.5 17.8571
2098.5 -36.7143
2099.5 -43.8571
2100.5 16.7143
2101.5 32.8571
2102.5 26.4286
2103.5 40.5714
2104.5 39.1429
2105.5 59.8571
2106.5 112.714
2107.5 109.571
2108.5 55.2857
2109.5 35.5714
2110.5 44.7143
2111.5 53.5714
2112.5 109.143
2113.5 65.5714
2114.5 98.8571
2115.5 128.857
2116.5 99.4286
2117.5 45.1429
2118.5 21.1429
2119.5 62.4286
2120.5 -26.2857
2121.5 51.7143
2122.5 63.1429
2123.5 5.71429
2124.5 78.5714
2125.5 43.1429
2126.5 34.2857
2127.5 5.57143
2128.5 36.2857
2129.5 19.4286
2130.5 13.7143
2131.5 40.8571
2132.5 65.4286
2133.5 34.4286
2134.5 41.5714
2135.5 32
2136.5 24.2857
2137.5 51.1429
2138.5 34.5714
2139.5 111.286
2140.5 69.7143
2141.5 -12.7143
2142.5 24.7143
2143.5 55.8572
2144.5 76.8572
2145.5 81.7143
2146.5 114.143
2147.5 202.429
2148.5 342.714
2149.5 558.143
2150.5 812.286
2151.5 625.429
2152.5 197.571
2153.5 113.286
2154.5 115.143
2155.5 32.5714
2156.5 35
2157.5 66.5714
2158.5 33
2159.5 14.7143
2160.5 28
2161.5 36.8571
2162.5 62.1429
2163.5 18.4286
2164.5 60.8571
2165.5 104.429
2166.5 109.286
2167.5 119.143
2168.5 -15.4286
2169.5 45
2170.5 35.4286
2171.5 53.7143
2172.5 80.7143
2173.5 97.1429
2174.5 31
2175.5 40.1429
2176.5 66.1429
2177.5 31.1429
2178.5 45.7143
2179.5 73
2180.5 73.4286
2181.5 -23.1429
2182.5 48.5714
2183.5 -10.5714
2184.5 38.5714
2185.5 18
2186.5 73.1429
2187.5 11.8571
2188.5 35.1429
2189.5 22.7143
2190.5 53.8571
2191.5 82.1429
2192.5 130
2193.5 58.5714
2194.5 -24.1429
2195.5 19
2196.5 49.5714
2197.5 92.7143
2198.5 250.714
2199.5 316.857
2200.5 351
2201.5 249.571
2202.5 100.286
2203.5 27.7143
2204.5 37.1429
2205.5 61.5714
2206.5 55.8571
2207.5 42.2857
2208.5 1.14286
2209.5 58
2210.5 45.2857
2211.5 15.7143
2212.5 -14.1429
2213.5 38.2857
2214.5 43.8571
2215.5 34
2216.5 40.4286
2217.5 11.1429
2218.5 92.8571
2219.5 42.7143
2220.5 72.1429
2221.5 145.571
2222.5 97.7143
2223.5 189
2224.5 90.1429
2225.5 102.143
2226.5 60.1429
2227.5 94.8571
2228.5 122.714
2229.5 79.4286
2230.5 49.5714
2231.5 50.2857
2232.5 48.2857
2233.5 4.28572
2234.5 54.7143
2235.5 47.7143
2236.5 36.7143
2237.5 13.2857
2238.5 54.8571
2239.5 13.5714
2240.5 42.7143
2241.5 3.28572
2242.5 52.4286
2243.5 40
2244.5 80.1429
2245.5 36.1429
2246.5 64.7143
2247.5 55.8571
2248.5 96.4286
2249.5 87.4286
2250.5 11.4286
2251.5 73.7143
2252.5 37.1429
2253.5 60
2254.5 97.2857
2255.5 40.1429
2256.5 18.1429
2257.5 30.1429
2258.5 56.2857
2259.5 26.4286
2260.5 9.85715
2261.5 31
2262.5 22.4286
2263.5 51.7143
2264.5 62.4286
2265.5 56
2266.5 26.5714
2267.5 30
2268.5 65.7143
2269.5 18.7143
2270.5 36.5714
2271.5 29.8571
2272.5 58.4286
2273.5 44.1429
2274.5 40.5714
2275.5 82.1429
2276.5 92
2277.5 38
2278.5 96.7143
2279.5 86
2280.5 79
2281.5 89
2282.5 61.8571
2283.5 124.143
2284.5 66.7143
2285.5 24.2857
2286.5 62.2857
2287.5 14.2857
2288.5 46.7143
2289.5 112.429
2290.5 65.8571
2291.5 38.8571
2292.5 59.1429
2293.5 10.5714
2294.5 -0.714282
2295.5 30.8571
2296.5 -6.14285
2297.5 103.143
2298.5 91
2299.5 112.429
2300.5 47
2301.5 16
2302.5 36.2857
2303.5 88.7143
2304.5 55.1429
2305.5 8.42857
2306.5 39.8571
2307.5 28.2857
2308.5 -7.85714
2309.5 47.8571
2310.5 5.71429
2311.5 28
2312.5 24.8571
2313.5 38.7143
2314.5 46.1429
2315.5 15.5714
2316.5 26.7143
2317.5 60.4286
2318.5 55.5714
2319.5 29.8571
2320.5 22.1429
2321.5 1.28572
2322.5 57.2857
2323.5 81.1429
2324.5 23.4286
2325.5 5.28572
2326.5 91
2327.5 91.4286
2328.5 14.1429
2329.5 38.5714
2330.5 58.8571
2331.5 47
2332.5 71.7143
2333.5 67.7143
2334.5 108.143
2335.5 66.2857
2336.5 64
2337.5 99
2338.5 31.5714
2339.5 9.57143
2340.5 14.7143
2341.5 41.7143
2342.5 64.5714
2343.5 24.2857
2344.5 32.5714
2345.5 2.42858
2346.5 47.4286
2347.5 9.42858
2348.5 0.285718
2349.5 89.4286
2350.5 30.7143
2351.5 24.7143
2352.5 17.4286
2353.5 55.2857
2354.5 40.2857
2355.5 28.4286
2356.5 36.7143
2357.5 62.1429
2358.5 18.5714
2359.5 52.2857
2360.5 57.5714
2361.5 -8.14285
2362.5 64
2363.5 5.28572
2364.5 47.2857
2365.5 66.4286
2366.5 27.1429
2367.5 31
2368.5 19.1429
2369.5 41.7143
2370.5 27.1429
2371.5 45.7143
2372.5 0.571432
2373.5 35.2857
2374.5 26.2857
2375.5 50.7143
2376.5 43.8571
2377.5 93.8571
2378.5 94.4286
2379.5 27.4286
2380.5 57.7143
2381.5 64.5714
2382.5 30.1429
2383.5 59.1429
2384.5 51.7143
2385.5 47.4286
2386.5 36.8571
2387.5 22.2857
2388.5 13.4286
2389.5 44.4286
2390.5 33
2391.5 20.4286
2392.5 46.8571
2393.5 61.8571
2394.5 46.2857
2395.5 -1.57142
2396.5 -3.14285
2397.5 58.5714
2398.5 48.2857
2399.5 31.4286
2400.5 9.14286
2401.5 57.8571
2402.5 55.5714
2403.5 20.7143
2404.5 19.1429
2405.5 50.2857
2406.5 24.4286
2407.5 60.7143
2408.5 26.4286
2409.5 -9.57142
2410.5 -4.28571
2411.5 79
2412.5 23.7143
2413.5 64.7143
2414.5 31.5714
2415.5 35.1429
2416.5 33.4286
2417.5 19
2418.5 62.4286
2419.5 35.8571
2420.5 65
2421.5 91.4286
2422.5 2.85715
2423.5 39.7143
2424.5 -11.2857
2425.5 48.4286
2426.5 84.7143
2427.5 28.1429
2428.5 39.8571
2429.5 49.1429
2430.5 6.42858
2431.5 22.5714
2432.5 -16
2433.5 51
2434.5 32.5714
2435.5 56.2857
2436.5 1.28572
2437.5 11.5714
2438.5 40.5714
2439.5 27.7143
2440.5 31.5714
2441.5 23.5714
2442.5 46.5714
2443.5 35.1429
2444.5 23
2445.5 26.2857
2446.5 82.4286
2447.5 69.8571
2448.5 60.8571
2449.5 38.5714
2450.5 66.7143
2451.5 67
2452.5 42.8571
2453.5 61.2857
2454.5 53.5714
2455.5 -16.7143
2456.5 95.7143
2457.5 32
2458.5 6
2459.5 98.2857
2460.5 53.2857
2461.5 33.1429
2462.5 48.1429
2463.5 23.4286
2464.5 24.8571
2465.5 58
2466.5 27.8571
2467.5 48
2468.5 35.7143
2469.5 44
2470.5 95.7143
2471.5 79.2857
2472.5 -11
2473.5 109.429
2474.5 36
2475.5 70.2857
2476.5 72.2857
2477.5 34
2478.5 37.4286
2479.5 61.1429
2480.5 100
2481.5 19
2482.5 5.28572
2483.5 -8.28571
2484.5 34.5714
2485.5 -14.8571
2486.5 21.7143
2487.5 36.4286
2488.5 21
2489.5 6.85715
2490.5 5.28572
2491.5 32.7143
2492.5 74.2857
2493.5 53
2494.5 73.1429
2495.5 44.4286
2496.5 103.571
2497.5 60.8571
2498.5 32.8571
2499.5 43.2857
2500.5 22.1429
2501.5 -3.71428
2502.5 -9.14285
2503.5 58.4286
2504.5 42.7143
2505.5 9.28572
2506.5 5.71429
2507.5 65.4286
2508.5 66.1429
2509.5 -17.5714
2510.5 4.42858
2511.5 2.28572
2512.5 22.8571
2513.5 55.1429
2514.5 6
2515.5 0.71429
2516.5 18.1429
2517.5 -34.2857
2518.5 71.1429
2519.5 -35
2520.5 68.1429
2521.5 14.1429
2522.5 57.2857
2523.5 33.5714
2524.5 44.7143
2525.5 14
2526.5 63.7143
2527.5 25.5714
2528.5 52
2529.5 45
2530.5 49.4286
2531.5 30.2857
2532.5 53.7143
2533.5 11
2534.5 47
2535.5 43.5714
2536.5 34.8571
2537.5 70.5714
2538.5 71.2857
2539.5 50.1429
2540.5 80
2541.5 17.1429
2542.5 55.2857
2543.5 20
2544.5 -9.57143
2545.5 54.2857
2546.5 33.5714
2547.5 92.5714
2548.5 52.4286
2549.5 33.5714
2550.5 54.1429
2551.5 53
2552.5 82.8571
2553.5 69.8571
2554.5 58.1429
2555.5 41.5714
2556.5 8.57143
2557.5 42.1429
2558.5 31.1429
2559.5 23.5714
2560.5 -26
2561.5 29
2562.5 45
2563.5 23.1429
2564.5 14.4286
2565.5 -4.71428
2566.5 44
2567.5 102.286
2568.5 37.7143
2569.5 30.5714
2570.5 39
2571.5 37.5714
2572.5 24.2857
2573.5 51.4286
2574.5 64.7143
2575.5 64.1429
2576.5 64.4286
2577.5 5.42858
2578.5 54.8571
2579.5 14
2580.5 82.7143
2581.5 32.8571
2582.5 74.2857
2583.5 67.5714
2584.5 112.857
2585.5 72.7143
2586.5 67.5714
2587.5 50.5714
2588.5 25
2589.5 51.1429
2590.5 31.4286
2591.5 -8.57143
2592.5 -5.57143
2593.5 9.85715
2594.5 20.7143
2595.5 15.7143
2596.5 63
2597.5 7.57143
2598.5 -8.71428
2599.5 19.7143
2600.5 50.2857
2601.5 -26.8571
2602.5 77.5714
2603.5 60.5714
2604.5 19.4286
2605.5 82.2857
2606.5 -1.42857
2607.5 32.8571
2608.5 65
2609.5 54.8571
2610.5 12.5714
2611.5 56.7143
2612.5 14.5714
2613.5 22
2614.5 53.5714
2615.5 42.7143
2616.5 11.4286
2617.5 19.7143
2618.5 10.1429
2619.5 35.8571
2620.5 66.7143
2621.5 4
2622.5 21.4286
2623.5 -4.14285
2624.5 25.7143
2625.5 43.4286
2626.5 20.8571
2627.5 35.5714
2628.5 35
2629.5 43.8571
2630.5 28
2631.5 38.5714
2632.5 39
2633.5 40.5714
2634.5 24.2857
2635.5 4.57143
2636.5 45
2637.5 60.4286
2638.5 38.2857
2639.5 0.857146
2640.5 51.1429
2641.5 -10.1429
2642.5 42.5714
2643.5 39.1429
2644.5 40.4286
2645.5 54
2646.5 -4.28571
2647.5 23.8571
2648.5 45.4286
2649.5 23.1429
2650.5 78.7143
2651.5 41.2857
2652.5 38.8571
2653.5 33.1429
2654.5 29.1429
2655.5 40.5714
2656.5 64.7143
2657.5 -19.2857
2658.5 42.7143
2659.5 13.5714
2660.5 30
2661.5 46.4286
2662.5 51.8571
2663.5 32.1429
2664.5 12.5714
2665.5 26.5714
2666.5 48.2857
2667.5 65.8571
2668.5 68.1429
2669.5 28.8571
2670.5 20.8571
2671.5 57.7143
2672.5 32.5714
2673.5 3.57628e-06
2674.5 67.1429
2675.5 62.2857
2676.5 71.1429
2677.5 39.4286
2678.5 29.2857
2679.5 38.8571
2680.5 40.7143
2681.5 24.8571
2682.5 64.5714
2683.5 7.57143
2684.5 -5.71428
2685.5 36
2686.5 31.2857
2687.5 35.5714
2688.5 -0.285711
2689.5 10.2857
2690.5 57.4286
2691.5 41.4286
2692.5 5
2693.5 51
2694.5 -20.2857
2695.5 16.4286
2696.5 46.5714
2697.5 11.5714
2698.5 73.5714
2699.5 7.42857
2700.5 24.2857
2701.5 36.8571
2702.5 46.2857
2703.5 28.7143
2704.5 79.4286
2705.5 3.14286
2706.5 67.2857
2707.5 34.8571
2708.5 44.1429
2709.5 25
2710.5 -5.71428
2711.5 31.7143
2712.5 2.71429
2713.5 41.5714
2714.5 37.4286
2715.5 -14.2857
2716.5 17.7143
2717.5 47.7143
2718.5 0.285718
2719.5 67.4286
2720.5 41.5714
2721.5 48.1429
2722.5 38
2723.5 27.1429
2724.5 40.2857
2725.5 102
2726.5 11.5714
2727.5 17.4286
2728.5 14.2857
2729.5 55.1429
2730.5 46.5714
2731.5 77.8571
2732.5 13.1429
2733.5 48.5714
2734.5 38.5714
2735.5 50.4286
2736.5 30.1429
2737.5 -4
2738.5 -2.85714
2739.5 27.8571
2740.5 35.5714
2741.5 21.4286
2742.5 37.1429
2743.5 -7.85714
2744.5 11.5714
2745.5 39.8571
2746.5 12.4286
2747.5 43.4286
2748.5 -13.4286
2749.5 26.7143
2750.5 40
2751.5 12.2857
2752.5 42.8571
2753.5 19.8571
2754.5 13.7143
2755.5 34.2857
2756.5 9
2757.5 23.8571
2758.5 46.2857
2759.5 26.7143
2760.5 43.8571
2761.5 -1.42857
2762.5 50.8571
2763.5 41.4286
2764.5 37.7143
2765.5 98
2766.5 66.4286
2767.5 90.1429
2768.5 25.2857
2769.5 -2.57143
2770.5 -5.71428
2771.5 12.7143
2772.5 53.8571
2773.5 -10.7143
2774.5 61.4286
2775.5 37.5714
2776.5 29.7143
2777.5 28
2778.5 76.7143
2779.5 2.14286
2780.5 27.8571
2781.5 8.71429
2782.5 21.5714
2783.5 46.1429
2784.5 33.7143
2785.5 112.429
2786.5 22.7143
2787.5 2.57143
2788.5 33.4286
2789.5 4.85715
2790.5 7
2791.5 7
2792.5 42.8571
2793.5 18.2857
2794.5 27.4286
2795.5 22.7143
2796.5 -8.14285
2797.5 24
2798.5 46.2857
2799.5 -8.57143
2800.5 20.2857
2801.5 4.85715
2802.5 17
2803.5 -14
2804.5 32.8571
2805.5 14.7143
2806.5 11.1429
2807.5 66.8571
2808.5 21.2857
2809.5 0.714289
2810.5 23.7143
2811.5 -4.14285
2812.5 36.8571
2813.5 72.4286
2814.5 74.8571
2815.5 83.1429
2816.5 84.8571
2817.5 33
2818.5 23.2857
2819.5 57.2857
2820.5 35.4286
2821.5 77.5714
2822.5 31
2823.5 46.1429
2824.5 72.5714
2825.5 35.8571
2826.5 41.1429
2827.5 40.8571
2828.5 85.7143
2829.5 78.5714
2830.5 64
2831.5 56.8571
2832.5 42.1429
2833.5 11.5714
2834.5 3.14286
2835.5 28.1429
2836.5 17.2857
2837.5 2.85715
2838.5 22.4286
2839.5 37.1429
2840.5 35
2841.5 -1.28571
2842.5 27
2843.5 52.8571
2844.5 38.5714
2845.5 41.5714
2846.5 70.7143
2847.5 61.1429
2848.5 30
2849.5 -23
2850.5 23.5714
2851.5 -18.8571
2852.5 0.428575
2853.5 13.7143
2854.5 27.5714
2855.5 47.1429
2856.5 7.71429
2857.5 20.7143
2858.5 12.5714
2859.5 47.8571
2860.5 33.8571
2861.5 26.7143
2862.5 61.7143
2863.5 41.7143
2864.5 34.4286
2865.5 35
2866.5 18.7143
2867.5 47.1429
2868.5 1.71429
2869.5 50.5714
2870.5 3.85715
2871.5 2.57143
2872.5 30
2873.5 32.8571
2874.5 16.8571
2875.5 58
2876.5 62.1429
2877.5 -23.2857
2878.5 24.7143
2879.5 34.8571
2880.5 15.4286
2881.5 31.4286
2882.5 31.1429
2883.5 29.1429
2884.5 1.57143
2885.5 41.5714
2886.5 33
2887.5 60.1429
2888.5 38.7143
2889.5 19.7143
2890.5 62.7143
2891.5 105
2892.5 56.1429
2893.5 55.4286
2894.5 17.2857
2895.5 47.4286
2896.5 73.7143
2897.5 22.8571
2898.5 66.7143
2899.5 33
2900.5 34.4286
2901.5 25.4286
2902.5 20.4286
2903.5 46.7143
2904.5 42.2857
2905.5 17.8571
2906.5 20.5714
2907.5 58
2908.5 4.42857
2909.5 42.8571
2910.5 29.1429
2911.5 46.7143
2912.5 34
2913.5 28.5714
2914.5 46.4286
2915.5 22.4286
2916.5 19.7143
2917.5 47
2918.5 27.2857
2919.5 33.4286
2920.5 57.2857
2921.5 27.8571
2922.5 -4
2923.5 27.4286
2924.5 -10.7143
2925.5 24.2857
2926.5 27.1429
2927.5 22.5714
2928.5 31.1429
2929.5 22.5714
2930.5 17.4286
2931.5 33.2857
2932.5 21.1429
2933.5 -5.57143
2934.5 3.21865e-06
2935.5 0.14286
2936.5 15
2937.5 24.1429
2938.5 19
2939.5 55.5714
2940.5 2.57143
2941.5 32.7143
2942.5 16.2857
2943.5 29.8571
2944.5 -55.2857
2945.5 -34.8571
2946.5 -63
2947.5 -76
2948.5 -74.2857
2949.5 -39.1429
2950.5 17.1429
2951.5 -3.42857
2952.5 63.5714
2953.5 62.8571
2954.5 0.428575
2955.5 -6.57142
2956.5 -13.8571
2957.5 22.7143
2958.5 25.8571
2959.5 -6.57143
2960.5 -34.5714
2961.5 49.2857
2962.5 38.4286
2963.5 17
2964.5 47.4286
2965.5 52.1429
2966.5 33.2857
2967.5 34.5714
2968.5 15.4286
2969.5 -16.5714
2970.5 23
2971.5 95.7143
2972.5 54.7143
2973.5 86.1429
2974.5 109.571
2975.5 86.2857
2976.5 45.1429
2977.5 -8.28571
2978.5 40.7143
2979.5 44.7143
2980.5 64.1429
2981.5 77
2982.5 48.4286
2983.5 56.8571
2984.5 28.2857
2985.5 36.5714
2986.5 69.1429
2987.5 27.2857
2988.5 14.7143
2989.5 2.38419e-06
2990.5 63.5714
2991.5 24.8571
2992.5 62
2993.5 8.85715
2994.5 43.4286
2995.5 36.5714
2996.5 46
2997.5 20.7143
2998.5 35.4286
2999.5 39.1429
3000.5 79.2857
3001.5 60.5714
3002.5 4.42857
3003.5 66.4286
3004.5 37.2857
3005.5 59.5714
3006.5 42
3007.5 -19.1429
3008.5 16.2857
3009.5 -1.28571
3010.5 -97
3011.5 -12
3012.5 -30.5714
3013.5 -14.5714
3014.5 -22.4286
3015.5 22.7143
3016.5 58.8571
3017.5 53.7143
3018.5 43
3019.5 11.4286
3020.5 -19.8571
3021.5 54.5714
3022.5 33.5714
3023.5 37
3024.5 19.5714
3025.5 31.1429
3026.5 37.1429
3027.5 28
3028.5 25.4286
3029.5 27.7143
3030.5 -2
3031.5 37.5714
3032.5 34.7143
3033.5 12.8571
3034.5 26.7143
3035.5 40.5714
3036.5 28
3037.5 67.4286
3038.5 43
3039.5 43.1429
3040.5 67.4286
3041.5 32.5714
3042.5 29
3043.5 24.7143
3044.5 11
3045.5 17.2857
3046.5 38.8571
3047.5 10.5714
3048.5 32.2857
3049.5 91.5714
3050.5 73.7143
3051.5 132.143
3052.5 131.571
3053.5 83.7143
3054.5 86
3055.5 78.1429
3056.5 40.5714
3057.5 6.28572
3058.5 39.8571
3059.5 36.2857
3060.5 -4
3061.5 11.4286
3062.5 12.8571
3063.5 24.7143
3064.5 3
3065.5 35.7143
3066.5 19.5714
3067.5 2
3068.5 -25.5714
3069.5 23.8571
3070.5 58.1429
3071.5 34.2857
3072.5 44.7143
3073.5 18.7143
3074.5 48.5714
3075.5 54.7143
3076.5 31.1429
3077.5 4.57143
3078.5 28.5714
3079.5 65
3080.5 44.8571
3081.5 8.28572
3082.5 31
3083.5 20
3084.5 35
3085.5 20.5714
3086.5 60
3087.5 52.1429
3088.5 43.2857
3089.5 44.2857
3090.5 44
3091.5 28
3092.5 9.28572
3093.5 -10.8571
3094.5 45.7143
3095.5 -0.571426
3096.5 8.57143
3097.5 41.5714
3098.5 9.71429
3099.5 24
3100.5 7.57143
3101.5 53.4286
3102.5 19.8571
3103.5 15.7143
3104.5 58.1429
3105.5 17.2857
3106.5 16.8571
3107.5 64.8571
3108.5 52.1429
3109.5 44.1429
3110.5 96.4286
3111.5 45.7143
3112.5 78.7143
3113.5 18.8571
3114.5 54
3115.5 24.8571
3116.5 25.5714
3117.5 -18.1429
3118.5 16.4286
3119.5 -7.28571
3120.5 -68
3121.5 -112
3122.5 -203.143
3123.5 -221
3124.5 -128.429
3125.5 -60.7143
3126.5 22.1429
3127.5 1.71429
3128.5 13.1429
3129.5 -0.85714
3130.5 47.4286
3131.5 11.1429
3132.5 10.5714
3133.5 51.1429
3134.5 15.1429
3135.5 43.2857
3136.5 26
3137.5 -0.428569
3138.5 20.4286
3139.5 -6.28571
3140.5 24.4286
3141.5 1.28572
3142.5 32.7143
3143.5 -5.71428
3144.5 22.4286
3145.5 29
3146.5 69.7143
3147.5 39.7143
3148.5 20.4286
3149.5 26
3150.5 36.7143
3151.5 34.7143
3152.5 43.1429
3153.5 21.4286
3154.5 25.2857
3155.5 28.5714
3156.5 44.7143
3157.5 46.7143
3158.5 15.1429
3159.5 50.1429
3160.5 1.71429
3161.5 23.1429
3162.5 42.8571
3163.5 15
3164.5 19.2857
3165.5 23
3166.5 49.7143
3167.5 10.2857
3168.5 39.5714
3169.5 28
3170.5 7.71429
3171.5 36.8571
3172.5 24.5714
3173.5 73.4286
3174.5 101.429
3175.5 174.143
3176.5 172
3177.5 119.286
3178.5 59.7143
3179.5 47.7143
3180.5 39.8571
3181.5 44.5714
3182.5 72.2857
3183.5 12.7143
3184.5 40.8571
3185.5 23.2857
3186.5 13
3187.5 17.5714
3188.5 37.2857
3189.5 4
3190.5 11.7143
3191.5 16.4286
3192.5 7.42857
3193.5 3.42857
3194.5 17.5714
3195.5 17.5714
3196.5 17.4286
3197.5 17.2857
3198.5 1.42857
3199.5 44.2857
3200.5 45.2857
3201.5 0.142862
3202.5 52.1429
3203.5 34.5714
3204.5 27.4286
3205.5 21.7143
3206.5 84.5714
3207.5 104.714
3208.5 59.2857
3209.5 77.4286
3210.5 57
3211.5 52.2857
3212.5 44
3213.5 45
3214.5 39.4286
3215.5 20.7143
3216.5 51.5714
3217.5 -6.14285
3218.5 57.7143
3219.5 16.2857
3220.5 48.2857
3221.5 49.7143
3222.5 3.57143
3223.5 29
3224.5 30.7143
3225.5 29.1429
3226.5 39
3227.5 26.1429
3228.5 11.7143
3229.5 36.1429
3230.5 73.8571
3231.5 13.2857
3232.5 76.2857
3233.5 123.857
3234.5 109.857
3235.5 76.2857
3236.5 43.7143
3237.5 45.7143
3238.5 47.1429
3239.5 95.2857
3240.5 188.857
3241.5 190.857
3242.5 185.571
3243.5 138.857
3244.5 77.5714
3245.5 52.5714
3246.5 12.2857
3247.5 -2.57143
3248.5 46.2857
3249.5 17.2857
3250.5 71.2857
3251.5 1.71429
3252.5 27.5714
3253.5 39.4286
3254.5 22.4286
3255.5 93.8571
3256.5 64.7143
3257.5 61.5714
3258.5 60.1429
3259.5 52.2857
3260.5 50.8571
3261.5 98.7143
3262.5 38.7143
3263.5 19.1429
3264.5 23.7143
3265.5 -0.85714
3266.5 -43.8571
3267.5 20
3268.5 11.2857
3269.5 30.2857
3270.5 12.7143
3271.5 27.4286
3272.5 52.2857
3273.5 11
3274.5 31.5714
3275.5 33.1429
3276.5 19.8571
3277.5 28.4286
3278.5 36
3279.5 27.5714
3280.5 21.5714
3281.5 29.4286
3282.5 34.1429
3283.5 18
3284.5 -3.28571
3285.5 33.1429
3286.5 27.4286
3287.5 -15.1429
3288.5 29.4286
3289.5 -2
3290.5 15.1429
3291.5 31.5714
3292.5 34.2857
3293.5 30.7143
3294.5 37.5714
3295.5 12
3296.5 33.2857
3297.5 11.1429
3298.5 39.8571
3299.5 23.5714
3300.5 59.4286
3301.5 -2.85714
3302.5 1.57143
3303.5 38.1429
3304.5 39.5714
3305.5 0.714288
3306.5 38.7143
3307.5 38.1429
3308.5 35.5714
3309.5 16.7143
3310.5 30.1429
3311.5 -8.57143
3312.5 -7.28571
3313.5 18.4286
3314.5 16.5714
3315.5 51.5714
3316.5 51.7143
3317.5 27.5714
3318.5 17.4286
3319.5 18.1429
3320.5 70.1429
3321.5 73.1429
3322.5 24.4286
3323.5 -45.8571
3324.5 16.2857
3325.5 26.8571
3326.5 -2
3327.5 29.8571
3328.5 5.14286
3329.5 58
3330.5 1.57143
3331.5 33
3332.5 65.2857
3333.5 36.2857
3334.5 19.1429
3335.5 21.4286
3336.5 23.1429
3337.5 16
3338.5 32.5714
3339.5 32.2857
3340.5 1.71429
3341.5 31.2857
3342.5 -12.2857
3343.5 68.2857
3344.5 9.57143
3345.5 26.2857
3346.5 2.71429
3347.5 18.7143
3348.5 22
3349.5 56.2857
3350.5 7.85715
3351.5 50.7143
3352.5 -3
3353.5 37.4286
3354.5 11.4286
3355.5 63.7143
3356.5 59.2857
3357.5 16.2857
3358.5 32.4286
3359.5 29.8571
3360.5 25.4286
3361.5 -1.57143
3362.5 22.1429
3363.5 12.8571
3364.5 -1.42857
3365.5 49.4286
3366.5 46.1429
3367.5 71.1429
3368.5 49.1429
3369.5 40.8571
3370.5 33.2857
3371.5 32.4286
3372.5 29.8571
3373.5 4
3374.5 45.5714
3375.5 19.1429
3376.5 22.4286
3377.5 4
3378.5 8.71429
3379.5 46.1429
3380.5 15.4286
3381.5 19.4286
3382.5 23.7143
3383.5 32.7143
3384.5 38
3385.5 31.4286
3386.5 34.2857
3387.5 3.85715
3388.5 83
3389.5 16.8571
3390.5 52.8571
3391.5 -1.57143
3392.5 -3.42857
3393.5 39.7143
3394.5 12.2857
3395.5 30.5714
3396.5 48.2857
3397.5 40.4286
3398.5 54
3399.5 18.4286
3400.5 32.7143
3401.5 -13.2857
3402.5 27.8571
3403.5 5.14286
3404.5 46.8571
3405.5 -0.285712
3406.5 49.4286
3407.5 38.7143
3408.5 25.8571
3409.5 27.5714
3410.5 15.5714
3411.5 50.7143
3412.5 1.28572
3413.5 35.5714
3414.5 43.7143
3415.5 34.8571
3416.5 9.42857
3417.5 31.2857
3418.5 45.4286
3419.5 21.7143
3420.5 28.1429
3421.5 5.85714
3422.5 13.4286
3423.5 53.8571
3424.5 10.8571
3425.5 77.7143
3426.5 39.2857
3427.5 -15
3428.5 101.143
3429.5 -16.2857
3430.5 55.5714
3431.5 11.5714
3432.5 19.2857
3433.5 33.8571
3434.5 5.28572
3435.5 15.4286
3436.5 8.57143
3437.5 19.7143
3438.5 1.42857
3439.5 45.8571
3440.5 52.8571
3441.5 51.7143
3442.5 31.4286
3443.5 -0.571426
3444.5 46
3445.5 34.2857
3446.5 56.2857
3447.5 17.5714
3448.5 15.1429
3449.5 30.5714
3450.5 50.4286
3451.5 13.5714
3452.5 1.42857
3453.5 -10.2857
3454.5 10.7143
3455.5 36.2857
3456.5 49.8571
3457.5 -47.7143
3458.5 -10.5714
3459.5 7.57143
3460.5 36.2857
3461.5 2.85715
3462.5 24
3463.5 31.5714
3464.5 23.5714
3465.5 -6.28571
3466.5 27.5714
3467.5 7.14286
3468.5 23.4286
3469.5 8.71429
3470.5 3.28572
3471.5 22.4286
3472.5 20.5714
3473.5 39.8571
3474.5 24.8571
3475.5 1.57143
3476.5 17.4286
3477.5 46.5714
3478.5 13.5714
3479.5 28.5714
3480.5 22.1429
3481.5 45.2857
3482.5 72.8571
3483.5 68.2857
3484.5 66
3485.5 75.1429
3486.5 58.2857
3487.5 -38
3488.5 16.4286
3489.5 38.8571
3490.5 21.4286
3491.5 50.4286
3492.5 -17.1429
3493.5 -1.57142
3494.5 -6.28571
3495.5 5.14286
3496.5 -14.4286
3497.5 4
3498.5 -3.57143
3499.5 23
3500.5 -19.1429
3501.5 -7.14286
3502.5 5
3503.5 12.2857
3504.5 15.2857
3505.5 20.2857
3506.5 36.8571
3507.5 52.7143
3508.5 55.5714
3509.5 36.2857
3510.5 33.5714
3511.5 28.5714
3512.5 40.7143
3513.5 39
3514.5 29.5714
3515.5 18.4286
3516.5 31.5714
3517.5 5.71429
3518.5 30
3519.5 41.7143
3520.5 26.8571
3521.5 14.8571
3522.5 9
3523.5 11
3524.5 43
3525.5 39.7143
3526.5 18.8571
3527.5 16.2857
3528.5 15.1429
3529.5 42.7143
3530.5 45.5714
3531.5 48.7143
3532.5 64
3533.5 16.4286
3534.5 -0.285712
3535.5 50.2857
3536.5 21.1429
3537.5 27.4286
3538.5 18.2857
3539.5 22.2857
3540.5 29
3541.5 18.2857
3542.5 5.71429
3543.5 23.1429
3544.5 6.42857
3545.5 28.8571
3546.5 61.8571
3547.5 39.7143
3548.5 38.1429
3549.5 39
3550.5 32.4286
3551.5 21.8571
3552.5 14.8571
3553.5 42.1429
3554.5 35
3555.5 2
3556.5 7
3557.5 40.1429
3558.5 30.2857
3559.5 83.5714
3560.5 21.5714
3561.5 20.1429
3562.5 40
3563.5 33.1429
3564.5 33.4286
3565.5 15.7143
3566.5 67.5714
3567.5 38.4286
3568.5 59.8571
3569.5 43.2857
3570.5 32.7143
3571.5 45
3572.5 4.28572
3573.5 17
3574.5 1.57143
3575.5 20.2857
3576.5 26.4286
3577.5 47.8571
3578.5 14
3579.5 52.7143
3580.5 58.4286
3581.5 30
3582.5 26
3583.5 25
3584.5 35.8571
3585.5 5
3586.5 25.8571
3587.5 -25.1429
3588.5 9
3589.5 48.2857
3590.5 34.1429
3591.5 -20.5714
3592.5 19
3593.5 12.7143
3594.5 14.7143
3595.5 70.8571
3596.5 30
3597.5 63.7143
3598.5 35.7143
3599.5 -8
3600.5 56.1429
3601.5 67.2857
3602.5 28
3603.5 49
3604.5 18.2857
3605.5 36
3606.5 58.8571
3607.5 57.1429
3608.5 22.1429
3609.5 7.57143
3610.5 -4.85714
3611.5 8
3612.5 37.8571
3613.5 15.8571
3614.5 34.4286
3615.5 16.7143
3616.5 47.8571
3617.5 20.5714
3618.5 28.1429
3619.5 62
3620.5 65.4286
3621.5 49.1429
3622.5 57
3623.5 50.1429
3624.5 24.1429
3625.5 67.8571
3626.5 78.4286
3627.5 22
3628.5 26.8571
3629.5 -13.2857
3630.5 44.8571
3631.5 33.4286
3632.5 42.2857
3633.5 10.8571
3634.5 17.7143
3635.5 44.7143
3636.5 3.85714
3637.5 14.1429
3638.5 22.1429
3639.5 37.7143
3640.5 32
3641.5 4.71429
3642.5 38.7143
3643.5 28.8571
3644.5 15.7143
3645.5 37.4286
3646.5 36.2857
3647.5 28.1429
3648.5 69.8571
3649.5 32.2857
3650.5 40.8571
3651.5 27.7143
3652.5 22
3653.5 30
3654.5 34
3655.5 50.1429
3656.5 18.2857
3657.5 64.2857
3658.5 48
3659.5 42
3660.5 26.4286
3661.5 42.1429
3662.5 27
3663.5 16.8571
3664.5 -2
3665.5 15.2857
3666.5 22.4286
3667.5 46.5714
3668.5 6.28572
3669.5 10.5714
3670.5 42.8571
3671.5 45.8571
3672.5 11
3673.5 38.5714
3674.5 12.7143
3675.5 24.2857
3676.5 50.2857
3677.5 40
3678.5 20.2857
3679.5 0.857145
3680.5 3.57143
3681.5 -31.2857
3682.5 21.7143
3683.5 15.2857
3684.5 25.8571
3685.5 17.2857
3686.5 37.2857
3687.5 10.1429
3688.5 30.5714
3689.5 -5
3690.5 34.7143
3691.5 22.8571
3692.5 49
3693.5 31.2857
3694.5 27.1429
3695.5 31.8571
3696.5 -14.5714
3697.5 14
3698.5 46.7143
3699.5 32.5714
3700.5 23.1429
3701.5 25.7143
3702.5 17.2857
3703.5 35
3704.5 19.5714
3705.5 -8.28571
3706.5 28.2857
3707.5 31
3708.5 23.8571
3709.5 31.4286
3710.5 19
3711.5 19.5714
3712.5 28.7143
3713.5 46.1429
3714.5 8.14286
3715.5 -0.142855
3716.5 56.7143
3717.5 21.8571
3718.5 39.2857
3719.5 11
3720.5 16.2857
3721.5 13.4286
3722.5 26.5714
3723.5 36.8571
3724.5 80.4286
3725.5 26
3726.5 42
3727.5 8.85714
3728.5 30.2857
3729.5 37
3730.5 28
3731.5 35.5714
3732.5 28.2857
3733.5 11.7143
3734.5 39.7143
3735.5 25.2857
3736.5 3.71429
3737.5 5.85714
3738.5 52.7143
3739.5 66.7143
3740.5 -0.285712
3741.5 20.8571
3742.5 8.71429
3743.5 33.4286
3744.5 9.85715
3745.5 48.1429
3746.5 27.7143
3747.5 25.5714
3748.5 22.1429
3749.5 22.7143
3750.5 54.5714
3751.5 50.7143
3752.5 29.1429
3753.5 50
3754.5 25.1429
3755.5 50.5714
3756.5 -2.28571
3757.5 19.4286
3758.5 73.1429
3759.5 24
3760.5 38
3761.5 33.2857
3762.5 -1.28571
3763.5 38
3764.5 38.5714
3765.5 18.4286
3766.5 15.7143
3767.5 39.8571
3768.5 15.4286
3769.5 1.28572
3770.5 52.5714
3771.5 9.42857
3772.5 -5.85714
3773.5 6.42857
3774.5 21.1429
3775.5 18.7143
3776.5 27.5714
3777.5 22
3778.5 25.8571
3779.5 10
3780.5 41.8571
3781.5 16.1429
3782.5 17.7143
3783.5 6
3784.5 39.4286
3785.5 21.4286
3786.5 21.2857
3787.5 2
3788.5 20
3789.5 18.4286
3790.5 -9.71428
3791.5 9
3792.5 31.2857
3793.5 14.5714
3794.5 40.5714
3795.5 49.8571
3796.5 58.7143
3797.5 23.8571
3798.5 11
3799.5 12.2857
3800.5 34.1429
3801.5 -3.28571
3802.5 82.5714
3803.5 17.8571
3804.5 7.28572
3805.5 18.2857
3806.5 17
3807.5 19.4286
3808.5 38.2857
3809.5 -3.57143
3810.5 71.7143
3811.5 55.8571
3812.5 23.4286
3813.5 53.2857
3814.5 -9.28571
3815.5 42.2857
3816.5 2.71429
3817.5 -0.571427
3818.5 40.5714
3819.5 35.2857
3820.5 -18.4286
3821.5 -0.142855
3822.5 28.2857
3823.5 8.28572
3824.5 34.4286
3825.5 28.8571
3826.5 18.8571
3827.5 30.8571
3828.5 41.8571
3829.5 22.2857
3830.5 17.2857
3831.5 67.8571
3832.5 15.4286
3833.5 27.2857
3834.5 76.5714
3835.5 32.2857
3836.5 37.4286
3837.5 8.57143
3838.5 3
3839.5 27.7143
3840.5 35.2857
3841.5 18.2857
3842.5 21.2857
3843.5 23.7143
3844.5 37.5714
3845.5 17.8571
3846.5 18.5714
3847.5 25.7143
3848.5 60.4286
3849.5 83.7143
3850.5 31.1429
3851.5 34.5714
3852.5 32.5714
3853.5 40.1429
3854.5 22.8571
3855.5 11.5714
3856.5 30.2857
3857.5 -2.85714
3858.5 -29.7143
3859.5 -19
3860.5 -33.2857
3861.5 -18.2857
3862.5 -55
3863.5 -19.4286
3864.5 -16.8571
3865.5 18.8571
3866.5 -1.57143
3867.5 38
3868.5 40.1429
3869.5 47.8571
3870.5 -9.85714
3871.5 41.8571
3872.5 -39
3873.5 -70.1429
3874.5 -96.2857
3875.5 -101.429
3876.5 -92.2857
3877.5 -11.2857
3878.5 1.28572
3879.5 13.5714
3880.5 20.1429
3881.5 13.5714
3882.5 3.28572
3883.5 56.1429
3884.5 -11.1429
3885.5 44.5714
3886.5 34.5714
3887.5 -2.71428
3888.5 7.28572
3889.5 37.2857
3890.5 26.2857
3891.5 20.8571
3892.5 4.71429
3893.5 41.8571
3894.5 4.28572
3895.5 17.4286
3896.5 7
3897.5 11.2857
3898.5 45.1429
3899.5 -4.28571
3900.5 17.8571
3901.5 72.1429
3902.5 51.8571
3903.5 68.1429
3904.5 58.5714
3905.5 34
3906.5 32
3907.5 35.8571
3908.5 43.5714
3909.5 9.71429
3910.5 -3.71428
3911.5 6.42857
3912.5 59
3913.5 14.7143
3914.5 21.7143
3915.5 58.8571
3916.5 17.8571
3917.5 51.5714
3918.5 43.2857
3919.5 31
3920.5 58.4286
3921.5 12.1429
3922.5 37.2857
3923.5 31.4286
3924.5 5.85714
3925.5 41.7143
3926.5 -28.7143
3927.5 25.8571
3928.5 23.7143
3929.5 41
3930.5 36.7143
3931.5 33
3932.5 35.1429
3933.5 46.1429
3934.5 25
3935.5 20
3936.5 38.5714
3937.5 42.4286
3938.5 42
3939.5 35
3940.5 35.5714
3941.5 -5.57143
3942.5 22.5714
3943.5 27
3944.5 52.2857
3945.5 15.4286
3946.5 6.14286
3947.5 1
3948.5 1.14286
3949.5 -7
3950.5 -10.8571
3951.5 50.5714
3952.5 40.4286
3953.5 36.2857
3954.5 36
3955.5 32.7143
3956.5 81.2857
3957.5 51.1429
3958.5 54.4286
3959.5 17
3960.5 18.2857
3961.5 -34.7143
3962.5 10.2857
3963.5 -59.8571
3964.5 -60.8571
3965.5 -70
3966.5 -30.7143
3967.5 -41.5714
3968.5 -5.85714
3969.5 0.285717
3970.5 10.8571
3971.5 23.7143
3972.5 13.8571
3973.5 29.7143
3974.5 -16.4286
3975.5 24.4286
3976.5 6.85714
3977.5 -19.8571
3978.5 -22.5714
3979.5 -67.5714
3980.5 -111.714
3981.5 -101
3982.5 -76.8571
3983.5 -38.8571
3984.5 16.5714
3985.5 29.4286
3986.5 -1.14286
3987.5 38.4286
3988.5 49.5714
3989.5 19.8571
3990.5 32
3991.5 65.7143
3992.5 104.571
3993.5 148.857
3994.5 259.429
3995.5 376.714
3996.5 382
3997.5 291.857
3998.5 177.571
3999.5 85.5714
4000.5 49.7143
4001.5 12.2857
4002.5 35.1429
4003.5 21.1429
4004.5 27.7143
4005.5 4.85714
4006.5 10.7143
4007.5 1.14286
4008.5 31.2857
4009.5 13.8571
4010.5 17.4286
4011.5 12.4286
4012.5 -0.714284
4013.5 37.5714
4014.5 37.1429
4015.5 41.8571
4016.5 28.7143
4017.5 28.2857
4018.5 58.7143
4019.5 14.4286
4020.5 33.4286
4021.5 41.1429
4022.5 39.7143
4023.5 33.4286
4024.5 49.2857
4025.5 0.428574
4026.5 31.1429
4027.5 32.5714
4028.5 24.7143
4029.5 3.71429
4030.5 7.85714
4031.5 33.2857
4032.5 29.5714
4033.5 25.5714
4034.5 16.5714
4035.5 17.2857
4036.5 26.4286
4037.5 -0.285712
4038.5 39.8571
4039.5 22.8571
4040.5 23.8571
4041.5 7.28572
4042.5 8.71429
4043.5 8.71429
4044.5 -2.28571
4045.5 23.5714
4046.5 28.5714
4047.5 -6.28571
4048.5 -1.42857
4049.5 27
4050.5 12.1429
4051.5 55.1429
4052.5 4.71429
4053.5 7.14286
4054.5 28.8571
4055.5 11.2857
4056.5 60.5714
4057.5 15
4058.5 32
4059.5 3.28572
4060.5 13
4061.5 -6.28571
4062.5 12
4063.5 16.4286
4064.5 9.57143
4065.5 7.14286
4066.5 17.7143
4067.5 36.1429
4068.5 34.2857
4069.5 -1.28571
4070.5 1.85714
4071.5 14.8571
4072.5 22.4286
4073.5 30.2857
4074.5 7.85714
4075.5 21.4286
4076.5 63.7143
4077.5 19
4078.5 -6.71428
4079.5 13.5714
4080.5 -7
4081.5 -2
4082.5 -7.57143
4083.5 25.1429
4084.5 -0.42857
4085.5 24.8571
4086.5 11.8571
4087.5 9.71429
4088.5 21.8571
4089.5 45.5714
4090.5 50
4091.5 7.42857
4092.5 31.8571
4093.5 26
4094.5 33.8571
4095.5 -6.14286
4096.5 13.8571
4097.5 8.85714
4098.5 34.5714
4099.5 29.1429
4100.5 38.4286
4101.5 10.8571
4102.5 10.7143
4103.5 19.4286
4104.5 18.8571
4105.5 7.14286
4106.5 30.8571
4107.5 36.5714
4108.5 29.2857
4109.5 14.1429
4110.5 25.5714
4111.5 54
4112.5 65.1429
4113.5 83.1429
4114.5 78.2857
4115.5 51
4116.5 71.5714
4117.5 82.1429
4118.5 67.8571
4119.5 77.8571
4120.5 45.1429
4121.5 40.2857
4122.5 35.7143
4123.5 28.8571
4124.5 61.7143
4125.5 52.5714
4126.5 63.2857
4127.5 37.4286
4128.5 16.2857
4129.5 25.8571
4130.5 0.428573
4131.5 17.1429
4132.5 -20.5714
4133.5 47.1429
4134.5 56.8571
4135.5 40.4286
4136.5 -5.57143
4137.5 36.2857
4138.5 10.4286
4139.5 33.2857
4140.5 0.714287
4141.5 29.5714
4142.5 42.7143
4143.5 -2.28571
4144.5 0.714287
4145.5 38
4146.5 39.5714
4147.5 11.4286
4148.5 42.1429
4149.5 21.5714
4150.5 38.8571
4151.5 54.2857
4152.5 33.8571
4153.5 19.4286
4154.5 17.1429
4155.5 59.2857
4156.5 19.2857
4157.5 -0.857141
4158.5 14.4286
4159.5 32.1429
4160.5 29.8571
4161.5 50.8571
4162.5 9.42857
4163.5 21.4286
4164.5 21.8571
4165.5 61.5714
4166.5 71.1429
4167.5 94.8571
4168.5 49
4169.5 95.4286
4170.5 59.7143
4171.5 27.7143
4172.5 10
4173.5 46.1429
4174.5 27.4286
4175.5 57.1429
4176.5 2
4177.5 26.8571
4178.5 44.7143
4179.5 29.5714
4180.5 13.1429
4181.5 25.4286
4182.5 10.2857
4183.5 0.285716
4184.5 5.42857
4185.5 17.1429
4186.5 29.1429
4187.5 21.1429
4188.5 1.42857
4189.5 -24
4190.5 3.42857
4191.5 1.42857
4192.5 -1.85714
4193.5 -10.8571
4194.5 -3.71428
4195.5 9.57143
4196.5 35
4197.5 29.7143
4198.5 37.1429
4199.5 69.8571
4200.5 56.1429
4201.5 107.857
4202.5 33.8571
4203.5 38.8571
4204.5 11.8571
4205.5 57.8571
4206.5 20.7143
4207.5 24
4208.5 50.4286
4209.5 0.428574
4210.5 39.2857
4211.5 17.1429
4212.5 41.2857
4213.5 38.1429
4214.5 -30
4215.5 38
4216.5 54.1429
4217.5 18.2857
4218.5 46.1429
4219.5 7
4220.5 27.1429
4221.5 22.8571
4222.5 37.8571
4223.5 30.1429
4224.5 35.1429
4225.5 17.4286
4226.5 14.4286
4227.5 46.8571
4228.5 17
4229.5 23.8571
4230.5 -10.7143
4231.5 39.2857
4232.5 12.5714
4233.5 52.2857
4234.5 13.5714
4235.5 57.2857
4236.5 60.4286
4237.5 18.4286
4238.5 46.8571
4239.5 33.7143
4240.5 21
4241.5 24.4286
4242.5 -8.42857
4243.5 17.5714
4244.5 49.5714
4245.5 13.2857
4246.5 23.5714
4247.5 5
4248.5 20.7143
4249.5 23.2857
4250.5 36.1429
4251.5 34.4286
4252.5 12.8571
4253.5 56.2857
4254.5 22.7143
4255.5 5.28572
4256.5 34.1429
4257.5 -2.14286
4258.5 15.5714
4259.5 48.8571
4260.5 22.7143
4261.5 34.5714
4262.5 18.8571
4263.5 41.1429
4264.5 44
4265.5 64.1429
4266.5 57.8571
4267.5 48.8571
4268.5 46.8571
4269.5 13.2857
4270.5 17.7143
4271.5 41.2857
4272.5 48.5714
4273.5 33.4286
4274.5 49.1429
4275.5 62.8571
4276.5 24.5714
4277.5 26.7143
4278.5 2
4279.5 27.8571
4280.5 31.1429
4281.5 26
4282.5 0.285716
4283.5 25.7143
4284.5 11.4286
4285.5 34.2857
4286.5 50.5714
4287.5 14.2857
4288.5 -0.142856
4289.5 23.1429
4290.5 0.428573
4291.5 7.57143
4292.5 39
4293.5 -15
4294.5 25.8571
4295.5 21
4296.5 28
4297.5 38.2857
4298.5 32.5714
4299.5 17.8571
4300.5 6.71429
4301.5 7.42857
4302.5 20.4286
4303.5 55.5714
4304.5 30.5714
4305.5 -4.57143
4306.5 25.5714
4307.5 8.85714
4308.5 -2.28571
4309.5 1.19209e-06
4310.5 32.8571
4311.5 21.5714
4312.5 36.7143
4313.5 28.2857
4314.5 49.1429
4315.5 13.1429
4316.5 29.7143
4317.5 54.1429
4318.5 7.57143
4319.5 8.14286
4320.5 15.8571
4321.5 5.42857
4322.5 25
4323.5 25.8571
4324.5 16.8571
4325.5 27
4326.5 14.7143
4327.5 39.8571
4328.5 16.7143
4329.5 17.8571
4330.5 17
4331.5 8.14286
4332.5 21
4333.5 34.4286
4334.5 11.5714
4335.5 52
4336.5 36.8571
4337.5 12.4286
4338.5 19.2857
4339.5 -2
4340.5 71.1429
4341.5 28.2857
4342.5 42.8571
4343.5 17.7143
4344.5 17
4345.5 39.7143
4346.5 20.2857
4347.5 49.4286
4348.5 22.7143
4349.5 40
4350.5 10
4351.5 9
4352.5 25.7143
4353.5 35.8571
4354.5 4.42857
4355.5 34.1429
4356.5 14.4286
4357.5 -8.14286
4358.5 26.8571
4359.5 39.2857
4360.5 24.2857
4361.5 -6.57143
4362.5 1.71429
4363.5 31.4286
4364.5 30.5714
4365.5 -2.57143
4366.5 3.14286
4367.5 19.4286
4368.5 15.5714
4369.5 30.2857
4370.5 24.7143
4371.5 13.5714
4372.5 1.14286
4373.5 48.2857
4374.5 -2.57143
4375.5 57.4286
4376.5 48.8571
4377.5 27.4286
4378.5 54.8571
4379.5 44.1429
4380.5 29.2857
4381.5 30.1429
4382.5 41.1429
4383.5 44.8571
4384.5 44.7143
4385.5 17.2857
4386.5 46.2857
4387.5 31.7143
4388.5 13.7143
4389.5 10
4390.5 23
4391.5 14.4286
4392.5 26.4286
4393.5 39.2857
4394.5 11
4395.5 11.7143
4396.5 46.2857
4397.5 17.8571
4398.5 13.8571
4399.5 29.4286
4400.5 30
4401.5 32
4402.5 53.4286
4403.5 29.5714
4404.5 64.5714
4405.5 14.5714
4406.5 21
4407.5 1.57143
4408.5 -11.1429
4409.5 18.2857
4410.5 54.8571
4411.5 38.2857
4412.5 16.7143
4413.5 44.5714
4414.5 60
4415.5 33.4286
4416.5 39.4286
4417.5 69.4286
4418.5 33.8571
4419.5 39
4420.5 26.7143
4421.5 55.2857
4422.5 4.14286
4423.5 3.57143
4424.5 57.2857
4425.5 20.8571
4426.5 48
4427.5 22.8571
4428.5 28.4286
4429.5 17.4286
4430.5 21.2857
4431.5 44.5714
4432.5 28.2857
4433.5 34.5714
4434.5 31.4286
4435.5 18.7143
4436.5 34.7143
4437.5 38.8571
4438.5 47
4439.5 29.8571
4440.5 53.4286
4441.5 30.1429
4442.5 9.71429
4443.5 10.1429
4444.5 14.4286
4445.5 28.7143
4446.5 27.2857
4447.5 19.5714
4448.5 32.7143
4449.5 32.1429
4450.5 20.2857
4451.5 40.1429
4452.5 -6.14286
4453.5 7.71429
4454.5 8.28572
4455.5 11.1429
4456.5 -17.7143
4457.5 16.8571
4458.5 51.8571
4459.5 24.2857
4460.5 46.4286
4461.5 70.2857
4462.5 62.4286
4463.5 -8
4464.5 22.8571
4465.5 26.2857
4466.5 47.5714
4467.5 30.8571
4468.5 50.1429
4469.5 59.8571
4470.5 7.85714
4471.5 38.1429
4472.5 5.85714
4473.5 20.1429
4474.5 19.7143
4475.5 19.1429
4476.5 29.8571
4477.5 19.4286
4478.5 0.142858
4479.5 12.4286
4480.5 11.2857
4481.5 16.7143
4482.5 15
4483.5 27.7143
4484.5 32
4485.5 41.5714
4486.5 50
4487.5 22.7143
4488.5 13.1429
4489.5 40.2857
4490.5 -2
4491.5 45.7143
4492.5 36
4493.5 30
4494.5 14
4495.5 13.2857
4496.5 46
4497.5 26.1429
4498.5 2.57143
4499.5 22.7143
4500.5 34.8571
4501.5 32.8571
4502.5 -7
4503.5 11.7143
4504.5 2.85714
4505.5 26
4506.5 23.2857
4507.5 18
4508.5 21
4509.5 25.8571
4510.5 17
4511.5 16.4286
4512.5 19
4513.5 35.1429
4514.5 33.8571
4515.5 18.1429
4516.5 20.1429
4517.5 15.5714
4518.5 33.8571
4519.5 17.7143
4520.5 32.4286
4521.5 30.2857
4522.5 26.2857
4523.5 34.4286
4524.5 31.8571
4525.5 25.7143
4526.5 44.2857
4527.5 53.4286
4528.5 39.4286
4529.5 25.4286
4530.5 15.8571
4531.5 34.7143
4532.5 34.7143
4533.5 15.5714
4534.5 23.4286
4535.5 30.1429
4536.5 27.4286
4537.5 22
4538.5 27.2857
4539.5 22
4540.5 18.8571
4541.5 30.2857
4542.5 26.1429
4543.5 30.2857
4544.5 41.5714
4545.5 46.1429
4546.5 22.7143
4547.5 22.7143
4548.5 57.7143
4549.5 27.7143
4550.5 25.8571
4551.5 6.71429
4552.5 9
4553.5 24.2857
4554.5 10.5714
4555.5 -15.7143
4556.5 38.4286
4557.5 44.7143
4558.5 21.5714
4559.5 28.7143
4560.5 22
4561.5 62.7143
4562.5 58.4286
4563.5 21.2857
4564.5 51.5714
4565.5 54.4286
4566.5 14
4567.5 13.4286
4568.5 39.8571
4569.5 16.4286
4570.5 7.71429
4571.5 19.2857
4572.5 39.1429
4573.5 -3.14286
4574.5 17.7143
4575.5 11.5714
4576.5 1.14286
4577.5 9.28572
4578.5 36.2857
4579.5 21.8571
4580.5 4
4581.5 32.7143
4582.5 31.1429
4583.5 35.8571
4584.5 42.1429
4585.5 5.28572
4586.5 32.8571
4587.5 45
4588.5 18.8571
4589.5 38
4590.5 15.4286
4591.5 9.28572
4592.5 17.8571
4593.5 23.4286
4594.5 45.2857
4595.5 46.8571
4596.5 41
4597.5 -0.857141
4598.5 17
4599.5 8
4600.5 35.2857
4601.5 24.1429
4602.5 30.2857
4603.5 35.1429
4604.5 21.5714
4605.5 30.8571
4606.5 39.2857
4607.5 30.8571
4608.5 -4.42857
4609.5 22.4286
4610.5 -1.42857
4611.5 35
4612.5 32.2857
4613.5 43
4614.5 26.1429
4615.5 7.71429
4616.5 21.7143
4617.5 32.4286
4618.5 58.7143
4619.5 45.7143
4620.5 77.1429
4621.5 116.286
4622.5 105.286
4623.5 193.857
4624.5 121.571
4625.5 125.286
4626.5 60.5714
4627.5 70.1429
4628.5 49
4629.5 42.7143
4630.5 26.4286
4631.5 26.8571
4632.5 28.4286
4633.5 26
4634.5 25.5714
4635.5 39.5714
4636.5 46.5714
4637.5 58.1429
4638.5 34
4639.5 38.7143
4640.5 48.4286
4641.5 9.42857
4642.5 31.4286
4643.5 12.7143
4644.5 35.8571
4645.5 57.7143
4646.5 18.7143
4647.5 3.57143
4648.5 39.4286
4649.5 2.57143
4650.5 -21.2857
4651.5 -16
4652.5 9
4653.5 29.5714
4654.5 11.4286
4655.5 14
4656.5 21.1429
4657.5 45.8571
4658.5 25.7143
4659.5 19.4286
4660.5 29.8571
4661.5 27
4662.5 38.5714
4663.5 21.4286
4664.5 33.2857
4665.5 8.14286
4666.5 29.5714
4667.5 11.8571
4668.5 41.1429
4669.5 38.2857
4670.5 10.4286
4671.5 24.2857
4672.5 56
4673.5 9.71429
4674.5 12.8571
4675.5 27.4286
4676.5 33.4286
4677.5 31.1429
4678.5 1.71429
4679.5 12.1429
4680.5 2.42857
4681.5 15.8571
4682.5 16.1429
4683.5 26
4684.5 42.7143
4685.5 9
4686.5 18.2857
4687.5 27.4286
4688.5 37.8571
4689.5 28.8571
4690.5 36
4691.5 8.42857
4692.5 22.5714
4693.5 40
4694.5 39.1429
4695.5 4
4696.5 -1.85714
4697.5 21.2857
4698.5 34.7143
4699.5 3.57143
4700.5 31.1429
4701.5 30.5714
4702.5 42.2857
4703.5 19.4286
4704.5 32.2857
4705.5 27
4706.5 60.2857
4707.5 76.8571
4708.5 79.1429
4709.5 103.429
4710.5 153.429
4711.5 155.571
4712.5 158.429
4713.5 151.571
4714.5 69.5714
4715.5 53.4286
4716.5 49
4717.5 29.2857
4718.5 36
4719.5 27.5714
4720.5 51
4721.5 49.5714
4722.5 15.5714
4723.5 30
4724.5 35.7143
4725.5 28.8571
4726.5 22.1429
4727.5 14.4286
4728.5 34.7143
4729.5 35.4286
4730.5 29.7143
4731.5 26.2857
4732.5 23.1429
4733.5 40.1429
4734.5 15.7143
4735.5 42.4286
4736.5 24.5714
4737.5 15.2857
4738.5 31.2857
4739.5 31.8571
4740.5 21.7143
4741.5 36.1429
4742.5 42.5714
4743.5 69.2857
4744.5 104.714
4745.5 76.7143
4746.5 77.2857
4747.5 66.8571
4748.5 80.4286
4749.5 53.2857
4750.5 80.5714
4751.5 45.1429
4752.5 26.7143
4753.5 22.1429
4754.5 40.8571
4755.5 35.8571
4756.5 45.5714
4757.5 28.4286
4758.5 32.7143
4759.5 16.1429
4760.5 11
4761.5 31.2857
4762.5 53.5714
4763.5 34.2857
4764.5 53.8571
4765.5 68.5714
4766.5 66.8571
4767.5 66.1429
4768.5 51.5714
4769.5 43.7143
4770.5 21.1429
4771.5 37.8571
4772.5 27.8571
4773.5 1.14286
4774.5 32.8571
4775.5 -8.85714
4776.5 13.4286
4777.5 54.8571
4778.5 12
4779.5 15.2857
4780.5 38.8571
4781.5 36.1429
4782.5 52
4783.5 13.5714
4784.5 32.5714
4785.5 34.5714
4786.5 52.8571
4787.5 41.2857
4788.5 60.5714
4789.5 59.8571
4790.5 47.7143
4791.5 37.5714
4792.5 26.2857
4793.5 42.4286
4794.5 14.1429
4795.5 42.8571
4796.5 39.2857
4797.5 35
4798.5 45.7143
4799.5 8.85714
4800.5 9.28572
4801.5 32
4802.5 36.5714
4803.5 27.5714
4804.5 59
4805.5 9.57143
4806.5 22.7143
4807.5 38.8571
4808.5 35.2857
4809.5 34.2857
4810.5 50.5714
4811.5 52.4286
4812.5 49.5714
4813.5 16.5714
4814.5 38.7143
4815.5 24.7143
4816.5 34.1429
4817.5 5.71429
4818.5 32
4819.5 15.7143
4820.5 25.7143
4821.5 29.1429
4822.5 14.1429
4823.5 20.1429
4824.5 31.7143
4825.5 31.4286
4826.5 41.8571
4827.5 34.2857
4828.5 19.2857
4829.5 43.1429
4830.5 13.7143
4831.5 8.14286
4832.5 31.4286
4833.5 30.8571
4834.5 20.2857
4835.5 22
4836.5 11.1429
4837.5 39.8571
4838.5 27.1429
4839.5 41.7143
4840.5 12.7143
4841.5 1
4842.5 36.7143
4843.5 34.5714
4844.5 8.42857
4845.5 49.4286
4846.5 24.5714
4847.5 45.7143
4848.5 28.5714
4849.5 52.4286
4850.5 25
4851.5 32
4852.5 19.8571
4853.5 49.5714
4854.5 55.2857
4855.5 46.2857
4856.5 22.4286
4857.5 21.4286
4858.5 15.5714
4859.5 9
4860.5 9.28572
4861.5 38
4862.5 22
4863.5 64.4286
4864.5 16.4286
4865.5 13.7143
4866.5 39.5714
4867.5 11.7143
4868.5 25.4286
4869.5 4.57143
4870.5 -10.4286
4871.5 42.7143
4872.5 29
4873.5 25.4286
4874.5 32.7143
4875.5 10.2857
4876.5 32.7143
4877.5 55.7143
4878.5 11.8571
4879.5 12.4286
4880.5 36
4881.5 33.2857
4882.5 29.1429
4883.5 13
4884.5 0.57143
4885.5 27.5714
4886.5 14.1429
4887.5 46.1429
4888.5 55.7143
4889.5 38.7143
4890.5 42.1429
4891.5 49.5714
4892.5 37.8571
4893.5 34
4894.5 22.5714
4895.5 27.2857
4896.5 22
4897.5 29.1429
4898.5 36.7143
4899.5 33
4900.5 28
4901.5 5.42857
4902.5 47.4286
4903.5 20.4286
4904.5 1.14286
4905.5 59.2857
4906.5 36.2857
4907.5 32.5714
4908.5 45.2857
4909.5 17
4910.5 38.8571
4911.5 29.2857
4912.5 15.5714
4913.5 29.7143
4914.5 29.5714
4915.5 36.5714
4916.5 25.7143
4917.5 41.1429
4918.5 46.4286
4919.5 40.7143
4920.5 53.2857
4921.5 79.4286
4922.5 44.5714
4923.5 33.7143
4924.5 61.4286
4925.5 8.14286
4926.5 58.4286
4927.5 51.4286
4928.5 21.8571
4929.5 50.4286
4930.5 56.5714
4931.5 20
4932.5 -3
4933.5 35.7143
4934.5 10.5714
4935.5 25.4286
4936.5 47
4937.5 20.7143
4938.5 27.2857
4939.5 21.2857
4940.5 41.5714
4941.5 14.4286
4942.5 15.5714
4943.5 37.4286
4944.5 35.7143
4945.5 38
4946.5 28
4947.5 37.8571
4948.5 28.1429
4949.5 2.57143
4950.5 28.7143
4951.5 37.5714
4952.5 28.7143
4953.5 2
4954.5 37.4286
4955.5 28.5714
4956.5 25.4286
4957.5 45.5714
4958.5 13
4959.5 45.5714
4960.5 40.1429
4961.5 45.2857
4962.5 49.4286
4963.5 23
4964.5 33.7143
4965.5 21.1429
4966.5 10.1429
4967.5 35
4968.5 16
4969.5 34.1429
4970.5 10.7143
4971.5 22
4972.5 13.8571
4973.5 23.1429
4974.5 15.1429
4975.5 24.4286
4976.5 32.2857
4977.5 42.4286
4978.5 44.4286
4979.5 33.7143
4980.5 26.8571
4981.5 5
4982.5 51.4286
4983.5 32
4984.5 85.1429
4985.5 25.1429
4986.5 36.1429
4987.5 38.2857
4988.5 9.28572
4989.5 32.5714
4990.5 23.2857
4991.5 35.2857
4992.5 41.2857
4993.5 32.1429
4994.5 10
4995.5 6.28572
4996.5 31.7143
4997.5 33.4286
4998.5 42.2857
4999.5 14.7143
5000.5 11.7143
5001.5 18.1429
5002.5 20.8571
5003.5 8.85714
5004.5 22.2857
5005.5 21.8571
5006.5 8.71429
5007.5 7
5008.5 8
5009.5 34.5714
5010.5 24.2857
5011.5 25
5012.5 24.4286
5013.5 36.7143
5014.5 33.7143
5015.5 24.2857
5016.5 38.2857
5017.5 31.2857
5018.5 23.1429
5019.5 13.8571
5020.5 27.1429
5021.5 5.42857
5022.5 21.2857
5023.5 29.7143
5024.5 40.5714
5025.5 -0.571427
5026.5 26.7143
5027.5 8.28572
5028.5 34.8571
5029.5 26.2857
5030.5 33.2857
5031.5 2.42857
5032.5 19.5714
5033.5 41.5714
5034.5 16
5035.5 28
5036.5 20.5714
5037.5 -0.999998
5038.5 25.2857
5039.5 20.1429
5040.5 0.142859
5041.5 7.57143
5042.5 21.5714
5043.5 38.2857
5044.5 15.8571
5045.5 35
5046.5 34.7143
5047.5 24.7143
5048.5 8.71429
5049.5 30.8571
5050.5 21.1429
5051.5 -4.85714
5052.5 9.14286
5053.5 9.71429
5054.5 19.5714
5055.5 23.5714
5056.5 -0.571427
5057.5 12.5714
5058.5 23.5714
5059.5 22.7143
5060.5 7.71429
5061.5 15.8571
5062.5 45.8571
5063.5 38
5064.5 28.8571
5065.5 24.8571
5066.5 22.7143
5067.5 38.5714
5068.5 62.4286
5069.5 62.8571
5070.5 58.4286
5071.5 9.57143
5072.5 11.4286
5073.5 32
5074.5 -10.5714
5075.5 36.7143
5076.5 35.2857
5077.5 47.1429
5078.5 8.85714
5079.5 28.5714
5080.5 31.7143
5081.5 32.1429
5082.5 48.5714
5083.5 40.8571
5084.5 21
5085.5 37.7143
5086.5 13.8571
5087.5 24.4286
5088.5 31.7143
5089.5 -8.42857
5090.5 22.5714
5091.5 31.8571
5092.5 36.4286
5093.5 31.5714
5094.5 24.8571
5095.5 12.7143
5096.5 15
5097.5 53.2857
5098.5 23.7143
5099.5 26.2857
5100.5 -9.28571
5101.5 29.8571
5102.5 37
5103.5 28.5714
5104.5 26.5714
5105.5 14.4286
5106.5 -5
5107.5 26.1429
5108.5 12.5714
5109.5 41.1429
5110.5 20.2857
5111.5 28.7143
5112.5 40.1429
5113.5 31.5714
5114.5 10.1429
5115.5 32.4286
5116.5 13.5714
5117.5 15.1429
5118.5 18.1429
5119.5 30.8571
5120.5 18
5121.5 10.1429
5122.5 -4.71428
5123.5 2.42857
5124.5 17.1429
5125.5 24.2857
5126.5 34.2857
5127.5 63.8571
5128.5 47.5714
5129.5 57.1429
5130.5 85.1429
5131.5 164.143
5132.5 254.429
5133.5 351.571
5134.5 480.286
5135.5 503.286
5136.5 531
5137.5 353
5138.5 242.714
5139.5 112.857
5140.5 67.7143
5141.5 31.5714
5142.5 27.5714
5143.5 -2
5144.5 23.5714
5145.5 14.7143
5146.5 23.7143
5147.5 28.8571
5148.5 10.2857
5149.5 23.4286
5150.5 16.1429
5151.5 28.8571
5152.5 3.57143
5153.5 32.4286
5154.5 -5.57143
5155.5 16
5156.5 3.14286
5157.5 23.1429
5158.5 12.1429
5159.5 20.8571
5160.5 -7.85714
5161.5 18.5714
5162.5 21.4286
5163.5 -0.999999
5164.5 27.4286
5165.5 17.7143
5166.5 17.1429
5167.5 35.4286
5168.5 8.71429
5169.5 8.28572
5170.5 14.2857
5171.5 20.5714
5172.5 11.5714
5173.5 10.4286
5174.5 16
5175.5 4.42857
5176.5 27.1429
5177.5 1
5178.5 -15
5179.5 15.1429
5180.5 13.2857
5181.5 14.8571
5182.5 15.1429
5183.5 16.8571
5184.5 -6.42857
5185.5 23.7143
5186.5 -1.85714
5187.5 11.5714
5188.5 -2.28571
5189.5 -4.85714
5190.5 -4
5191.5 28.1429
5192.5 32.4286
5193.5 22.7143
5194.5 23.7143
5195.5 38.4286
5196.5 30.8571
5197.5 51.8571
5198.5 38.4286
5199.5 32
5200.5 32.8571
5201.5 15.8571
5202.5 21
5203.5 18.2857
5204.5 50.5714
5205.5 9.71429
5206.5 0.285715
5207.5 22.7143
5208.5 33
5209.5 17
5210.5 7.28572
5211.5 26.1429
5212.5 -3.71428
5213.5 20
5214.5 30
5215.5 25.2857
5216.5 20.5714
5217.5 37.4286
5218.5 118.143
5219.5 107.714
5220.5 222.571
5221.5 373
5222.5 456.429
5223.5 522.429
5224.5 493
5225.5 274.571
5226.5 130
5227.5 72
5228.5 50
5229.5 1.85714
5230.5 27
5231.5 24.5714
5232.5 5
5233.5 31.7143
5234.5 36.4286
5235.5 5.85714
5236.5 21.2857
5237.5 29.5714
5238.5 22.4286
5239.5 -2.14286
5240.5 21.7143
5241.5 26.4286
5242.5 20.4286
5243.5 10.7143
5244.5 5.14286
5245.5 -4.85714
5246.5 10.7143
5247.5 28.5714
5248.5 -5.71428
5249.5 28.8571
5250.5 19.7143
5251.5 9.28572
5252.5 1.57143
5253.5 29.4286
5254.5 -5.85714
5255.5 11.5714
5256.5 20.7143
5257.5 10.7143
5258.5 9.42857
5259.5 35.1429
5260.5 6.71429
5261.5 -3.14286
5262.5 21
5263.5 17.5714
5264.5 33
5265.5 36.2857
5266.5 27.7143
5267.5 19.4286
5268.5 44.2857
5269.5 20.4286
5270.5 28
5271.5 25.1429
5272.5 40.1429
5273.5 74.4286
5274.5 73.5714
5275.5 112.286
5276.5 113
5277.5 106.286
5278.5 101.286
5279.5 97.2857
5280.5 62.4286
5281.5 59.8571
5282.5 36.5714
5283.5 38.1429
5284.5 12.4286
5285.5 40.5714
5286.5 14.5714
5287.5 6
5288.5 2
5289.5 8.57143
5290.5 7.42857
5291.5 34.2857
5292.5 32.5714
5293.5 22.8571
5294.5 33
5295.5 24.2857
5296.5 23.8571
5297.5 16
5298.5 0.142858
5299.5 23
5300.5 23.8571
5301.5 22.2857
5302.5 7.14286
5303.5 23.8571
5304.5 23.5714
5305.5 -7.85714
5306.5 0.857144
5307.5 18.1429
5308.5 7.14286
5309.5 28.5714
5310.5 -7
5311.5 35.2857
5312.5 25.7143
5313.5 7
5314.5 17.4286
5315.5 4.71429
5316.5 17.1429
5317.5 30.1429
5318.5 52.1429
5319.5 35.1429
5320.5 31.7143
5321.5 54.2857
5322.5 62.4286
5323.5 44.5714
5324.5 57.2857
5325.5 25.1429
5326.5 41.7143
5327.5 8.42857
5328.5 45.1429
5329.5 46.5714
5330.5 47.4286
5331.5 45.4286
5332.5 13.5714
5333.5 33.4286
5334.5 12.1429
5335.5 40.7143
5336.5 21.4286
5337.5 18
5338.5 18.7143
5339.5 12.5714
5340.5 6
5341.5 28.4286
5342.5 13.8571
5343.5 19.5714
5344.5 19.8571
5345.5 16
5346.5 19.1429
5347.5 -8.57143
5348.5 16.5714
5349.5 28.4286
5350.5 47.2857
5351.5 -4
5352.5 35.5714
5353.5 7
5354.5 -2.85714
5355.5 -24.7143
5356.5 41.7143
5357.5 40.2857
5358.5 15.8571
5359.5 11.8571
5360.5 2.85714
5361.5 13.2857
5362.5 12.7143
5363.5 16.4286
5364.5 15.8571
5365.5 11.5714
5366.5 25
5367.5 4
5368.5 13
5369.5 16.5714
5370.5 35.7143
5371.5 11
5372.5 10.4286
5373.5 20.4286
5374.5 32.7143
5375.5 20.2857
5376.5 4
5377.5 2.28571
5378.5 32.1429
5379.5 23.5714
5380.5 16.1429
5381.5 26
5382.5 -6.57143
5383.5 20.8571
5384.5 51.1429
5385.5 15.4286
5386.5 64.1429
5387.5 20
5388.5 17.1429
5389.5 -27.1429
5390.5 -4.28571
5391.5 14.8571
5392.5 4.85714
5393.5 8.57143
5394.5 13.1429
5395.5 8.85715
5396.5 -33.8571
5397.5 26.8571
5398.5 38.1429
5399.5 -13.5714
5400.5 27
5401.5 17
5402.5 30.4286
5403.5 11
5404.5 -3.57143
5405.5 -3.57143
5406.5 24.8571
5407.5 17.7143
5408.5 13.5714
5409.5 12.4286
5410.5 5.71429
5411.5 20
5412.5 7.15256e-07
5413.5 10.2857
5414.5 29
5415.5 14.8571
5416.5 15.5714
5417.5 17.7143
5418.5 3.57143
5419.5 30.8571
5420.5 13.2857
5421.5 10
5422.5 23.4286
5423.5 21.5714
5424.5 5
5425.5 18.5714
5426.5 4
5427.5 18
5428.5 9
5429.5 14.1429
5430.5 35.2857
5431.5 46.1429
5432.5 36.1429
5433.5 26.5714
5434.5 47.8571
5435.5 26.7143
5436.5 19.8571
5437.5 27.5714
5438.5 28.7143
5439.5 4.71429
5440.5 30.7143
5441.5 25.2857
5442.5 15.5714
5443.5 6
5444.5 12.2857
5445.5 9.57143
5446.5 19.2857
5447.5 5.28571
5448.5 27.5714
5449.5 9.71429
5450.5 18
5451.5 18.4286
5452.5 35.2857
5453.5 18.1429
5454.5 20
5455.5 12.2857
5456.5 34.1429
5457.5 11.5714
5458.5 39.5714
5459.5 28.1429
5460.5 26.8571
5461.5 -5.42857
5462.5 19.1429
5463.5 10.5714
5464.5 14
5465.5 13.1429
5466.5 20.1429
5467.5 16.1429
5468.5 26.8571
5469.5 -6.42857
5470.5 34.8571
5471.5 19.4286
5472.5 9.28572
5473.5 37.4286
5474.5 14.5714
5475.5 1.85714
5476.5 -12.5714
5477.5 -8.28571
5478.5 4.42857
5479.5 6
5480.5 10.1429
5481.5 23.2857
5482.5 14.8571
5483.5 25.2857
5484.5 32.5714
5485.5 48
5486.5 11.2857
5487.5 9.14286
5488.5 15.7143
5489.5 7.57143
5490.5 -2.28571
5491.5 31
5492.5 6.42857
5493.5 25.8571
5494.5 26.4286
5495.5 18.1429
5496.5 5.85714
5497.5 3.28571
5498.5 10.8571
5499.5 42.8571
5500.5 17.7143
5501.5 9.71429
5502.5 3.14286
5503.5 25.8571
5504.5 35.5714
5505.5 13.5714
5506.5 31.1429
5507.5 25.7143
5508.5 17.8571
5509.5 22.7143
5510.5 24.7143
5511.5 25
5512.5 13.8571
5513.5 -8.28571
5514.5 19.5714
5515.5 20.8571
5516.5 -6.14286
5517.5 3
5518.5 14.4286
5519.5 3.85714
5520.5 33.7143
5521.5 38.4286
5522.5 10.2857
5523.5 -4.85714
5524.5 2.71429
5525.5 14.2857
5526.5 26
5527.5 32.7143
5528.5 0.857144
5529.5 25.8571
5530.5 0.714286
5531.5 -5.14286
5532.5 26.8571
5533.5 19.1429
5534.5 38.1429
5535.5 15.4286
5536.5 22.7143
5537.5 12.8571
5538.5 2
5539.5 19.7143
5540.5 6.71429
5541.5 8
5542.5 18.5714
5543.5 20
5544.5 0.142858
5545.5 18.4286
5546.5 10.2857
5547.5 10.7143
5548.5 26.8571
5549.5 -6.14286
5550.5 17.4286
5551.5 23.2857
5552.5 18.4286
5553.5 18.2857
5554.5 28.2857
5555.5 5.42857
5556.5 11.5714
5557.5 -0.285713
5558.5 17.7143
5559.5 -4.71428
5560.5 -7.71428
5561.5 20.7143
5562.5 41.1429
5563.5 16.1429
5564.5 21.7143
5565.5 14.1429
5566.5 20.2857
5567.5 13.8571
5568.5 3.57143
5569.5 21
5570.5 3.71429
5571.5 9.57143
5572.5 10.1429
5573.5 30.2857
5574.5 42
5575.5 2.28572
5576.5 42.2857
5577.5 33.1429
5578.5 18
5579.5 8.14286
5580.5 41.7143
5581.5 22
5582.5 27.8571
5583.5 16.5714
5584.5 -12.2857
5585.5 -1.14286
5586.5 23
5587.5 50.2857
5588.5 67.2857
5589.5 43.4286
5590.5 57
5591.5 64.2857
5592.5 86
5593.5 92.1429
5594.5 72.4286
5595.5 37
5596.5 53.8571
5597.5 14.4286
5598.5 24.1429
5599.5 18.1429
5600.5 19
5601.5 14.1429
5602.5 22.8571
5603.5 9
5604.5 37.1429
5605.5 5
5606.5 20.4286
5607.5 -32.1429
5608.5 -1.28571
5609.5 7.57143
5610.5 -21
5611.5 -3.71428
5612.5 10
5613.5 30.2857
5614.5 8.14286
5615.5 8.85714
5616.5 5.42857
5617.5 4
5618.5 32
5619.5 10.7143
5620.5 17.7143
5621.5 -1.42857
5622.5 7.85714
5623.5 41.5714
5624.5 20.1429
5625.5 31.7143
5626.5 10.8571
5627.5 15.4286
5628.5 -1.14286
5629.5 32.2857
5630.5 -4.28571
5631.5 14.5714
5632.5 12.4286
5633.5 -2.71429
5634.5 7.42857
5635.5 16.5714
5636.5 27.1429
5637.5 6.71429
5638.5 28.1429
5639.5 10.8571
5640.5 15.1429
5641.5 29.8571
5642.5 28.7143
5643.5 27.7143
5644.5 15.4286
5645.5 -1.42857
5646.5 7.71429
5647.5 22.2857
5648.5 37.8571
5649.5 9.28571
5650.5 16
5651.5 14.7143
5652.5 16.4286
5653.5 9.14286
5654.5 22.7143
5655.5 9.14286
5656.5 5.85714
5657.5 10.5714
5658.5 3.57143
5659.5 -12.4286
5660.5 13.7143
5661.5 -0.142857
5662.5 -10.8571
5663.5 7.42857
5664.5 24.2857
5665.5 15.4286
5666.5 2.28571
5667.5 17.1429
5668.5 7.85714
5669.5 23.7143
5670.5 -16.7143
5671.5 2.42857
5672.5 33.8571
5673.5 10.7143
5674.5 -0.571428
5675.5 -0.857142
5676.5 15
5677.5 15.1429
5678.5 8
5679.5 5
5680.5 6.28571
5681.5 17.7143
5682.5 3.42857
5683.5 17.4286
5684.5 -1.57143
5685.5 4
5686.5 9.28571
5687.5 6.71429
5688.5 15
5689.5 23.1429
5690.5 14
5691.5 9.57143
5692.5 14.1429
5693.5 8.71429
5694.5 22.2857
5695.5 13.2857
5696.5 6.28571
5697.5 11.7143
5698.5 1.85714
5699.5 25.2857
5700.5 3.57143
5701.5 11.2857
5702.5 8.71429
5703.5 11.7143
5704.5 25
5705.5 27.1429
5706.5 42.5714
5707.5 27
5708.5 28.5714
5709.5 56.5714
5710.5 44.1429
5711.5 72.7143
5712.5 14.7143
5713.5 28
5714.5 20.5714
5715.5 11.7143
5716.5 3.85714
5717.5 7.71429
5718.5 -23.4286
5719.5 37.4286
5720.5 20.1429
5721.5 20.7143
5722.5 16.2857
5723.5 20.5714
5724.5 -0.285714
5725.5 9.28571
5726.5 6.28571
5727.5 28.1429
5728.5 4.42857
5729.5 28.4286
5730.5 12.8571
5731.5 17.7143
5732.5 37.1429
5733.5 24.7143
5734.5 10.7143
5735.5 22.2857
5736.5 28.8571
5737.5 13
5738.5 19.4286
5739.5 15.1429
5740.5 8.71429
5741.5 15
5742.5 4.42857
5743.5 21.1429
5744.5 -3.85714
5745.5 15
5746.5 17.5714
5747.5 9.57143
5748.5 10.2857
5749.5 14.2857
5750.5 -2.42857
5751.5 5.71429
5752.5 1.57143
5753.5 10.7143
5754.5 -6
5755.5 10.2857
5756.5 9.28572
5757.5 8.34465e-07
5758.5 4.85714
5759.5 8
5760.5 -9.71429
5761.5 10.7143
5762.5 -11.8571
5763.5 11.7143
5764.5 9.85714
5765.5 32.1429
5766.5 -9.14286
5767.5 -0.428571
5768.5 0.857143
5769.5 9.57143
5770.5 1
5771.5 -0.428571
5772.5 -0.285714
5773.5 3.42857
5774.5 -5.42857
5775.5 2
5776.5 13
5777.5 13.7143
5778.5 15.7143
5779.5 14.5714
5780.5 26.1429
5781.5 50.4286
5782.5 31.5714
5783.5 48.1429
5784.5 94.7143
5785.5 141.286
5786.5 218.286
5787.5 259.857
5788.5 248.143
5789.5 266.429
5790.5 189.429
5791.5 112
5792.5 86.2857
5793.5 38.1429
5794.5 28.7143
5795.5 22.1429
5796.5 -2.71429
5797.5 -15.7143
5798.5 -3.14286
5799.5 -10
5800.5 14.1429
5801.5 5.85714
5802.5 0.428572
5803.5 6.85714
5804.5 6.71429
5805.5 6.57143
5806.5 12.5714
5807.5 8.57143
5808.5 4.14286
5809.5 25.5714
5810.5 0.857143
5811.5 3
5812.5 0.571429
5813.5 7.85714
5814.5 3.42857
5815.5 12.5714
5816.5 -5.42857
5817.5 -0.428571
5818.5 7.28571
5819.5 17.7143
5820.5 16.4286
5821.5 40.5714
5822.5 9
5823.5 5.57143
5824.5 42.7143
5825.5 6
5826.5 21.2857
5827.5 10.7143
5828.5 20.7143
5829.5 35.5714
5830.5 57
5831.5 72.2857
5832.5 103.714
5833.5 126.714
5834.5 101.143
5835.5 87.2857
5836.5 86.7143
5837.5 79.5714
5838.5 75.5714
5839.5 68.1429
5840.5 129.429
5841.5 114.286
5842.5 119.143
5843.5 101.286
5844.5 59.1429
5845.5 24.1429
5846.5 22.7143
5847.5 28
5848.5 6.14286
5849.5 9.42857
5850.5 12.7143
5851.5 6.85714
5852.5 13.7143
5853.5 -16.1429
5854.5 3.85714
5855.5 -1.14286
5856.5 3.71429
5857.5 20.4286
5858.5 -9.28571
5859.5 4.85714
5860.5 12.8571
5861.5 5.57143
5862.5 1.42857
5863.5 6.57143
5864.5 -9
5865.5 0.571429
5866.5 13
5867.5 -0.142857
5868.5 -19.4286
5869.5 -5.57143
5870.5 12.8571
5871.5 -0.142857
5872.5 2.85714
5873.5 -4.14286
5874.5 9
5875.5 -4.14286
5876.5 -12.4286
5877.5 2.71429
5878.5 -8.14286
5879.5 7.85714
5880.5 17
5881.5 11.4286
5882.5 -0.142857
5883.5 -7.28571
5884.5 0.285715
5885.5 18.5714
5886.5 1.71429
5887.5 -3.57143
5888.5 18.1429
5889.5 2.42857
5890.5 -2.42857
5891.5 12.4286
5892.5 -11.7143
5893.5 1.57143
5894.5 15.8571
5895.5 -6
5896.5 0.285716
5897.5 24
5898.5 26.2857
5899.5 37.4286
5900.5 4.14286
5901.5 -5.28571
5902.5 -10.2857
5903.5 0.428573
5904.5 9.71429
5905.5 5
5906.5 -6.28571
5907.5 6.85714
5908.5 7.85714
5909.5 -3.42857
5910.5 10
5911.5 15.4286
5912.5 9
5913.5 -6.42857
5914.5 21.4286
5915.5 19.8571
5916.5 3.71429
5917.5 0.857143
5918.5 -1.14286
5919.5 20.8571
5920.5 24.1429
5921.5 6.85714
5922.5 15.5714
5923.5 15.2857
5924.5 8.57143
5925.5 -11.5714
5926.5 -4
5927.5 5.28571
5928.5 23.2857
5929.5 -12.1429
5930.5 13.1429
5931.5 10.7143
5932.5 21.2857
5933.5 4.14286
5934.5 3.57143
5935.5 17.8571
5936.5 2.14286
5937.5 8
5938.5 -5.28571
5939.5 11.2857
5940.5 6.57143
5941.5 -0.285714
5942.5 0.714286
5943.5 14.1429
5944.5 -2.42857
5945.5 -20.5714
5946.5 -10.7143
5947.5 -5.85714
5948.5 12
5949.5 0.428572
5950.5 -7.42857
5951.5 -0.285714
5952.5 5.14286
5953.5 -16
5954.5 5.42857
5955.5 7.71429
5956.5 2.14286
5957.5 17.8571
5958.5 8.42857
5959.5 -15.1429
5960.5 -8.71429
5961.5 9.14286
5962.5 0.428572
5963.5 1.71429
5964.5 3.85714
5965.5 12.4286
5966.5 4.14286
5967.5 -2.28571
5968.5 0.428572
5969.5 18.1429
5970.5 5
5971.5 15.4286
5972.5 1
5973.5 7
5974.5 1.14286
5975.5 5.71429
5976.5 13.4286
5977.5 4.71429
5978.5 -0.142857
5979.5 8.57143
5980.5 -1.71429
5981.5 4.85714
5982.5 -15.2857
5983.5 3.14286
5984.5 9.71429
5985.5 4
5986.5 13.8571
5987.5 -7.28571
5988.5 12.7143
5989.5 3.71429
5990.5 20.2857
5991.5 5.28571
5992.5 -1.71429
5993.5 -12.8571
5994.5 0.285715
5995.5 17
5996.5 6.14286
5997.5 -9.42857
5998.5 19.1429
5999.5 3.71429
6000.5 17.4286
6001.5 -10.5714
6002.5 15.5714
6003.5 10.1429
6004.5 -15.2857
6005.5 -14
6006.5 13.1429
6007.5 -0.714285
6008.5 12.8571
6009.5 5.28571
6010.5 -3
6011.5 -4.71429
6012.5 3.42857
6013.5 1.28571
6014.5 10.7143
6015.5 -6.14286
6016.5 3.71429
6017.5 7.85714
6018.5 8.42857
6019.5 7.71429
6020.5 -5.14286
6021.5 0.285715
6022.5 3.28571
6023.5 -5
6024.5 -5.42857
6025.5 3.14286
6026.5 0.857143
6027.5 8
6028.5 12.8571
6029.5 22.8571
6030.5 -5.42857
6031.5 19.5714
6032.5 -23.8571
6033.5 2.28572
6034.5 25
6035.5 4.85714
6036.5 -0.42857
6037.5 1.28572
6038.5 1.57143
6039.5 -1.85714
6040.5 -14.5714
6041.5 3.28571
6042.5 3
6043.5 6.14286
6044.5 -0.857143
6045.5 -1.28571
6046.5 3.28571
6047.5 21.2857
6048.5 -1.42857
6049.5 -6
6050.5 0.285715
6051.5 -13.4286
6052.5 -6.85714
6053.5 9.28571
6054.5 9.57143
6055.5 -4.42857
6056.5 -10.8571
6057.5 13.7143
6058.5 -13.7143
6059.5 1.71429
6060.5 2.38419e-07
6061.5 -5
6062.5 -5.71429
6063.5 -5.42857
6064.5 6.57143
6065.5 4.85714
6066.5 -2
6067.5 12.1429
6068.5 -3.85714
6069.5 -2.57143
6070.5 10
6071.5 -6
6072.5 17.5714
6073.5 11.8571
6074.5 -17.2857
6075.5 -6.14286
6076.5 2.85714
6077.5 7.28571
6078.5 -11.4286
6079.5 5.57143
6080.5 9.28571
6081.5 9.42857
6082.5 1.28571
6083.5 -2.85714
6084.5 9.85714
6085.5 13.1429
6086.5 0.428572
6087.5 5.42857
6088.5 2
6089.5 -3.85714
6090.5 17.1429
6091.5 -1.42857
6092.5 5.57143
6093.5 2.71429
6094.5 -4.28571
6095.5 1
6096.5 10.7143
6097.5 4
6098.5 25.1429
6099.5 50.5714
6100.5 84.4286
6101.5 87
6102.5 131.143
6103.5 153.857
6104.5 161.857
6105.5 126.571
6106.5 63.1429
6107.5 26
6108.5 17.7143
6109.5 11.7143
6110.5 7
6111.5 -7.14286
6112.5 -13.4286
6113.5 -9.85714
6114.5 6.14286
6115.5 8
6116.5 -2.28571
6117.5 12.2857
6118.5 0.285715
6119.5 6.28571
6120.5 4.28572
6121.5 1
6122.5 -40.1429
6123.5 12.1429
6124.5 -11.2857
6125.5 47.8571
6126.5 15.8571
6127.5 -6.42857
6128.5 -15.8571
6129.5 8.28571
6130.5 3.57628e-07
6131.5 5
6132.5 -5
6133.5 -14.7143
6134.5 3.28571
6135.5 3.14286
6136.5 2.71429
6137.5 14
6138.5 2.71429
6139.5 6.85714
6140.5 -3.42857
6141.5 4.71429
6142.5 4.71429
6143.5 0.857143
6144.5 14
6145.5 10.4286
6146.5 7.14286
6147.5 8.85714
6148.5 -2.42857
6149.5 2.57143
6150.5 5.85714
6151.5 -3.57143
6152.5 3.71429
6153.5 -0.428571
6154.5 -17.1429
6155.5 -0.857143
6156.5 6.28571
6157.5 -8.14286
6158.5 -8.57143
6159.5 6
6160.5 5.85714
6161.5 0.428572
6162.5 2.14286
6163.5 17
6164.5 -4.85714
6165.5 3.42857
6166.5 -1.71429
6167.5 1.28571
6168.5 17.1429
6169.5 11.1429
6170.5 -9.42857
6171.5 6.28571
6172.5 21.4286
6173.5 5.85714
6174.5 11.7143
6175.5 12
6176.5 -1
6177.5 3.85714
6178.5 1.85714
6179.5 12.4286
6180.5 5
6181.5 1.42857
6182.5 9.28571
6183.5 10.5714
6184.5 22.4286
6185.5 6.85714
6186.5 -6
6187.5 10.8571
6188.5 4.71429
6189.5 -11.4286
6190.5 13.8571
6191.5 7.14286
6192.5 -4.14286
6193.5 -8.28571
6194.5 3.14286
6195.5 -4.57143
6196.5 -0.285714
6197.5 -4
6198.5 5.42857
6199.5 -1.28571
6200.5 11.4286
6201.5 3
6202.5 10.8571
6203.5 -2.71429
6204.5 9.57143
6205.5 7
6206.5 4.42857
6207.5 -2.28571
6208.5 -4.57143
6209.5 -4.85714
6210.5 -2.57143
6211.5 9.14286
6212.5 6
6213.5 8.42857
6214.5 2.28571
6215.5 3.28571
6216.5 4.57143
6217.5 4.14286
6218.5 12.1429
6219.5 -11.1429
6220.5 -6.57143
6221.5 -10.2857
6222.5 7
6223.5 23.8571
6224.5 0.714287
6225.5 -19
6226.5 2
6227.5 -3.57143
6228.5 1.85714
6229.5 -26.5714
6230.5 1.42857
6231.5 -7.57143
6232.5 5
6233.5 6.57143
6234.5 0.285715
6235.5 2.57143
6236.5 1.14286
6237.5 -1
6238.5 -5.71429
6239.5 14.5714
6240.5 -1.42857
6241.5 4.42857
6242.5 2.28571
6243.5 2.71429
6244.5 7.57143
6245.5 -8.42857
6246.5 7.57143
6247.5 6.28571
6248.5 -0.285714
6249.5 -4.42857
6250.5 0.285715
6251.5 -6.85714
6252.5 1.14286
6253.5 3.85714
6254.5 12
6255.5 6.28571
6256.5 12
6257.5 -8
6258.5 12
6259.5 3.57143
6260.5 -0.142857
6261.5 -6.85714
6262.5 13.5714
6263.5 2.14286
6264.5 -9.42857
6265.5 3.14286
6266.5 12.4286
6267.5 1.42857
6268.5 0.857143
6269.5 4.71429
6270.5 9.14286
6271.5 -3.71429
6272.5 2.57143
6273.5 1.71429
6274.5 8
6275.5 1
6276.5 -3.71429
6277.5 4.57143
6278.5 6.42857
6279.5 11.2857
6280.5 -7.42857
6281.5 -0.142857
6282.5 0.714286
6283.5 2.71429
6284.5 1.57143
6285.5 -0.714285
6286.5 2.28571
6287.5 -4.28571
6288.5 -1
6289.5 3.42857
6290.5 1.85714
6291.5 3.28571
6292.5 -3.57143
6293.5 10.8571
6294.5 7.14286
6295.5 12.8571
6296.5 3
6297.5 12.5714
6298.5 7.28571
6299.5 9.14286
6300.5 -6.28571
6301.5 11.2857
6302.5 -5.57143
6303.5 6.28571
6304.5 5.71429
6305.5 3.42857
6306.5 4.14286
6307.5 2.57143
6308.5 8
6309.5 -7.85714
6310.5 -2
6311.5 -4.28571
6312.5 -3.42857
6313.5 12.7143
6314.5 2.14286
6315.5 10.8571
6316.5 7.57143
6317.5 3.71429
6318.5 13.2857
6319.5 8.71429
6320.5 -1.42857
6321.5 -6.14286
6322.5 3.71429
6323.5 -5.57143
6324.5 7.42857
6325.5 2.28571
6326.5 -0.571428
6327.5 6.57143
6328.5 14.5714
6329.5 15
6330.5 12.5714
6331.5 4.28571
6332.5 -0.571428
6333.5 -2
6334.5 5
6335.5 9.28571
6336.5 7.57143
6337.5 10.5714
6338.5 12.7143
6339.5 1.14286
6340.5 11
6341.5 -6.57143
6342.5 11.1429
6343.5 4.42857
6344.5 12
6345.5 5
6346.5 6.57143
6347.5 10.5714
6348.5 4.42857
6349.5 4.14286
6350.5 20.7143
6351.5 32.5714
6352.5 20
6353.5 7.57143
6354.5 24
6355.5 29
6356.5 18.5714
6357.5 5.85714
6358.5 -4.42857
6359.5 1.14286
6360.5 2
6361.5 12.5714
6362.5 -2.85714
6363.5 3.85714
6364.5 -4.14286
6365.5 -6.42857
6366.5 9.42857
6367.5 0.285715
6368.5 4.14286
6369.5 -5.71429
6370.5 1
6371.5 0.857143
6372.5 -1.14286
6373.5 -2.71429
6374.5 1.14286
6375.5 -2.71429
6376.5 6.71429
6377.5 4.14286
6378.5 0.428572
6379.5 3.85714
6380.5 1.28571
6381.5 -2.85714
6382.5 5.28571
6383.5 10.7143
6384.5 3.85714
6385.5 -0.857143
6386.5 -12.1429
6387.5 10.8571
6388.5 -3.71429
6389.5 11.7143
6390.5 3.85714
6391.5 -2
6392.5 0.714286
6393.5 1.42857
6394.5 -6
6395.5 -0.142857
6396.5 4.28571
6397.5 -0.571428
6398.5 6.28571
6399.5 1
6400.5 0.714286
6401.5 10.7143
6402.5 11.4286
6403.5 2.71429
6404.5 2.71429
6405.5 -13.8571
6406.5 14.4286
6407.5 0.857143
6408.5 -3
6409.5 7.42857
6410.5 0.428572
6411.5 5.14286
6412.5 -2.57143
6413.5 -1.57143
6414.5 6.42857
6415.5 8.28571
6416.5 5
6417.5 4
6418.5 7.14286
6419.5 0.714286
6420.5 -3.71429
6421.5 3.57628e-07
6422.5 -4.14286
6423.5 -4.85714
6424.5 -8
6425.5 5.14286
6426.5 -8.71429
6427.5 10.4286
6428.5 7.14286
6429.5 0.714286
6430.5 -0.285714
6431.5 -0.142857
6432.5 4.71429
6433.5 -0.857143
6434.5 6.71429
6435.5 0.142857
6436.5 -1.85714
6437.5 -4.14286
6438.5 1.42857
6439.5 -6.85714
6440.5 8.57143
6441.5 -1
6442.5 -3.85714
6443.5 1.14286
6444.5 -0.428571
6445.5 -2.57143
6446.5 2.42857
6447.5 2.28571
6448.5 0.428572
6449.5 0.857143
6450.5 -6.42857
6451.5 0.428572
6452.5 0.142857
6453.5 -10.2857
6454.5 3.71429
6455.5 -5.28571
6456.5 -7.71429
6457.5 -6.71429
6458.5 -5.14286
6459.5 -9.28571
6460.5 1.19209e-07
6461.5 3.28571
6462.5 4.42857
6463.5 -0.571428
6464.5 3.57143
6465.5 6.71429
6466.5 0.285715
6467.5 7.28571
6468.5 2.57143
6469.5 3.57143
6470.5 -1.57143
6471.5 -2
6472.5 5.14286
6473.5 0.142857
6474.5 18.1429
6475.5 -2.85714
6476.5 27.1429
6477.5 21.1429
6478.5 27.8571
6479.5 23.7143
6480.5 25
6481.5 38.2857
6482.5 10
6483.5 -8
6484.5 -3.85714
6485.5 3.71429
6486.5 -5.85714
6487.5 5.42857
6488.5 -5.14286
6489.5 -3.85714
6490.5 4
6491.5 0.857143
6492.5 -0.428571
6493.5 -6.57143
6494.5 3.71429
6495.5 2
6496.5 7.71429
6497.5 -2.85714
6498.5 -9.71429
6499.5 1.14286
6500.5 -3.42857
6501.5 -1.28571
6502.5 9
6503.5 -2.85714
6504.5 7.42857
6505.5 7.85714
6506.5 5.71429
6507.5 -7
6508.5 6
6509.5 3.71429
6510.5 0.142857
6511.5 2.14286
6512.5 -0.285714
6513.5 7.42857
6514.5 -3.71429
6515.5 3
6516.5 3
6517.5 9.57143
6518.5 12.8571
6519.5 6.28571
6520.5 1.42857
6521.5 5.14286
6522.5 -2.14286
6523.5 5
6524.5 2
6525.5 12.4286
6526.5 -2
6527.5 4.71429
6528.5 6.57143
6529.5 3.42857
6530.5 6.85714
6531.5 -2.28571
6532.5 10
6533.5 5.14286
6534.5 -3.14286
6535.5 6
6536.5 -2.42857
6537.5 1
6538.5 4.14286
6539.5 -4
6540.5 -2.14286
6541.5 12.5714
6542.5 -6.28571
6543.5 0.857144
6544.5 -7.42857
6545.5 3.57143
6546.5 -9.14286
6547.5 15.8571
6548.5 5
6549.5 18.8571
6550.5 4.71429
6551.5 -5.42857
6552.5 4
6553.5 18.5714
6554.5 -0.142857
6555.5 5.14286
6556.5 9
6557.5 -2.14286
6558.5 1.14286
6559.5 3.85714
6560.5 -14.7143
6561.5 0.714286
6562.5 2.14286
6563.5 -4.28571
6564.5 12.1429
6565.5 -1.42857
6566.5 -9.42857
6567.5 1.85714
6568.5 -1.85714
6569.5 9.14286
6570.5 -9
6571.5 -3.57143
6572.5 -0.714285
6573.5 -1.57143
6574.5 -4.14286
6575.5 -2.57143
6576.5 -7
6577.5 -5
6578.5 6.28571
6579.5 -2.14286
6580.5 -0.142857
6581.5 0.285714
6582.5 3.85714
6583.5 -2.28571
6584.5 2.14286
6585.5 1
6586.5 -0.285714
6587.5 -2
6588.5 -3.42857
6589.5 -6.14286
6590.5 8.57143
6591.5 9.42857
6592.5 -3.57143
6593.5 3.28571
6594.5 1.28571
6595.5 -3
6596.5 7.42857
6597.5 9.14286
6598.5 9.28571
6599.5 -3.85714
6600.5 9.71429
6601.5 1.28571
6602.5 -0.142857
6603.5 -3.85714
6604.5 1.85714
6605.5 4.57143
6606.5 -0.285714
6607.5 1.19209e-07
6608.5 8.57143
6609.5 2.14286
6610.5 11.5714
6611.5 2
6612.5 1.57143
6613.5 10.1429
6614.5 7.42857
6615.5 2
6616.5 4
6617.5 9.28571
6618.5 -4.57143
6619.5 -1.42857
6620.5 8.28571
6621.5 3.57143
6622.5 -8.71429
6623.5 -3
6624.5 1.28571
6625.5 3.57143
6626.5 1
6627.5 -2.85714
6628.5 -1.85714
6629.5 3.85714
6630.5 0.571429
6631.5 6
6632.5 -1.57143
6633.5 10.1429
6634.5 7.14286
6635.5 0.285714
6636.5 1.85714
6637.5 3.85714
6638.5 3.85714
6639.5 2.57143
6640.5 4.42857
6641.5 9.14286
6642.5 1.71429
6643.5 -0.285714
6644.5 5.28571
6645.5 0.428572
6646.5 1
6647.5 -7.28571
6648.5 2.14286
6649.5 1.71429
6650.5 -2.42857
6651.5 -7.28571
6652.5 4.14286
6653.5 0.571429
6654.5 -1.57143
6655.5 4
6656.5 -2.28571
6657.5 -3.85714
6658.5 0.428572
6659.5 -5.85714
6660.5 5.14286
6661.5 0.857143
6662.5 -0.714286
6663.5 -3
6664.5 5.85714
6665.5 -4
6666.5 2
6667.5 1.19209e-07
6668.5 6.85714
6669.5 2.71429
6670.5 2.85714
6671.5 1.42857
6672.5 0.714286
6673.5 -1.85714
6674.5 -3.57143
6675.5 -6.28571
6676.5 5.42857
6677.5 -0.428571
6678.5 1.19209e-07
6679.5 5.57143
6680.5 -5
6681.5 0.428572
6682.5 0.285714
6683.5 1.19209e-07
6684.5 0.714286
6685.5 5.57143
6686.5 -0.857143
6687.5 1.42857
6688.5 -1.42857
6689.5 -1.71429
6690.5 6.14286
6691.5 -8.14286
6692.5 -4.71429
6693.5 2.28571
6694.5 -3.42857
6695.5 1
6696.5 3.85714
6697.5 -4.71429
6698.5 -0.857143
6699.5 5.42857
6700.5 4.14286
6701.5 -3
6702.5 -0.428571
6703.5 4.57143
6704.5 1
6705.5 -5.57143
6706.5 -0.857143
6707.5 -3
6708.5 -2.42857
6709.5 -4.28571
6710.5 1.14286
6711.5 1.57143
6712.5 -1.71429
6713.5 10.4286
6714.5 -1.42857
6715.5 -5.42857
6716.5 -4.14286
6717.5 6.85714
6718.5 4.57143
6719.5 6.57143
6720.5 -5
6721.5 -1.28571
6722.5 11.2857
6723.5 -2.85714
6724.5 1
6725.5 -2.57143
6726.5 -4.28571
6727.5 5
6728.5 -4.28571
6729.5 3
6730.5 -3
6731.5 -7
6732.5 3.42857
6733.5 -3.14286
6734.5 -3.57143
6735.5 1
6736.5 1
6737.5 1.85714
6738.5 0.571429
6739.5 2.14286
6740.5 11.1429
6741.5 3
6742.5 -3.85714
6743.5 5.57143
6744.5 8.42857
6745.5 -3.14286
6746.5 2.71429
6747.5 -7.42857
6748.5 1.42857
6749.5 4.14286
6750.5 -15.2857
6751.5 -4.71429
6752.5 -6.57143
6753.5 6.71429
6754.5 0.142857
6755.5 5.28571
6756.5 5.85714
6757.5 -4
6758.5 3.42857
6759.5 -4
6760.5 3.57143
6761.5 -3.85714
6762.5 7.42857
6763.5 -6
6764.5 -6.71429
6765.5 6.28571
6766.5 -12.2857
6767.5 -0.571428
6768.5 8.57143
6769.5 12.4286
6770.5 8.14286
6771.5 -7.28571
6772.5 -1.85714
6773.5 9.42857
6774.5 9.42857
6775.5 1.71429
6776.5 0.428572
6777.5 -1.28571
6778.5 -4.14286
6779.5 6
6780.5 -3.28571
6781.5 3.14286
6782.5 7.42857
6783.5 6.85714
6784.5 -2
6785.5 9.85714
6786.5 3.14286
6787.5 -2.28571
6788.5 -10.8571
6789.5 -4.28571
6790.5 3
6791.5 -5.57143
6792.5 -6.85714
6793.5 5.14286
6794.5 -5.28571
6795.5 -1.57143
6796.5 -1.71429
6797.5 2.57143
6798.5 -1.71429
6799.5 -5.28571
6800.5 3.14286
6801.5 4
6802.5 5.57143
6803.5 -4.57143
6804.5 1
6805.5 -11
6806.5 6
6807.5 2
6808.5 5.42857
6809.5 1.57143
6810.5 0.428572
6811.5 -0.714286
6812.5 5.85714
6813.5 8.57143
6814.5 4.28571
6815.5 -2
6816.5 -5.85714
6817.5 -1
6818.5 3.14286
6819.5 -6
6820.5 -3.57143
6821.5 -6.14286
6822.5 -9.42857
6823.5 -5.85714
6824.5 -3.85714
6825.5 -0.428571
6826.5 -9.71429
6827.5 3
6828.5 0.714286
6829.5 2.14286
6830.5 -1.42857
6831.5 -3
6832.5 11.5714
6833.5 -1.28571
6834.5 -4.28571
6835.5 0.142857
6836.5 3
6837.5 -1.57143
6838.5 -1
6839.5 -0.857143
6840.5 23
6841.5 5.14286
6842.5 1
6843.5 2.42857
6844.5 7.57143
6845.5 4.42857
6846.5 -0.714286
6847.5 -8.42857
6848.5 -1.71429
6849.5 -2.28571
6850.5 4.28571
6851.5 -2.14286
6852.5 8.57143
6853.5 8.14286
6854.5 5.28571
6855.5 2.57143
6856.5 2.28571
6857.5 8.42857
6858.5 0.714286
6859.5 19.5714
6860.5 15.8571
6861.5 15.2857
6862.5 25.8571
6863.5 20.7143
6864.5 36.8571
6865.5 20.5714
6866.5 16.8571
6867.5 9.28571
6868.5 6.57143
6869.5 13.1429
6870.5 1.28571
6871.5 4.85714
6872.5 -12.5714
6873.5 -3.42857
6874.5 -8.71429
6875.5 -0.285714
6876.5 -3
6877.5 -1.42857
6878.5 -6.28571
6879.5 5.14286
6880.5 -14.4286
6881.5 3.28571
6882.5 -0.142857
6883.5 1.42857
6884.5 1.85714
6885.5 -0.428571
6886.5 -5.28571
6887.5 3.85714
6888.5 2.14286
6889.5 0.571429
6890.5 -5
6891.5 2
6892.5 -3
6893.5 -2.71429
6894.5 -1.42857
6895.5 -0.571428
6896.5 -0.428571
6897.5 -7.57143
6898.5 1.19209e-07
6899.5 -1.42857
6900.5 -8.42857
6901.5 2
6902.5 -14.8571
6903.5 5.28571
6904.5 -7.85714
6905.5 5.28571
6906.5 -4
6907.5 -2.57143
6908.5 5.28571
6909.5 1.71429
6910.5 7.28571
6911.5 -3.57143
6912.5 6.85714
6913.5 -4.85714
6914.5 -1.42857
6915.5 -2.71429
6916.5 -9.14286
6917.5 0.571429
6918.5 2.57143
6919.5 1.85714
6920.5 -1
6921.5 -8.71429
6922.5 -0.571428
6923.5 -3
6924.5 -5
6925.5 -2.28571
6926.5 5.42857
6927.5 -14.2857
6928.5 -0.428571
6929.5 4.71429
6930.5 6.14286
6931.5 2.57143
6932.5 -15.2857
6933.5 -8.85714
6934.5 11.5714
6935.5 -10.4286
6936.5 6
6937.5 2.28571
6938.5 -8.57143
6939.5 -4.14286
6940.5 0.714286
6941.5 -2.28571
6942.5 1.85714
6943.5 -10.4286
6944.5 3.57143
6945.5 -1.57143
6946.5 1.71429
6947.5 -1.71429
6948.5 -0.142857
6949.5 -1.14286
6950.5 -8.57143
6951.5 5.85714
6952.5 -1.71429
6953.5 -8.85714
6954.5 -2.28571
6955.5 -6.85714
6956.5 2.85714
6957.5 -5.85714
6958.5 5.42857
6959.5 4.57143
6960.5 0.428571
6961.5 9.71429
6962.5 2.57143
6963.5 -8.85714
6964.5 -3.28571
6965.5 7.14286
6966.5 3.85714
6967.5 -5.85714
6968.5 4.42857
6969.5 4.57143
6970.5 -0.142857
6971.5 11.7143
6972.5 2.28571
6973.5 -3.28571
6974.5 7.57143
6975.5 -1.28571
6976.5 9.57143
6977.5 -1.71429
6978.5 -5.14286
6979.5 1.42857
6980.5 -6
6981.5 3.28571
6982.5 2
6983.5 1
6984.5 3.85714
6985.5 -1.71429
6986.5 3.42857
6987.5 6.14286
6988.5 -7.57143
6989.5 3.85714
6990.5 1.42857
6991.5 6.14286
6992.5 3.71429
6993.5 -4.71429
6994.5 8.42857
6995.5 0.571429
6996.5 7.42857
6997.5 4.28571
6998.5 6.14286
6999.5 7.85714
7000.5 1.71429
7001.5 -2.57143
7002.5 -2.42857
7003.5 -2.71429
7004.5 4.42857
7005.5 -2.71429
7006.5 1.85714
7007.5 0.571429
7008.5 3.14286
7009.5 -1.28571
7010.5 5.28571
7011.5 4.42857
7012.5 4.85714
7013.5 0.285714
7014.5 -2.42857
7015.5 4
7016.5 -2.28571
7017.5 -2.71429
7018.5 5.14286
7019.5 0.285714
7020.5 1.28571
7021.5 -4.71429
7022.5 0.571429
7023.5 -3
7024.5 1.19209e-07
7025.5 -0.428571
7026.5 -7.42857
7027.5 -2
7028.5 5.14286
7029.5 -2.71429
7030.5 0.285714
7031.5 0.571429
7032.5 -4
7033.5 -0.714286
7034.5 -2
7035.5 2.14286
7036.5 -5.28571
7037.5 7.42857
7038.5 -2.57143
7039.5 2.57143
7040.5 -3.71429
7041.5 -0.142857
7042.5 -0.714286
7043.5 -8.28571
7044.5 1.57143
7045.5 -1.42857
7046.5 5.85714
7047.5 -0.142857
7048.5 -5.57143
7049.5 -1
7050.5 2.85714
7051.5 3.57143
7052.5 0.285714
7053.5 -1.14286
7054.5 -1.71429
7055.5 5.28571
7056.5 -4
7057.5 -0.142857
7058.5 8.42857
7059.5 1.14286
7060.5 0.857143
7061.5 0.285714
7062.5 -6.28571
7063.5 1.19209e-07
7064.5 6.57143
7065.5 1.28571
7066.5 3.42857
7067.5 1.14286
7068.5 0.571429
7069.5 6.85714
7070.5 4.85714
7071.5 3.28571
7072.5 -3.85714
7073.5 2.57143
7074.5 0.285714
7075.5 -0.714286
7076.5 -4
7077.5 -5.57143
7078.5 0.714286
7079.5 10.4286
7080.5 0.714286
7081.5 -3.71429
7082.5 0.571429
7083.5 3.85714
7084.5 -1.71429
7085.5 -3
7086.5 -4.57143
7087.5 -8.85714
7088.5 1.19209e-07
7089.5 5.85714
7090.5 1.19209e-07
7091.5 -4.57143
7092.5 -1
7093.5 2.28571
7094.5 -2.42857
7095.5 3.85714
7096.5 -2
7097.5 -5.57143
7098.5 -3
7099.5 -0.571428
7100.5 0.285714
7101.5 -1.14286
7102.5 3.42857
7103.5 -3
7104.5 6.14286
7105.5 3.85714
7106.5 3.14286
7107.5 -1
7108.5 -5.42857
7109.5 -1.42857
7110.5 -2.71429
7111.5 3.57143
7112.5 3.28571
7113.5 -5.57143
7114.5 2.85714
7115.5 -0.428571
7116.5 9.14286
7117.5 1.85714
7118.5 3.57143
7119.5 -0.714286
7120.5 -2.71429
7121.5 -0.285714
7122.5 5.14286
7123.5 3
7124.5 1.57143
7125.5 -1.42857
7126.5 2.85714
7127.5 -1.14286
7128.5 4.85714
7129.5 -6
7130.5 1.28571
7131.5 -2.42857
7132.5 1.28571
7133.5 -2.42857
7134.5 -2.57143
7135.5 -0.714286
7136.5 7.71429
7137.5 5.42857
7138.5 -1.42857
7139.5 8.14286
7140.5 0.857143
7141.5 -0.714286
7142.5 3.14286
7143.5 0.142857
7144.5 -0.285714
7145.5 1.19209e-07
7146.5 -5.85714
7147.5 -2.57143
7148.5 -1.14286
7149.5 -3
7150.5 -6
7151.5 1.57143
7152.5 -6
7153.5 -5
7154.5 -3.28571
7155.5 1.19209e-07
7156.5 3.57143
7157.5 1.42857
7158.5 -8.28571
7159.5 -4
7160.5 2.85714
7161.5 4.85714
7162.5 9.85714
7163.5 1.57143
7164.5 0.857143
7165.5 3.28571
7166.5 -2
7167.5 -4.28571
7168.5 -0.714286
7169.5 -0.857143
7170.5 1.57143
7171.5 1.14286
7172.5 2.14286
7173.5 -2.71429
7174.5 -1.71429
7175.5 -2.42857
7176.5 3.71429
7177.5 1
7178.5 1.85714
7179.5 -0.428571
7180.5 -0.428571
7181.5 3.14286
7182.5 3.71429
7183.5 -0.142857
7184.5 -1.14286
7185.5 5.14286
7186.5 0.428571
7187.5 -1.14286
7188.5 -8.57143
7189.5 -5.71429
7190.5 -0.142857
7191.5 -0.714286
7192.5 2.71429
7193.5 -1.28571
7194.5 0.142857
7195.5 5.42857
7196.5 1.19209e-07
7197.5 5.28571
7198.5 -3
7199.5 -3.71429
7200.5 2.28571
7201.5 8.42857
7202.5 -3.28571
7203.5 -6.14286
7204.5 6.42857
7205.5 5
7206.5 0.857143
7207.5 0.428572
7208.5 6.71429
7209.5 -0.142857
7210.5 -3.71429
7211.5 4.28571
7212.5 5.42857
7213.5 -9.14286
7214.5 1.57143
7215.5 -2
7216.5 -2.42857
7217.5 0.142857
7218.5 -0.714286
7219.5 -4
7220.5 -0.428571
7221.5 0.857143
7222.5 -1
7223.5 -0.571429
7224.5 4.85714
7225.5 1.19209e-07
7226.5 -0.428571
7227.5 2.42857
7228.5 9.14286
7229.5 -0.142857
7230.5 -3.71429
7231.5 -2.42857
7232.5 2.42857
7233.5 -3.42857
7234.5 1.42857
7235.5 -7
7236.5 2.85714
7237.5 4.14286
7238.5 -0.428571
7239.5 1.42857
7240.5 -7.28571
7241.5 4.14286
7242.5 3.85714
7243.5 -0.714286
7244.5 6.14286
7245.5 -3.57143
7246.5 1.28571
7247.5 -4.28571
7248.5 1.85714
7249.5 -7.85714
7250.5 5.14286
7251.5 -4.71429
7252.5 2.42857
7253.5 -3.28571
7254.5 6.85714
7255.5 -2.42857
7256.5 11
7257.5 5.14286
7258.5 1.71429
7259.5 12.8571
7260.5 6.57143
7261.5 2.14286
7262.5 -0.714285
7263.5 12
7264.5 5.42857
7265.5 2.71429
7266.5 1.14286
7267.5 5.42857
7268.5 -0.428571
7269.5 -1.42857
7270.5 -0.428571
7271.5 -6.57143
7272.5 -2.71429
7273.5 1.42857
7274.5 0.571429
7275.5 -1.71429
7276.5 -5.28571
7277.5 -2.71429
7278.5 -6.28571
7279.5 -3.71429
7280.5 -1
7281.5 0.285714
7282.5 0.571429
7283.5 10.4286
7284.5 -0.857143
7285.5 -0.142857
7286.5 0.142857
7287.5 4
7288.5 -2.14286
7289.5 2.14286
7290.5 -6.28571
7291.5 -4.14286
7292.5 1.42857
7293.5 4.85714
7294.5 -6
7295.5 -3.14286
7296.5 2.42857
7297.5 4.42857
7298.5 -2.14286
7299.5 -2.14286
7300.5 -0.142857
7301.5 -4
7302.5 5.57143
7303.5 3.71429
7304.5 -2.42857
7305.5 -6.57143
7306.5 5.57143
7307.5 -8.85714
7308.5 0.714286
7309.5 -5.85714
7310.5 -0.285714
7311.5 -6.28571
7312.5 9
7313.5 10.2857
7314.5 4.42857
7315.5 3.71429
7316.5 4.28571
7317.5 7
7318.5 -0.857143
7319.5 2.85714
7320.5 6.14286
7321.5 -1.28571
7322.5 1.85714
7323.5 -2.28571
7324.5 -2.14286
7325.5 2
7326.5 2.14286
7327.5 -2.14286
7328.5 3.14286
7329.5 -2.14286
7330.5 -8
7331.5 -3.71429
7332.5 -0.571429
7333.5 0.142857
7334.5 5.42857
7335.5 -4
7336.5 4.57143
7337.5 -3.42857
7338.5 5.42857
7339.5 -7.28571
7340.5 1.42857
7341.5 -1.14286
7342.5 7.42857
7343.5 0.857143
7344.5 3.85714
7345.5 2.14286
7346.5 -2.71429
7347.5 2.28571
7348.5 3.71429
7349.5 8.42857
7350.5 -0.142857
7351.5 3
7352.5 -3.14286
7353.5 1.85714
7354.5 -1.71429
7355.5 -4.71429
7356.5 -11.4286
7357.5 -2.57143
7358.5 -1.42857
7359.5 -3
7360.5 4.57143
7361.5 3.85714
7362.5 -2.71429
7363.5 -7.28571
7364.5 -5.28571
7365.5 5.71429
7366.5 -6
7367.5 -2.42857
7368.5 4.85714
7369.5 2.57143
7370.5 -0.142857
7371.5 -4.42857
7372.5 -2.85714
7373.5 -1.42857
7374.5 2.14286
7375.5 0.285714
7376.5 -3.42857
7377.5 -3.71429
7378.5 1.42857
7379.5 0.428571
7380.5 -4.42857
7381.5 -4.14286
7382.5 -2.71429
7383.5 3.14286
7384.5 4.71429
7385.5 -0.857143
7386.5 -1.85714
7387.5 5
7388.5 0.142857
7389.5 1.14286
7390.5 6.71429
7391.5 1.42857
7392.5 1.71429
7393.5 -4.42857
7394.5 -3.42857
7395.5 -4.71429
7396.5 8.71429
7397.5 -1.85714
7398.5 0.428571
7399.5 1.85714
7400.5 -1.42857
7401.5 3
7402.5 1.71429
7403.5 -0.857143
7404.5 -1.14286
7405.5 -8
7406.5 -2.42857
7407.5 -2.71429
7408.5 -2.85714
7409.5 6
7410.5 -1.14286
7411.5 4.42857
7412.5 1
7413.5 1.28571
7414.5 6.14286
7415.5 1.28571
7416.5 8.28571
7417.5 9.28571
7418.5 1
7419.5 -3.14286
7420.5 10.4286
7421.5 6.28571
7422.5 5
7423.5 3.71429
7424.5 -1.42857
7425.5 7.42857
7426.5 2.42857
7427.5 -1.71429
7428.5 -6.28571
7429.5 -5
7430.5 2.71429
7431.5 -2.85714
7432.5 -5.71429
7433.5 2.42857
7434.5 -6
7435.5 -9.85714
7436.5 -9.57143
7437.5 -5
7438.5 -7.57143
7439.5 -4.28571
7440.5 -6.85714
7441.5 -6.57143
7442.5 -6.57143
7443.5 -3.42857
7444.5 -3.71429
7445.5 -4
7446.5 4.14286
7447.5 -1
7448.5 0.428571
7449.5 -0.142857
7450.5 -2.71429
7451.5 1.71429
7452.5 -2.71429
7453.5 -4.28571
7454.5 4
7455.5 -2
7456.5 4.85714
7457.5 3.71429
7458.5 2.14286
7459.5 5.71429
7460.5 0.857143
7461.5 0.714286
7462.5 1.85714
7463.5 -0.857143
7464.5 -5.85714
7465.5 6
7466.5 -1.85714
7467.5 3.42857
7468.5 1.14286
7469.5 -0.142857
7470.5 -0.857143
7471.5 1.14286
7472.5 -0.142857
7473.5 8
7474.5 4.42857
7475.5 8
7476.5 2.14286
7477.5 5.14286
7478.5 -0.142857
7479.5 0.571429
7480.5 7.71429
7481.5 1.85714
7482.5 1.85714
7483.5 8.14286
7484.5 -1.42857
7485.5 2.14286
7486.5 -5.28571
7487.5 -1.71429
7488.5 2.42857
7489.5 -4.42857
7490.5 -4.14286
7491.5 -0.571429
7492.5 -2
7493.5 3.71429
7494.5 -1.14286
7495.5 -2.85714
7496.5 0.857143
7497.5 1
7498.5 2.57143
7499.5 -0.857143
7500.5 -2.42857
7501.5 -1.85714
7502.5 0.142857
7503.5 -3.71429
7504.5 -0.714286
7505.5 3.14286
7506.5 0.857143
7507.5 -4.14286
7508.5 -1.42857
7509.5 -1.57143
7510.5 0.428571
7511.5 0.428571
7512.5 3.42857
7513.5 0.714286
7514.5 0.857143
7515.5 7.14286
7516.5 3.42857
7517.5 2.42857
7518.5 -1.14286
7519.5 -2.42857
7520.5 -3.14286
7521.5 1.71429
7522.5 1.71429
7523.5 -4.14286
7524.5 -0.857143
7525.5 -0.857143
7526.5 -1.42857
7527.5 0.714286
7528.5 -2.14286
7529.5 0.857143
7530.5 1.71429
7531.5 -2.14286
7532.5 -0.142857
7533.5 -3.85714
7534.5 -3.14286
7535.5 -0.571429
7536.5 -3.42857
7537.5 0.142857
7538.5 6.42857
7539.5 5.42857
7540.5 -0.285714
7541.5 3.42857
7542.5 2.42857
7543.5 -0.857143
7544.5 -2.42857
7545.5 4.71429
7546.5 7
7547.5 1.71429
7548.5 -2.85714
7549.5 1.71429
7550.5 -0.857143
7551.5 4.71429
7552.5 0.142857
7553.5 -0.857143
7554.5 -2.14286
7555.5 0.428571
7556.5 -4.42857
7557.5 -2.14286
7558.5 0.142857
7559.5 0.142857
7560.5 -1.71429
7561.5 1.42857
7562.5 -3.14286
7563.5 3.42857
7564.5 0.142857
7565.5 -0.142857
7566.5 -0.857143
7567.5 -3.14286
7568.5 0.142857
7569.5 0
7570.5 -1.71429
7571.5 -7
7572.5 0.142857
7573.5 0.857143
7574.5 1.71429
7575.5 -2.71429
7576.5 -2.71429
7577.5 -8.57143
7578.5 2.71429
7579.5 2.14286
7580.5 -4.42857
7581.5 4.42857
7582.5 3.71429
7583.5 4
7584.5 -1.57143
7585.5 1.71429
7586.5 1.85714
7587.5 1.14286
7588.5 -2.57143
7589.5 -0.857143
7590.5 1
7591.5 3.14286
7592.5 1.42857
7593.5 0.714286
7594.5 -1.14286
7595.5 1.71429
7596.5 0.714286
7597.5 0.428571
7598.5 5.71429
7599.5 1.14286
7600.5 -5.42857
7601.5 -1.42857
7602.5 0.428571
7603.5 -1.85714
7604.5 2.14286
7605.5 4
7606.5 -3.14286
7607.5 -1.14286
7608.5 8.71429
7609.5 -4.14286
7610.5 -0.571429
7611.5 3
7612.5 -0.571429
7613.5 -4.14286
7614.5 0.714286
7615.5 0.142857
7616.5 3
7617.5 2.71429
7618.5 2.14286
7619.5 1.14286
7620.5 -1.42857
7621.5 2.71429
7622.5 2.71429
7623.5 -0.142857
7624.5 1.85714
7625.5 -2.14286
7626.5 -0.857143
7627.5 -2.42857
7628.5 0.142857
7629.5 3.71429
7630.5 -2.42857
7631.5 -7.28571
7632.5 0.857143
7633.5 3
7634.5 -3.14286
7635.5 8.42857
7636.5 -3.14286
7637.5 0.714286
7638.5 -3.14286
7639.5 3.42857
7640.5 2.42857
7641.5 3.71429
7642.5 -0.571429
7643.5 4.71429
7644.5 4
7645.5 0.857143
7646.5 -1.42857
7647.5 1.42857
7648.5 1.71429
7649.5 0.142857
7650.5 -0.571429
7651.5 -0.857143
7652.5 5
7653.5 -2.14286
7654.5 -0.857143
7655.5 1.14286
7656.5 2.71429
7657.5 1
7658.5 4
7659.5 3
7660.5 -0.428571
7661.5 -1.85714
7662.5 -2.71429
7663.5 1.71429
7664.5 -5.71429
7665.5 -1.14286
7666.5 0.714286
7667.5 -0.857143
7668.5 -0.857143
7669.5 -3.14286
7670.5 -1.14286
7671.5 -2.85714
7672.5 2.71429
7673.5 1.42857
7674.5 -4.42857
7675.5 -1.57143
7676.5 -3.14286
7677.5 -1.57143
7678.5 -1.57143
7679.5 -2.14286
7680.5 -0.571429
7681.5 -0.857143
7682.5 1.71429
7683.5 -0.857143
7684.5 1.14286
7685.5 -0.857143
7686.5 -2.42857
7687.5 3.71429
7688.5 5.71429
7689.5 -1.57143
7690.5 -2.85714
7691.5 -2.57143
7692.5 -0.571429
7693.5 0.714286
7694.5 1.42857
7695.5 -0.857143
7696.5 -0.857143
7697.5 -1.85714
7698.5 -2.85714
7699.5 2.42857
7700.5 1
7701.5 -5.42857
7702.5 -0.857143
7703.5 0.142857
7704.5 0.142857
7705.5 -3.14286
7706.5 -5.28571
7707.5 -0.142857
7708.5 -3.85714
7709.5 4.85714
7710.5 -3.42857
7711.5 -3.42857
7712.5 -3.42857
7713.5 -1.85714
7714.5 -1.57143
7715.5 1.42857
7716.5 5.42857
7717.5 -1.14286
7718.5 -0.571429
7719.5 -3.85714
7720.5 -1.28571
7721.5 -0.857143
7722.5 0.428571
7723.5 0.714286
7724.5 -3.14286
7725.5 -1.85714
7726.5 2.14286
7727.5 -1.14286
7728.5 0.714286
7729.5 -0.571429
7730.5 -0.857143
7731.5 -0.285714
7732.5 0.714286
7733.5 0.714286
7734.5 2
7735.5 4
7736.5 0.428571
7737.5 1.14286
7738.5 -0.857143
7739.5 3
7740.5 -3.14286
7741.5 1.71429
7742.5 -1.85714
7743.5 -0.285714
7744.5 1.71429
7745.5 0.428571
7746.5 0.714286
7747.5 0.714286
7748.5 -0.571429
7749.5 0.714286
7750.5 0.714286
7751.5 -2.85714
7752.5 3
7753.5 0.714286
7754.5 0.714286
7755.5 -2.57143
7756.5 -1.57143
7757.5 2
7758.5 0.714286
7759.5 -1.57143
7760.5 0.428571
7761.5 -0.857143
7762.5 -1.14286
7763.5 -0.571429
7764.5 1.42857
7765.5 4.14286
7766.5 -2.71429
7767.5 -4.28571
7768.5 3.28571
7769.5 5.71429
7770.5 -14.2857
7771.5 -3.42857
7772.5 -7.28571
7773.5 -16.4286
7774.5 -5.85714
7775.5 -20
7776.5 -5.28571
7777.5 1.14286
7778.5 -1.71429
7779.5 3.14286
7780.5 1.14286
7781.5 2.71429
7782.5 -0.142857
7783.5 -3.14286
7784.5 1.42857
7785.5 3.42857
7786.5 2
7787.5 -1.85714
7788.5 2
7789.5 -0.571429
7790.5 2
7791.5 -1.57143
7792.5 -0.857143
7793.5 1.71429
7794.5 3.71429
7795.5 -1.57143
7796.5 1.14286
7797.5 2
7798.5 0.714286
7799.5 -2.85714
7800.5 -1.57143
7801.5 -1.57143
7802.5 2
7803.5 0.714286
7804.5 -0.285714
7805.5 -2.57143
7806.5 -3.85714
7807.5 1
7808.5 -1.28571
7809.5 2.71429
7810.5 2
7811.5 0.428571
7812.5 1
7813.5 -0.285714
7814.5 -2.85714
7815.5 3.71429
7816.5 3.14286
7817.5 -0.571429
7818.5 -2.14286
7819.5 6.71429
7820.5 -0.571428
7821.5 3.57143
7822.5 6.14286
7823.5 1.57143
7824.5 -12
7825.5 10.1429
7826.5 -11.4286
7827.5 9
7828.5 -12.5714
7829.5 -8.71429
7830.5 2.57143
7831.5 3.14286
7832.5 0.714286
7833.5 -6.28571
7834.5 0.714286
7835.5 -0.142857
7836.5 0.142857
7837.5 -1.28571
7838.5 0.428571
7839.5 -1.28571
7840.5 -1.28571
7841.5 0.714286
7842.5 -2.85714
7843.5 0.714286
7844.5 -0.571429
7845.5 -0.571429
7846.5 -3.85714
7847.5 2
7848.5 -1.28571
7849.5 -0.285714
7850.5 1
7851.5 0
7852.5 1
7853.5 0.428571
7854.5 -1.28571
7855.5 1
7856.5 0.714286
7857.5 0.428571
7858.5 1
7859.5 -0.285714
7860.5 -1.85714
7861.5 -1.28571
7862.5 -2.85714
7863.5 1
7864.5 -1.28571
7865.5 -1.28571
7866.5 -0.285714
7867.5 -1.28571
7868.5 -0.285714
7869.5 1
7870.5 -1.28571
7871.5 -0.285714
7872.5 0
7873.5 -1.57143
7874.5 2
7875.5 3
7876.5 1
7877.5 3.71429
7878.5 0.714286
7879.5 -0.285714
7880.5 -0.285714
7881.5 -0.285714
7882.5 0.714286
7883.5 1
7884.5 0.714286
7885.5 0.714286
7886.5 1.71429
7887.5 1
7888.5 0.714286
7889.5 0
7890.5 2
7891.5 -0.285714
7892.5 2
7893.5 -0.571429
7894.5 0
7895.5 -1.28571
7896.5 2
7897.5 0
7898.5 1
7899.5 0
7900.5 -1.57143
7901.5 1
7902.5 0
7903.5 -1.28571
7904.5 0
7905.5 -1.28571
7906.5 0
7907.5 -1.28571
7908.5 -0.285714
7909.5 -0.285714
7910.5 2
7911.5 -0.571429
7912.5 2
7913.5 -1.28571
7914.5 0
7915.5 0
7916.5 -2.57143
7917.5 1
7918.5 0.714286
7919.5 1
7920.5 1
7921.5 1
7922.5 2
7923.5 -1.57143
7924.5 -1.28571
7925.5 -0.285714
7926.5 -1.57143
7927.5 -0.285714
7928.5 3
7929.5 -1.57143
7930.5 0
7931.5 0
7932.5 -0.285714
7933.5 -0.285714
7934.5 -3.85714
7935.5 0.714286
7936.5 1
7937.5 1
7938.5 0
7939.5 0
7940.5 -1.28571
7941.5 -1.57143
7942.5 -2.85714
7943.5 -1.57143
7944.5 -4.42857
7945.5 -13.4286
7946.5 -1.57143
7947.5 -8.28571
7948.5 -9.28571
7949.5 -5.71429
7950.5 -8.28571
7951.5 -20.8571
7952.5 -7.28571
7953.5 -10.5714
7954.5 -1.85714
7955.5 -1.57143
7956.5 0.714286
7957.5 0.714286
7958.5 2
7959.5 2
7960.5 -1.28571
7961.5 -2.57143
7962.5 -0.571429
7963.5 -1.57143
7964.5 0.714286
7965.5 0
7966.5 1
7967.5 1
7968.5 0
7969.5 -4.14286
7970.5 1
7971.5 1
7972.5 1
7973.5 -0.285714
7974.5 0
7975.5 0.428571
7976.5 -1.28571
7977.5 0
7978.5 -2.57143
7979.5 2
7980.5 0
7981.5 -3.14286
7982.5 0
7983.5 1.71429
7984.5 0.142857
7985.5 1.71429
7986.5 8
7987.5 0.428571
7988.5 -1.57143
7989.5 4
7990.5 9
7991.5 11
7992.5 8
7993.5 6.42857
7994.5 7.71429
7995.5 8
7996.5 4.71429
7997.5 3
7998.5 2
7999.5 3
8000.5 -0.285714
8001.5 0
8002.5 0.714286
8003.5 -3.85714
8004.5 3
8005.5 2.71429
8006.5 2
8007.5 -1.28571
8008.5 2
8009.5 -0.285714
8010.5 2
8011.5 -0.285714
8012.5 0
8013.5 0.714286
8014.5 -0.285714
8015.5 2
8016.5 -3.85714
8017.5 0
8018.5 1
8019.5 1
8020.5 1
8021.5 1
8022.5 0
8023.5 -1.57143
8024.5 0
8025.5 0.714286
8026.5 -3.85714
8027.5 2
8028.5 -1.28571
8029.5 -0.285714
8030.5 0.714286
8031.5 2
8032.5 -1.28571
8033.5 -0.285714
8034.5 0
8035.5 -0.285714
8036.5 2
8037.5 0
8038.5 -0.285714
8039.5 0
8040.5 -1.28571
8041.5 -1.28571
8042.5 -0.285714
8043.5 -1.28571
8044.5 0
8045.5 0
8046.5 -2.57143
8047.5 0
8048.5 1
8049.5 1
8050.5 1
8051.5 -0.285714
8052.5 -1.28571
8053.5 1
8054.5 0
8055.5 1
8056.5 0
8057.5 -0.285714
8058.5 -1.28571
8059.5 1
8060.5 -0.285714
8061.5 1
8062.5 0
8063.5 1
8064.5 1
8065.5 -2.57143
8066.5 -0.285714
8067.5 0
8068.5 2
8069.5 0
8070.5 2
8071.5 -1.28571
8072.5 -2.57143
8073.5 -1.28571
8074.5 -1.28571
8075.5 2
8076.5 1
8077.5 -1.28571
8078.5 0
8079.5 0
8080.5 1
8081.5 -1.28571
8082.5 1
8083.5 1
8084.5 0.714286
8085.5 -1.85714
8086.5 0.428571
8087.5 -1.57143
8088.5 -1.28571
8089.5 1
8090.5 1
8091.5 -1.28571
8092.5 1
8093.5 -0.285714
8094.5 -1.57143
8095.5 0
8096.5 0
8097.5 -0.285714
8098.5 1
8099.5 -1.28571
8100.5 -0.285714
8101.5 0
8102.5 0
8103.5 1
8104.5 0
8105.5 0
8106.5 0
8107.5 0
8108.5 0
8109.5 0
8110.5 1
8111.5 3
8112.5 -1.28571
8113.5 0
8114.5 0
8115.5 0
8116.5 0
8117.5 0
8118.5 -1.28571
8119.5 0
8120.5 -1.28571
8121.5 0
8122.5 2
8123.5 2
8124.5 -2.57143
8125.5 0
8126.5 0
8127.5 1
8128.5 0
8129.5 0
8130.5 -1.28571
8131.5 -1.28571
8132.5 0
8133.5 -0.285714
8134.5 -0.285714
8135.5 -1.28571
8136.5 1
8137.5 1
8138.5 2
8139.5 0
8140.5 0
8141.5 -2.57143
8142.5 0
8143.5 1
8144.5 1
8145.5 2
8146.5 0
8147.5 0
8148.5 -1.28571
8149.5 -1.28571
8150.5 0
8151.5 -1.28571
8152.5 1
8153.5 0
8154.5 0
8155.5 0
8156.5 0
8157.5 -1.28571
8158.5 0
8159.5 0
8160.5 0
8161.5 0
8162.5 1
8163.5 0
8164.5 -1.28571
8165.5 -1.28571
8166.5 0
8167.5 -1.28571
8168.5 -1.28571
8169.5 -0.285714
8170.5 0
8171.5 2
8172.5 1
8173.5 -1.28571
8174.5 0.714286
8175.5 -1.28571
8176.5 -2.57143
8177.5 -1.28571
8178.5 -0.285714
8179.5 0
8180.5 0.714286
8181.5 1
8182.5 1
8183.5 0
8184.5 -1.28571
8185.5 1
8186.5 0
8187.5 -2.57143
8188.5 1
8189.5 -0.285714
8190.5 0
8191.5 -0.285714
8192.5 -2.57143
8193.5 0
8194.5 0
8195.5 0
8196.5 -0.285714
8197.5 -0.285714
8198.5 0
8199.5 0
8200.5 0
8201.5 1
8202.5 0
8203.5 -0.285714
8204.5 0
8205.5 0
8206.5 1.71429
8207.5 -1.28571
8208.5 -1.28571
8209.5 -1.28571
8210.5 0
8211.5 1
8212.5 0
8213.5 2
8214.5 -0.285714
8215.5 1
8216.5 0
8217.5 0
8218.5 1
8219.5 -1.28571
8220.5 -0.285714
8221.5 1
8222.5 0
8223.5 0
8224.5 -1.28571
8225.5 2
8226.5 0
8227.5 1.42857
8228.5 -2.57143
8229.5 0
8230.5 0
8231.5 1
8232.5 0
8233.5 -1.28571
8234.5 0
8235.5 0
8236.5 1
8237.5 0
8238.5 2
8239.5 -0.285714
8240.5 1
8241.5 1
8242.5 -0.285714
8243.5 2
8244.5 0
8245.5 0
8246.5 0
8247.5 0
8248.5 0
8249.5 -1.28571
8250.5 0
8251.5 -1.28571
8252.5 0
8253.5 -0.285714
8254.5 0
8255.5 -1.28571
8256.5 0
8257.5 -1.28571
8258.5 -0.285714
8259.5 1
8260.5 0
8261.5 0
8262.5 -1.28571
8263.5 -0.285714
8264.5 0
8265.5 0
8266.5 0
8267.5 -0.571429
8268.5 -1.28571
8269.5 0
8270.5 0
8271.5 0
8272.5 0
8273.5 1
8274.5 1
8275.5 2
8276.5 2
8277.5 1
8278.5 0
8279.5 0
8280.5 -0.285714
8281.5 0
8282.5 0.714286
8283.5 0
8284.5 0
8285.5 0
8286.5 -1.28571
8287.5 0
8288.5 0
8289.5 0
8290.5 0
8291.5 0
8292.5 1
8293.5 -1.28571
8294.5 1
8295.5 0
8296.5 1
8297.5 0
8298.5 1
8299.5 0
8300.5 0
8301.5 -1.28571
8302.5 0
8303.5 -1.28571
8304.5 0
8305.5 -2.57143
8306.5 0
8307.5 -2.57143
8308.5 -0.285714
8309.5 0.714286
8310.5 -1.28571
8311.5 -0.285714
8312.5 -0.285714
8313.5 -1.28571
8314.5 0
8315.5 -1.28571
8316.5 -1.28571
8317.5 -1.28571
8318.5 0
8319.5 0
8320.5 -0.285714
8321.5 0.714286
8322.5 0
8323.5 -1.28571
8324.5 1
8325.5 0
8326.5 0
8327.5 0
8328.5 -0.285714
8329.5 0
8330.5 -1.28571
8331.5 0
8332.5 -0.285714
8333.5 1
8334.5 0
8335.5 -0.571429
8336.5 0
8337.5 1
8338.5 1
8339.5 0
8340.5 1
8341.5 1
8342.5 0
8343.5 1
8344.5 0
8345.5 0
8346.5 2
8347.5 0
8348.5 0
8349.5 0
8350.5 0
8351.5 0
8352.5 -2.57143
8353.5 -1.28571
8354.5 0
8355.5 0
8356.5 2
8357.5 0
8358.5 -1.28571
8359.5 -0.285714
8360.5 0
8361.5 0
8362.5 0
8363.5 0
8364.5 -0.285714
8365.5 0
8366.5 1
8367.5 0
8368.5 0
8369.5 0
8370.5 -1.28571
8371.5 2
8372.5 -1.28571
8373.5 -1.28571
8374.5 0
8375.5 0
8376.5 1
8377.5 0
8378.5 1
8379.5 -1.28571
8380.5 -1.28571
8381.5 -1.28571
8382.5 -2.57143
8383.5 1.71429
8384.5 0
8385.5 -1.28571
8386.5 1
8387.5 0
8388.5 2
8389.5 0
8390.5 1
8391.5 0
8392.5 0
8393.5 0
8394.5 0
8395.5 0
8396.5 1
8397.5 1
8398.5 1
8399.5 0
8400.5 0
8401.5 3
8402.5 0
8403.5 1
8404.5 0
8405.5 0
8406.5 0
8407.5 0
8408.5 0
8409.5 1
8410.5 2
8411.5 -1.28571
8412.5 2
8413.5 1
8414.5 2
8415.5 0
8416.5 2
8417.5 0
8418.5 -0.285714
8419.5 0
8420.5 0
8421.5 0
8422.5 0
8423.5 0
8424.5 0
8425.5 0
8426.5 0
8427.5 0
8428.5 -1.28571
8429.5 1
8430.5 0
8431.5 -1.28571
8432.5 -1.28571
8433.5 0
8434.5 0
8435.5 0
8436.5 -0.285714
8437.5 0
8438.5 1
8439.5 1
8440.5 0
8441.5 0
8442.5 -1.28571
8443.5 0
8444.5 0
8445.5 0
8446.5 -0.285714
8447.5 0
8448.5 0
8449.5 0
8450.5 -1.28571
8451.5 1
8452.5 1
8453.5 1
8454.5 1
8455.5 -1.28571
8456.5 -1.28571
8457.5 0
8458.5 -1.28571
8459.5 -1.28571
8460.5 0
8461.5 0
8462.5 1
8463.5 -1.28571
8464.5 0
8465.5 1
8466.5 -0.285714
8467.5 1
8468.5 0
8469.5 -1.57143
8470.5 -2.57143
8471.5 1
8472.5 0
8473.5 0.714286
8474.5 2
8475.5 0
8476.5 0
8477.5 1
8478.5 0
8479.5 0
8480.5 0
8481.5 1
8482.5 1
8483.5 -1.28571
8484.5 0
8485.5 -1.28571
8486.5 -1.28571
8487.5 0
8488.5 1
8489.5 1
8490.5 -0.285714
8491.5 -1.28571
8492.5 -0.285714
8493.5 1
8494.5 1
8495.5 -1.28571
8496.5 0
8497.5 0
8498.5 0
8499.5 -1.28571
8500.5 0
8501.5 1.71429
8502.5 1
8503.5 0
8504.5 -2.57143
8505.5 0
8506.5 1
8507.5 0
8508.5 0
8509.5 0
8510.5 -2.57143
8511.5 0
8512.5 1
8513.5 0
8514.5 1
8515.5 -0.285714
8516.5 0
8517.5 1
8518.5 1
8519.5 1
8520.5 0
8521.5 0
8522.5 0
8523.5 0
8524.5 0
8525.5 -1.28571
8526.5 -0.285714
8527.5 0
8528.5 0
8529.5 0
8530.5 -0.285714
8531.5 -1.28571
8532.5 0
8533.5 2
8534.5 0
8535.5 2
8536.5 -2.57143
8537.5 -1.28571
8538.5 0
8539.5 0
8540.5 -1.28571
8541.5 0
8542.5 0
8543.5 1
8544.5 -1.28571
8545.5 0
8546.5 1
8547.5 2
8548.5 0
8549.5 1
8550.5 1
8551.5 1
8552.5 1
8553.5 1
8554.5 0
8555.5 -1.28571
8556.5 1
8557.5 0
8558.5 -1.28571
8559.5 0
8560.5 -1.28571
8561.5 0
8562.5 -1.28571
8563.5 0
8564.5 -2.57143
8565.5 0
8566.5 1
8567.5 0
8568.5 0
8569.5 0
8570.5 0
8571.5 0
8572.5 -1.28571
8573.5 -1.28571
8574.5 0
8575.5 1.71429
8576.5 -2.57143
8577.5 1
8578.5 1
8579.5 1
8580.5 -1.28571
8581.5 0
8582.5 1
8583.5 1
8584.5 0
8585.5 -1.28571
8586.5 0
8587.5 0
8588.5 2
8589.5 -1.28571
8590.5 1
8591.5 0
8592.5 0
8593.5 -2.57143
8594.5 1
8595.5 1
8596.5 0
8597.5 0
8598.5 0
8599.5 0
8600.5 0
8601.5 0
8602.5 -1.28571
8603.5 1
8604.5 0
8605.5 0
8606.5 1
8607.5 -1.28571
8608.5 -1.28571
8609.5 -3.85714
8610.5 0
8611.5 1
8612.5 -1.28571
8613.5 -0.285714
8614.5 -0.285714
8615.5 0
8616.5 0
8617.5 0
8618.5 1
8619.5 0
8620.5 0
8621.5 0
8622.5 1
8623.5 0
8624.5 0
8625.5 0
8626.5 0
8627.5 0
8628.5 -0.285714
8629.5 0
8630.5 0
8631.5 0
8632.5 1
8633.5 0
8634.5 1
8635.5 0
8636.5 1
8637.5 0
8638.5 1
8639.5 0
8640.5 -1.28571
8641.5 -1.28571
8642.5 1
8643.5 -1.28571
8644.5 0
8645.5 -1.28571
8646.5 0
8647.5 0
8648.5 1
8649.5 0
8650.5 1
8651.5 -0.285714
8652.5 0
8653.5 0
8654.5 0
8655.5 0
8656.5 1
8657.5 1
8658.5 0
8659.5 0
8660.5 -0.285714
8661.5 0
8662.5 -0.285714
8663.5 0
8664.5 0
8665.5 0
8666.5 0
8667.5 0
8668.5 1
8669.5 -0.285714
8670.5 1
8671.5 -0.285714
8672.5 0
8673.5 -0.285714
8674.5 -1.28571
8675.5 -2.57143
8676.5 2
8677.5 0
8678.5 1
8679.5 0
8680.5 -1.28571
8681.5 0
8682.5 0
8683.5 1
8684.5 0
8685.5 0
8686.5 2
8687.5 0
8688.5 0
8689.5 -2.57143
8690.5 0.714286
8691.5 -2.57143
8692.5 0
8693.5 1
8694.5 1
8695.5 0
8696.5 0
8697.5 0
8698.5 0
8699.5 1
8700.5 1
8701.5 0
8702.5 -1.28571
8703.5 0
8704.5 0
8705.5 0
8706.5 1
8707.5 1
8708.5 0
8709.5 -1.28571
8710.5 1
8711.5 0
8712.5 0
8713.5 0
8714.5 0
8715.5 2
8716.5 0
8717.5 1
8718.5 0.714286
8719.5 1
8720.5 0
8721.5 0
8722.5 0
8723.5 0
8724.5 -1.28571
8725.5 0
8726.5 0
8727.5 0
8728.5 0
8729.5 1
8730.5 1
8731.5 0
8732.5 -1.28571
8733.5 0
8734.5 1
8735.5 0
8736.5 0
8737.5 0
8738.5 0
8739.5 0
8740.5 2
8741.5 0
8742.5 -1.28571
8743.5 0
8744.5 -0.285714
8745.5 0
8746.5 0
8747.5 0
8748.5 0
8749.5 1
8750.5 0
8751.5 3
8752.5 0
8753.5 0
8754.5 1
8755.5 -0.285714
8756.5 0
8757.5 0
8758.5 1
8759.5 0
8760.5 0
8761.5 1
8762.5 0
8763.5 2
8764.5 0
8765.5 0
8766.5 0
8767.5 0
8768.5 0
8769.5 3
8770.5 1
8771.5 -1.28571
8772.5 0
8773.5 -0.285714
8774.5 -1.28571
8775.5 0
8776.5 0
8777.5 0
8778.5 0
8779.5 0
8780.5 1
8781.5 -0.285714
8782.5 0
8783.5 0
8784.5 0
8785.5 1
8786.5 0
8787.5 -1.28571
8788.5 0
8789.5 1
8790.5 0
8791.5 -0.285714
8792.5 0
8793.5 -1.28571
8794.5 0
8795.5 0
8796.5 1
8797.5 0
8798.5 1
8799.5 0
8800.5 0
8801.5 0
8802.5 0
8803.5 0
8804.5 -0.285714
8805.5 0
8806.5 2
8807.5 0
8808.5 0
8809.5 0
8810.5 0
8811.5 0
8812.5 0
8813.5 0
8814.5 0
8815.5 0
8816.5 0
8817.5 0
8818.5 0
8819.5 0
8820.5 -1.57143
8821.5 0
8822.5 0
8823.5 0
8824.5 0
8825.5 0
8826.5 0
8827.5 2
8828.5 0
8829.5 0
8830.5 0
8831.5 0
8832.5 0
8833.5 -1.28571
8834.5 1
8835.5 -1.28571
8836.5 0
8837.5 1
8838.5 2
8839.5 0
8840.5 0
8841.5 0
8842.5 1
8843.5 -0.285714
8844.5 1
8845.5 -1.28571
8846.5 -1.28571
8847.5 0
8848.5 -3.85714
8849.5 -1.28571
8850.5 -0.285714
8851.5 0
8852.5 1
8853.5 -1.28571
8854.5 0
8855.5 -1.28571
8856.5 1
8857.5 0
8858.5 0
8859.5 0
8860.5 0
8861.5 0
8862.5 1
8863.5 0
8864.5 0
8865.5 -1.28571
8866.5 0
8867.5 0
8868.5 0
8869.5 0
8870.5 0
8871.5 0
8872.5 0
8873.5 0
8874.5 0
8875.5 0
8876.5 1
8877.5 1
8878.5 0
8879.5 0
8880.5 0
8881.5 0
8882.5 -2.57143
8883.5 -1.28571
8884.5 0
8885.5 0
8886.5 0
8887.5 0
8888.5 0
8889.5 -0.285714
8890.5 1
8891.5 0
8892.5 0
8893.5 0
8894.5 0
8895.5 0
8896.5 0
8897.5 1
8898.5 0
8899.5 0
8900.5 0
8901.5 0
8902.5 0
8903.5 0
8904.5 0
8905.5 0
8906.5 0
8907.5 0
8908.5 0
8909.5 0
8910.5 0
8911.5 0
8912.5 0
8913.5 -0.285714
8914.5 0
8915.5 -2.57143
8916.5 0
8917.5 0
8918.5 0
8919.5 0
8920.5 0
8921.5 -0.285714
8922.5 -1.28571
8923.5 0
8924.5 0
8925.5 0
8926.5 0
8927.5 0
8928.5 0
8929.5 1
8930.5 -1.28571
8931.5 0
8932.5 1
8933.5 0
8934.5 0
8935.5 -1.28571
8936.5 0
8937.5 1
8938.5 0
8939.5 1
8940.5 0
8941.5 0
8942.5 -1.28571
8943.5 0
8944.5 1
8945.5 0
8946.5 0
8947.5 0
8948.5 1
8949.5 1
8950.5 0
8951.5 0
8952.5 0
8953.5 -1.28571
8954.5 -1.28571
8955.5 0
8956.5 0
8957.5 0
8958.5 0
8959.5 1
8960.5 0
8961.5 0
8962.5 -0.285714
8963.5 0
8964.5 1
8965.5 -0.285714
8966.5 0
8967.5 0
8968.5 0
8969.5 0
8970.5 -1.28571
8971.5 1
8972.5 0
8973.5 0
8974.5 0
8975.5 -1.28571
8976.5 0
8977.5 0
8978.5 0
8979.5 0
8980.5 0
8981.5 0
8982.5 -1.28571
8983.5 0.714286
8984.5 1
8985.5 1
8986.5 0
8987.5 0
8988.5 1
8989.5 1
8990.5 0
8991.5 0
8992.5 0
8993.5 2
8994.5 1
8995.5 1
8996.5 0
8997.5 -0.285714
8998.5 0
8999.5 0
9000.5 0
9001.5 1
9002.5 -0.285714
9003.5 0
9004.5 0
9005.5 0
9006.5 0
9007.5 0
9008.5 1
9009.5 0
9010.5 -1.28571
9011.5 0
9012.5 0
9013.5 0
9014.5 0
9015.5 0
9016.5 0
9017.5 0
9018.5 -1.28571
9019.5 -1.28571
9020.5 0
9021.5 0
9022.5 0
9023.5 1
9024.5 0
9025.5 0
9026.5 -1.57143
9027.5 1
9028.5 0
9029.5 0
9030.5 0
9031.5 0
9032.5 0
9033.5 -1.28571
9034.5 0
9035.5 0
9036.5 0
9037.5 0
9038.5 -2.57143
9039.5 1
9040.5 0
9041.5 0
9042.5 0
9043.5 0
9044.5 0
9045.5 0
9046.5 1
9047.5 0
9048.5 0
9049.5 0
9050.5 0
9051.5 0
9052.5 0
9053.5 -1.28571
9054.5 0
9055.5 1
9056.5 1
9057.5 0
9058.5 0
9059.5 0
9060.5 0
9061.5 0
9062.5 0
9063.5 -1.28571
9064.5 1
9065.5 0
9066.5 0
9067.5 -1.28571
9068.5 0
9069.5 -1.28571
9070.5 1
9071.5 0
9072.5 -0.285714
9073.5 1
9074.5 1
9075.5 -1.28571
9076.5 0
9077.5 0
9078.5 0
9079.5 -1.28571
9080.5 0
9081.5 0
9082.5 0
9083.5 0
9084.5 -0.285714
9085.5 0
9086.5 0
9087.5 0
9088.5 0
9089.5 0
9090.5 0
9091.5 -1.28571
9092.5 0
9093.5 0
9094.5 -1.28571
9095.5 2
9096.5 0
9097.5 0
9098.5 -1.28571
9099.5 0
9100.5 0
9101.5 0
9102.5 1
9103.5 0
9104.5 0
9105.5 1
9106.5 0
9107.5 0
9108.5 -1.28571
9109.5 1
9110.5 0
9111.5 0
9112.5 0
9113.5 -0.285714
9114.5 -1.28571
9115.5 0
9116.5 1
9117.5 0
9118.5 -1.28571
9119.5 0
9120.5 1
9121.5 0
9122.5 -2.57143
9123.5 0
9124.5 0
9125.5 0
9126.5 0
9127.5 -1.28571
9128.5 0
9129.5 0
9130.5 0
9131.5 2
9132.5 0
9133.5 0
9134.5 -1.28571
9135.5 1
9136.5 0
9137.5 0
9138.5 -1.28571
9139.5 0
9140.5 2
9141.5 0
9142.5 1
9143.5 0
9144.5 0
9145.5 0
9146.5 0
9147.5 0
9148.5 0
9149.5 -1.28571
9150.5 1
9151.5 1
9152.5 0
9153.5 0
9154.5 0
9155.5 0
9156.5 0
9157.5 0
9158.5 1
9159.5 -1.28571
9160.5 0
9161.5 0
9162.5 -0.285714
9163.5 0
9164.5 -1.28571
9165.5 0
9166.5 1
9167.5 0
9168.5 0
9169.5 0
9170.5 -1.28571
9171.5 0
9172.5 0
9173.5 0
9174.5 -1.28571
9175.5 0
9176.5 0
9177.5 0
9178.5 0
9179.5 1
9180.5 0
9181.5 -1.28571
9182.5 0
9183.5 1
9184.5 -1.28571
9185.5 0
9186.5 1
9187.5 0
9188.5 0
9189.5 0
9190.5 0
9191.5 -1.28571
9192.5 0
9193.5 0
9194.5 1
9195.5 0
9196.5 -1.28571
9197.5 0
9198.5 0
9199.5 0
9200.5 0
9201.5 0
9202.5 0
9203.5 -1.28571
9204.5 1
9205.5 0
9206.5 0
9207.5 0
9208.5 -1.28571
9209.5 0
9210.5 0
9211.5 0
9212.5 1
9213.5 0
9214.5 0
9215.5 1
9216.5 0
9217.5 0
9218.5 0
9219.5 0
9220.5 0
9221.5 0
9222.5 0
9223.5 0
9224.5 1
9225.5 0
9226.5 0
9227.5 0
9228.5 -1.28571
9229.5 0
9230.5 1
9231.5 -1.28571
9232.5 0
9233.5 0
9234.5 0
9235.5 3
9236.5 0
9237.5 0
9238.5 0
9239.5 0
9240.5 0
9241.5 2
9242.5 0
9243.5 1
9244.5 0
9245.5 0
9246.5 0
9247.5 1
9248.5 0
9249.5 0
9250.5 0
9251.5 -1.28571
9252.5 1
9253.5 1
9254.5 0
9255.5 0
9256.5 0
9257.5 1
9258.5 2
9259.5 0
9260.5 0
9261.5 0
9262.5 0
9263.5 -1.28571
9264.5 0
9265.5 0
9266.5 0
9267.5 0
9268.5 0
9269.5 0
9270.5 1
9271.5 0
9272.5 0
9273.5 -0.285714
9274.5 -1.28571
9275.5 0
9276.5 0
9277.5 0
9278.5 0
9279.5 0
9280.5 0
9281.5 0
9282.5 0
9283.5 0
9284.5 1
9285.5 0
9286.5 1
9287.5 -1.28571
9288.5 -1.28571
9289.5 0
9290.5 0
9291.5 0
9292.5 -1.28571
9293.5 0
9294.5 0
9295.5 0
9296.5 0
9297.5 0
9298.5 -1.28571
9299.5 0
9300.5 1
9301.5 1
9302.5 1
9303.5 0
9304.5 0
9305.5 0
9306.5 0
9307.5 0
9308.5 -1.28571
9309.5 -2.57143
9310.5 -0.285714
9311.5 0
9312.5 1
9313.5 0
9314.5 0
9315.5 -1.28571
9316.5 -1.28571
9317.5 0
9318.5 -1.28571
9319.5 0
9320.5 0
9321.5 0
9322.5 0
9323.5 0
9324.5 0
9325.5 -0.285714
9326.5 1
9327.5 0
9328.5 1
9329.5 0
9330.5 0
9331.5 0
9332.5 0
9333.5 0
9334.5 0
9335.5 0
9336.5 0
9337.5 0
9338.5 -2.57143
9339.5 0
9340.5 0
9341.5 0
9342.5 0
9343.5 0
9344.5 0
9345.5 1
9346.5 -0.285714
9347.5 0
9348.5 -1.28571
9349.5 0
9350.5 0
9351.5 1
9352.5 2
9353.5 0
9354.5 0
9355.5 0
9356.5 0
9357.5 0
9358.5 0
9359.5 0
9360.5 0
9361.5 0
9362.5 0
9363.5 1
9364.5 0
9365.5 0
9366.5 0
9367.5 0
9368.5 0
9369.5 0
9370.5 0
9371.5 0
9372.5 0.714286
9373.5 0
9374.5 0
9375.5 1
9376.5 0
9377.5 0
9378.5 1
9379.5 0
9380.5 0
9381.5 0
9382.5 -0.285714
9383.5 0
9384.5 0
9385.5 0
9386.5 1
9387.5 1
9388.5 0
9389.5 0
9390.5 0
9391.5 0
9392.5 0
9393.5 -1.28571
9394.5 0
9395.5 1
9396.5 0
9397.5 0
9398.5 0
9399.5 0
9400.5 0
9401.5 1
9402.5 0
9403.5 0
9404.5 0
9405.5 -1.28571
9406.5 0
9407.5 0
9408.5 0
9409.5 0
9410.5 0
9411.5 0
9412.5 0
9413.5 -1.28571
9414.5 1
9415.5 0
9416.5 0
9417.5 1
9418.5 1
9419.5 0
9420.5 0
9421.5 0
9422.5 0
9423.5 -1.28571
9424.5 0
9425.5 0
9426.5 0
9427.5 0
9428.5 1
9429.5 0
9430.5 1
9431.5 0
9432.5 1
9433.5 1
9434.5 0
9435.5 0
9436.5 0
9437.5 0
9438.5 0
9439.5 0
9440.5 1
9441.5 0
9442.5 0
9443.5 0
9444.5 0
9445.5 0
9446.5 0
9447.5 0
9448.5 0
9449.5 0
9450.5 0
9451.5 0
9452.5 0
9453.5 0
9454.5 1
9455.5 0
9456.5 0
9457.5 0
9458.5 1
9459.5 0
9460.5 0
9461.5 1
9462.5 0
9463.5 0
9464.5 0
9465.5 0
9466.5 0
9467.5 -1.28571
9468.5 0
9469.5 0
9470.5 0
9471.5 -2.57143
9472.5 0
9473.5 0
9474.5 0
9475.5 0
9476.5 0
9477.5 0
9478.5 0
9479.5 0
9480.5 0
9481.5 -1.28571
9482.5 1
9483.5 0
9484.5 0
9485.5 1
9486.5 0
9487.5 0
9488.5 0
9489.5 -1.28571
9490.5 -1.28571
9491.5 0
9492.5 -1.28571
9493.5 -1.28571
9494.5 1
9495.5 0
9496.5 -1.28571
9497.5 0
9498.5 0
9499.5 0
9500.5 -1.28571
9501.5 0
9502.5 0
9503.5 0
9504.5 0
9505.5 1
9506.5 0
9507.5 0
9508.5 0
9509.5 0
9510.5 0
9511.5 1
9512.5 0
9513.5 0
9514.5 0
9515.5 -1.28571
9516.5 0
9517.5 0
9518.5 0
9519.5 0
9520.5 0
9521.5 0
9522.5 0
9523.5 1
9524.5 1
9525.5 0
9526.5 0
9527.5 0
9528.5 0
9529.5 1
9530.5 -1.28571
9531.5 0
9532.5 -1.28571
9533.5 1
9534.5 0
9535.5 0
9536.5 -1.28571
9537.5 0
9538.5 0
9539.5 0
9540.5 0
9541.5 0
9542.5 0
9543.5 1
9544.5 0
9545.5 0
9546.5 0
9547.5 -1.28571
9548.5 0
9549.5 -1.28571
9550.5 0
9551.5 0
9552.5 0
9553.5 0
9554.5 0
9555.5 0
9556.5 0
9557.5 -1.28571
9558.5 0
9559.5 0
9560.5 0
9561.5 0
9562.5 0
9563.5 0
9564.5 0
9565.5 0
9566.5 0
9567.5 0
9568.5 0
9569.5 0
9570.5 -1.28571
9571.5 0
9572.5 0
9573.5 0
9574.5 0
9575.5 0
9576.5 -1.28571
9577.5 -1.28571
9578.5 -1.28571
9579.5 1
9580.5 0
9581.5 0
9582.5 0
9583.5 0
9584.5 2
9585.5 0
9586.5 0
9587.5 0
9588.5 0
9589.5 0
9590.5 0
9591.5 0
9592.5 0
9593.5 0
9594.5 -1.28571
9595.5 0
9596.5 0
9597.5 0
9598.5 0
9599.5 0
9600.5 0
9601.5 1
9602.5 0
9603.5 0
9604.5 0
9605.5 0
9606.5 0
9607.5 0
9608.5 0
9609.5 0
9610.5 0
9611.5 0
9612.5 0
9613.5 0
9614.5 0
9615.5 0
9616.5 0
9617.5 0
9618.5 -2.57143
9619.5 0
9620.5 1
9621.5 0
9622.5 0
9623.5 2
9624.5 1
9625.5 0
9626.5 0
9627.5 1
9628.5 0
9629.5 0
9630.5 0
9631.5 -1.28571
9632.5 0
9633.5 -1.28571
9634.5 -0.285714
9635.5 0
9636.5 0
9637.5 1
9638.5 1
9639.5 0
9640.5 0
9641.5 0
9642.5 0
9643.5 0
9644.5 0
9645.5 0
9646.5 0
9647.5 0
9648.5 0
9649.5 0
9650.5 0
9651.5 0
9652.5 -1.28571
9653.5 0
9654.5 -1.28571
9655.5 0
9656.5 0
9657.5 0
9658.5 0
9659.5 0
9660.5 0
9661.5 0
9662.5 -1.28571
9663.5 0
9664.5 1
9665.5 1
9666.5 -1.57143
9667.5 0
9668.5 1
9669.5 0
9670.5 0
9671.5 0
9672.5 0
9673.5 0
9674.5 0
9675.5 -1.28571
9676.5 0
9677.5 0
9678.5 0
9679.5 0
9680.5 0
9681.5 0
9682.5 0
9683.5 0
9684.5 -1.28571
9685.5 0
9686.5 -1.28571
9687.5 0
9688.5 0
9689.5 0
9690.5 0
9691.5 0
9692.5 0
9693.5 0
9694.5 0
9695.5 0
9696.5 0
9697.5 0
9698.5 -1.28571
9699.5 0
9700.5 0
9701.5 0
9702.5 0
9703.5 0
9704.5 0
9705.5 0
9706.5 0
9707.5 0
9708.5 0
9709.5 0
9710.5 0
9711.5 -1.28571
9712.5 0
9713.5 0
9714.5 0
9715.5 0
9716.5 0
9717.5 0
9718.5 0
9719.5 0
9720.5 0
9721.5 1
9722.5 0
9723.5 0
9724.5 0
9725.5 0
9726.5 0
9727.5 0
9728.5 1
9729.5 0
9730.5 0
9731.5 0
9732.5 0
9733.5 0
9734.5 0
9735.5 1
9736.5 0
9737.5 0
9738.5 0
9739.5 0
9740.5 0
9741.5 0
9742.5 0
9743.5 0
9744.5 0
9745.5 0
9746.5 0
9747.5 0
9748.5 0
9749.5 0
9750.5 0
9751.5 0
9752.5 0
9753.5 0
9754.5 0
9755.5 0
9756.5 0
9757.5 0
9758.5 -1.28571
9759.5 0
9760.5 0
9761.5 0
9762.5 0
9763.5 0
9764.5 0
9765.5 0
9766.5 0
9767.5 0
9768.5 0
9769.5 -1.28571
9770.5 1
9771.5 -1.28571
9772.5 0
9773.5 0
9774.5 0
9775.5 -1.28571
9776.5 0
9777.5 0
9778.5 0
9779.5 0
9780.5 0
9781.5 0
9782.5 0
9783.5 0
9784.5 0
9785.5 0
9786.5 0
9787.5 0
9788.5 0
9789.5 0
9790.5 0
9791.5 0
9792.5 0
9793.5 0
9794.5 0
9795.5 0
9796.5 0
9797.5 0
9798.5 0
9799.5 -1.28571
9800.5 0
9801.5 0
9802.5 0
9803.5 0
9804.5 0
9805.5 0
9806.5 0
9807.5 0
9808.5 0
9809.5 0
9810.5 0
9811.5 0
9812.5 0
9813.5 0
9814.5 0
9815.5 0
9816.5 0
9817.5 0
9818.5 0
9819.5 0
9820.5 0
9821.5 1
9822.5 0
9823.5 0
9824.5 0
9825.5 0
9826.5 0
9827.5 0
9828.5 0
9829.5 0
9830.5 0
9831.5 1
9832.5 0
9833.5 0
9834.5 0
9835.5 0
9836.5 0
9837.5 0
9838.5 0
9839.5 0
9840.5 0
9841.5 0
9842.5 1
9843.5 0
9844.5 0
9845.5 0
9846.5 1
9847.5 0
9848.5 0
9849.5 0
9850.5 0
9851.5 0
9852.5 0
9853.5 0
9854.5 0
9855.5 0
9856.5 0
9857.5 0
9858.5 0
9859.5 0
9860.5 0
9861.5 0
9862.5 0
9863.5 0
9864.5 0
9865.5 0
9866.5 -1.28571
9867.5 0
9868.5 0
9869.5 0
9870.5 0
9871.5 0
9872.5 0
9873.5 0
9874.5 0
9875.5 0
9876.5 0
9877.5 0
9878.5 0
9879.5 0
9880.5 0
9881.5 1
9882.5 0
9883.5 -1.28571
9884.5 0
9885.5 0
9886.5 0
9887.5 2
9888.5 0
9889.5 1
9890.5 0
9891.5 0
9892.5 0
9893.5 0
9894.5 -1.28571
9895.5 0
9896.5 0
9897.5 0
9898.5 0
9899.5 0
9900.5 0
9901.5 -1.28571
9902.5 0
9903.5 0
9904.5 0
9905.5 0
9906.5 0
9907.5 0
9908.5 0
9909.5 0
9910.5 0
9911.5 0
9912.5 0
9913.5 0
9914.5 0
9915.5 -1.28571
9916.5 0
9917.5 0
9918.5 0
9919.5 0
9920.5 0
9921.5 0
9922.5 0
9923.5 -1.28571
9924.5 0
9925.5 -1.28571
9926.5 0
9927.5 0
9928.5 0
9929.5 0
9930.5 0
9931.5 0
9932.5 0
9933.5 0
9934.5 0
9935.5 0
9936.5 0
9937.5 0
9938.5 -1.28571
9939.5 -1.28571
9940.5 0
9941.5 0
9942.5 0
9943.5 -0.285714
9944.5 0
9945.5 0
9946.5 0
9947.5 0
9948.5 0
9949.5 0
9950.5 0
9951.5 0
9952.5 0
9953.5 0
9954.5 0
9955.5 1
9956.5 -1.28571
9957.5 0
9958.5 0
9959.5 0
9960.5 0
9961.5 0
9962.5 0
9963.5 0
9964.5 0
9965.5 0
9966.5 0
9967.5 0
9968.5 0
9969.5 0
9970.5 0
9971.5 0
9972.5 0
9973.5 1
9974.5 0
9975.5 1
9976.5 0
9977.5 0
9978.5 0
9979.5 0
9980.5 0
9981.5 0
9982.5 0
9983.5 0
9984.5 0
9985.5 0
9986.5 0
9987.5 0
9988.5 0
9989.5 0
9990.5 0
9991.5 0
9992.5 0
9993.5 0
9994.5 0
9995.5 0
9996.5 0
9997.5 0
9998.5 0
9999.5 0
10000.5 0
10001.5 0
10002.5 0
10003.5 0
10004.5 0
10005.5 0
10006.5 0
10007.5 0
10008.5 0
10009.5 0
10010.5 0
10011.5 0
10012.5 0
10013.5 0
10014.5 0
10015.5 0
10016.5 0
10017.5 0
10018.5 0
10019.5 0
10020.5 0
10021.5 0
10022.5 1
10023.5 0
10024.5 0
10025.5 0
10026.5 0
10027.5 0
10028.5 -1.28571
10029.5 0
10030.5 1
10031.5 0
10032.5 0
10033.5 0
10034.5 0
10035.5 0
10036.5 0
10037.5 0
10038.5 0
10039.5 -1.28571
10040.5 0
10041.5 0
10042.5 0
10043.5 0
10044.5 0
10045.5 0
10046.5 0
10047.5 0
10048.5 0
10049.5 0
10050.5 0
10051.5 0
10052.5 0
10053.5 0
10054.5 0
10055.5 0
10056.5 0
10057.5 0
10058.5 0
10059.5 1
10060.5 0
10061.5 0
10062.5 0
10063.5 0
10064.5 0
10065.5 0
10066.5 0
10067.5 0
10068.5 0
10069.5 0
10070.5 0
10071.5 0
10072.5 -1.28571
10073.5 1
10074.5 0
10075.5 0
10076.5 0
10077.5 0
10078.5 1
10079.5 0
10080.5 0
10081.5 0
10082.5 0
10083.5 0
10084.5 0
10085.5 0
10086.5 0
10087.5 0
10088.5 0
10089.5 0
10090.5 1
10091.5 0
10092.5 0
10093.5 0
10094.5 0
10095.5 0
10096.5 0
10097.5 0
10098.5 0
10099.5 0
10100.5 0
10101.5 0
10102.5 0
10103.5 0
10104.5 0
10105.5 0
10106.5 0
10107.5 0
10108.5 0
10109.5 0
10110.5 0
10111.5 1
10112.5 0
10113.5 0
10114.5 0
10115.5 0
10116.5 0
10117.5 0
10118.5 0
10119.5 0
10120.5 0
10121.5 0
10122.5 0
10123.5 0
10124.5 0
10125.5 0
10126.5 0
10127.5 0
10128.5 0
10129.5 0
10130.5 0
10131.5 0
10132.5 -1.28571
10133.5 0
10134.5 0
10135.5 0
10136.5 0
10137.5 0
10138.5 0
10139.5 0
10140.5 -0.285714
10141.5 0
10142.5 0
10143.5 0
10144.5 1
10145.5 0
10146.5 0
10147.5 0
10148.5 0
10149.5 0
10150.5 0
10151.5 0
10152.5 0
10153.5 0
10154.5 0
10155.5 0
10156.5 0
10157.5 0
10158.5 0
10159.5 0
10160.5 0
10161.5 0
10162.5 0
10163.5 0
10164.5 0
10165.5 0
10166.5 0
10167.5 1
10168.5 0
10169.5 0
10170.5 0
10171.5 0
10172.5 0
10173.5 0
10174.5 0
10175.5 0
10176.5 0
10177.5 0
10178.5 0
10179.5 0
10180.5 0
10181.5 0
10182.5 -1.28571
10183.5 0
10184.5 0
10185.5 0
10186.5 0
10187.5 0
10188.5 0
10189.5 0
10190.5 0
10191.5 0
10192.5 0
10193.5 0
10194.5 0
10195.5 0
10196.5 0
10197.5 -1.28571
10198.5 0
10199.5 0
10200.5 0
10201.5 0
10202.5 1
10203.5 0
10204.5 0
10205.5 0
10206.5 0
10207.5 0
10208.5 0
10209.5 0
10210.5 0
10211.5 0
10212.5 0
10213.5 0
10214.5 0
10215.5 0
10216.5 0
10217.5 0
10218.5 0
10219.5 0
10220.5 0
10221.5 0
10222.5 0
10223.5 0
10224.5 0
10225.5 0
10226.5 0
10227.5 0
10228.5 0
10229.5 0
10230.5 1
10231.5 0
10232.5 0
10233.5 0
10234.5 0
10235.5 0
10236.5 0
10237.5 0
10238.5 0
10239.5 0
10240.5 0
10241.5 0
10242.5 0
10243.5 0
10244.5 0
10245.5 0
10246.5 1
10247.5 -1.28571
10248.5 0
10249.5 0
10250.5 0
10251.5 0
10252.5 0
10253.5 0
10254.5 0
10255.5 0
10256.5 0
10257.5 0
10258.5 0
10259.5 0
10260.5 0
10261.5 0
10262.5 0
10263.5 0
10264.5 0
10265.5 0
10266.5 0
10267.5 0
10268.5 0
10269.5 1
10270.5 0
10271.5 0
10272.5 0
10273.5 0
10274.5 0
10275.5 0
10276.5 0
10277.5 0
10278.5 0
10279.5 0
10280.5 0
10281.5 0
10282.5 0
10283.5 0
10284.5 -1.28571
10285.5 0
10286.5 0
10287.5 0
10288.5 0
10289.5 0
10290.5 0
10291.5 0
10292.5 0
10293.5 0
10294.5 0
10295.5 0
10296.5 -1.28571
10297.5 0
10298.5 0
10299.5 0
10300.5 0
10301.5 0
10302.5 0
10303.5 0
10304.5 0
10305.5 0
10306.5 0
10307.5 0
10308.5 0
10309.5 -1.28571
10310.5 0
10311.5 0
10312.5 0
10313.5 0
10314.5 0
10315.5 0
10316.5 0
10317.5 0
10318.5 0
10319.5 0
10320.5 0
10321.5 0
10322.5 0
10323.5 0
10324.5 0
10325.5 0
10326.5 0
10327.5 0
10328.5 0
10329.5 0
10330.5 0
10331.5 0
10332.5 0
10333.5 0
10334.5 0
10335.5 -1.28571
10336.5 0
10337.5 0
10338.5 0
10339.5 0
10340.5 0
10341.5 0
10342.5 0
10343.5 0
10344.5 0
10345.5 0
10346.5 0
10347.5 0
10348.5 0
10349.5 0
10350.5 0
10351.5 0
10352.5 0
10353.5 0
10354.5 0
10355.5 0
10356.5 0
10357.5 0
10358.5 -1.28571
10359.5 0
10360.5 0
10361.5 0
10362.5 0
10363.5 0
10364.5 0
10365.5 0
10366.5 0
10367.5 0
10368.5 0
10369.5 0
10370.5 0
10371.5 0
10372.5 0
10373.5 0
10374.5 0
10375.5 0
10376.5 0
10377.5 0
10378.5 0
10379.5 0
10380.5 0
10381.5 0
10382.5 0
10383.5 0
10384.5 0
10385.5 0
10386.5 0
10387.5 0
10388.5 1
10389.5 1
10390.5 0
10391.5 0
10392.5 0
10393.5 0
10394.5 0
10395.5 0
10396.5 0
10397.5 0
10398.5 0
10399.5 0
10400.5 0
10401.5 0
10402.5 0
10403.5 0
10404.5 0
10405.5 0
10406.5 0
10407.5 0
10408.5 0
10409.5 0
10410.5 0
10411.5 0
10412.5 0
10413.5 0
10414.5 0
10415.5 0
10416.5 0
10417.5 0
10418.5 0
10419.5 0
10420.5 0
10421.5 0
10422.5 0
10423.5 0
10424.5 0
10425.5 0
10426.5 0
10427.5 -1.28571
10428.5 0
10429.5 0
10430.5 0
10431.5 0
10432.5 0
10433.5 0
10434.5 0
10435.5 0
10436.5 0
10437.5 0
10438.5 0
10439.5 0
10440.5 0
10441.5 0
10442.5 0
10443.5 0
10444.5 0
10445.5 0
10446.5 0
10447.5 0
10448.5 0
10449.5 0
10450.5 0
10451.5 0
10452.5 0
10453.5 0
10454.5 0
10455.5 0
10456.5 0
10457.5 0
10458.5 0
10459.5 0
10460.5 0
10461.5 0
10462.5 0
10463.5 0
10464.5 0
10465.5 0
10466.5 0
10467.5 0
10468.5 0
10469.5 0
10470.5 0
10471.5 0
10472.5 0
10473.5 0
10474.5 0
10475.5 0
10476.5 0
10477.5 0
10478.5 0
10479.5 0
10480.5 0
10481.5 0
10482.5 0
10483.5 0
10484.5 0
10485.5 0
10486.5 0
10487.5 0
10488.5 0
10489.5 0
10490.5 0
10491.5 0
10492.5 0
10493.5 0
10494.5 0
10495.5 1
10496.5 0
10497.5 0
10498.5 0
10499.5 0
10500.5 0
10501.5 0
10502.5 0
10503.5 0
10504.5 1
10505.5 0
10506.5 1
10507.5 0
10508.5 0
10509.5 0
10510.5 0
10511.5 0
10512.5 0
10513.5 -1.28571
10514.5 0
10515.5 0
10516.5 0
10517.5 0
10518.5 0
10519.5 0
10520.5 0
10521.5 0
10522.5 0
10523.5 0
10524.5 0
10525.5 0
10526.5 0
10527.5 0
10528.5 0
10529.5 0
10530.5 0
10531.5 0
10532.5 0
10533.5 0
10534.5 0
10535.5 0
10536.5 0
10537.5 0
10538.5 0
10539.5 0
10540.5 0
10541.5 0
10542.5 0
10543.5 0
10544.5 0
10545.5 0
10546.5 0
10547.5 0
10548.5 0
10549.5 0
10550.5 0
10551.5 0
10552.5 0
10553.5 1
10554.5 0
10555.5 0
10556.5 0
10557.5 -1.28571
10558.5 0
10559.5 0
10560.5 0
10561.5 0
10562.5 0
10563.5 0
10564.5 0
10565.5 -1.28571
10566.5 0
10567.5 0
10568.5 0
10569.5 0
10570.5 0
10571.5 0
10572.5 -1.28571
10573.5 0
10574.5 0
10575.5 0
10576.5 0
10577.5 0
10578.5 0
10579.5 0
10580.5 0
10581.5 0
10582.5 0
10583.5 0
10584.5 0
10585.5 0
10586.5 0
10587.5 0
10588.5 0
10589.5 0
10590.5 0
10591.5 0
10592.5 0
10593.5 0
10594.5 0
10595.5 0
10596.5 0
10597.5 0
10598.5 0
10599.5 0
10600.5 0
10601.5 0
10602.5 0
10603.5 0
10604.5 0
10605.5 0
10606.5 0
10607.5 0
10608.5 0
10609.5 0
10610.5 0
10611.5 0
10612.5 0
10613.5 0
10614.5 0
10615.5 0
10616.5 0
10617.5 0
10618.5 0
10619.5 0
10620.5 0
10621.5 0
10622.5 0
10623.5 0
10624.5 0
10625.5 0
10626.5 0
10627.5 0
10628.5 0
10629.5 0
10630.5 0
10631.5 0
10632.5 0
10633.5 0
10634.5 0
10635.5 0
10636.5 0
10637.5 0
10638.5 0
10639.5 0
10640.5 0
10641.5 0
10642.5 0
10643.5 0
10644.5 0
10645.5 0
10646.5 0
10647.5 0
10648.5 0
10649.5 0
10650.5 0
10651.5 0
10652.5 0
10653.5 0
10654.5 0
10655.5 0
10656.5 0
10657.5 0
10658.5 0
10659.5 0
10660.5 0
10661.5 0
10662.5 0
10663.5 0
10664.5 0
10665.5 0
10666.5 0
10667.5 0
10668.5 0
10669.5 0
10670.5 0
10671.5 0
10672.5 0
10673.5 0
10674.5 0
10675.5 0
10676.5 0
10677.5 0
10678.5 0
10679.5 0
10680.5 0
10681.5 0
10682.5 0
10683.5 0
10684.5 0
10685.5 0
10686.5 0
10687.5 0
10688.5 0
10689.5 0
10690.5 -1.28571
10691.5 0
10692.5 0
10693.5 0
10694.5 0
10695.5 0
10696.5 0
10697.5 0
10698.5 0
10699.5 1
10700.5 0
10701.5 0
10702.5 0
10703.5 0
10704.5 0
10705.5 0
10706.5 0
10707.5 0
10708.5 0
10709.5 0
10710.5 -1.28571
10711.5 0
10712.5 0
10713.5 0
10714.5 0
10715.5 0
10716.5 0
10717.5 0
10718.5 0
10719.5 0
10720.5 0
10721.5 0
10722.5 0
10723.5 0
10724.5 0
10725.5 0
10726.5 0
10727.5 -1.28571
10728.5 0
10729.5 0
10730.5 0
10731.5 1
10732.5 0
10733.5 0
10734.5 0
10735.5 0
10736.5 0
10737.5 0
10738.5 0
10739.5 0
10740.5 0
10741.5 0
10742.5 0
10743.5 0
10744.5 0
10745.5 0
10746.5 0
10747.5 0
10748.5 0
10749.5 0
10750.5 0
10751.5 0
10752.5 0
10753.5 0
10754.5 0
10755.5 0
10756.5 0
10757.5 0
10758.5 0
10759.5 0
10760.5 0
10761.5 0
10762.5 0
10763.5 0
10764.5 0
10765.5 0
10766.5 0
10767.5 0
10768.5 0
10769.5 0
10770.5 0
10771.5 0
10772.5 0
10773.5 -1.28571
10774.5 1
10775.5 0
10776.5 0
10777.5 0
10778.5 0
10779.5 0
10780.5 0
10781.5 0
10782.5 0
10783.5 0
10784.5 0
10785.5 0
10786.5 0
10787.5 0
10788.5 0
10789.5 0
10790.5 0
10791.5 0
10792.5 0
10793.5 0
10794.5 0
10795.5 0
10796.5 0
10797.5 0
10798.5 0
10799.5 0
10800.5 0
10801.5 0
10802.5 0
10803.5 0
10804.5 0
10805.5 0
10806.5 0
10807.5 0
10808.5 0
10809.5 -1.28571
10810.5 0
10811.5 0
10812.5 0
10813.5 0
10814.5 0
10815.5 0
10816.5 0
10817.5 0
10818.5 0
10819.5 0
10820.5 0
10821.5 0
10822.5 0
10823.5 0
10824.5 0
10825.5 0
10826.5 0
10827.5 0
10828.5 0
10829.5 0
10830.5 0
10831.5 0
10832.5 0
10833.5 0
10834.5 0
10835.5 0
10836.5 0
10837.5 0
10838.5 0
10839.5 0
10840.5 0
10841.5 0
10842.5 0
10843.5 0
10844.5 0
10845.5 0
10846.5 0
10847.5 0
10848.5 0
10849.5 0
10850.5 0
10851.5 0
10852.5 0
10853.5 0
10854.5 0
10855.5 0
10856.5 0
10857.5 0
10858.5 0
10859.5 0
10860.5 0
10861.5 0
10862.5 0
10863.5 0
10864.5 0
10865.5 0
10866.5 0
10867.5 0
10868.5 0
10869.5 0
10870.5 0
10871.5 0
10872.5 0
10873.5 0
10874.5 0
10875.5 0
10876.5 0
10877.5 0
10878.5 0
10879.5 0
10880.5 0
10881.5 0
10882.5 0
10883.5 0
10884.5 0
10885.5 0
10886.5 0
10887.5 0
10888.5 0
10889.5 0
10890.5 0
10891.5 0
10892.5 0
10893.5 0
10894.5 0
10895.5 0
10896.5 0
10897.5 0
10898.5 0
10899.5 0
10900.5 0
10901.5 0
10902.5 0
10903.5 0
10904.5 0
10905.5 0
10906.5 0
10907.5 0
10908.5 0
10909.5 0
10910.5 0
10911.5 0
10912.5 0
10913.5 -1.28571
10914.5 0
10915.5 0
10916.5 0
10917.5 0
10918.5 0
10919.5 0
10920.5 0
10921.5 0
10922.5 0
10923.5 0
10924.5 0
10925.5 0
10926.5 0
10927.5 0
10928.5 0
10929.5 0
10930.5 0
10931.5 0
10932.5 0
10933.5 0
10934.5 0
10935.5 0
10936.5 -1.28571
10937.5 0
10938.5 0
10939.5 0
10940.5 0
10941.5 0
10942.5 0
10943.5 0
10944.5 0
10945.5 0
10946.5 0
10947.5 0
10948.5 0
10949.5 0
10950.5 0
10951.5 0
10952.5 0
10953.5 0
10954.5 0
10955.5 0
10956.5 0
10957.5 0
10958.5 0
10959.5 0
10960.5 0
10961.5 0
10962.5 0
10963.5 0
10964.5 0
10965.5 0
10966.5 0
10967.5 0
10968.5 0
10969.5 0
10970.5 0
10971.5 0
10972.5 0
10973.5 0
10974.5 0
10975.5 0
10976.5 0
10977.5 0
10978.5 0
10979.5 0
10980.5 0
10981.5 0
10982.5 0
10983.5 0
10984.5 0
10985.5 0
10986.5 0
10987.5 0
10988.5 -1.28571
10989.5 0
10990.5 0
10991.5 0
10992.5 0
10993.5 0
10994.5 0
10995.5 0
10996.5 0
10997.5 0
10998.5 0
10999.5 0
11000.5 0
11001.5 0
11002.5 0
11003.5 0
11004.5 0
11005.5 0
11006.5 0
11007.5 0
11008.5 0
11009.5 0
11010.5 0
11011.5 -1.28571
11012.5 0
11013.5 0
11014.5 0
11015.5 0
11016.5 0
11017.5 0
11018.5 0
11019.5 0
11020.5 0
11021.5 0
11022.5 0
11023.5 0
11024.5 -1.28571
11025.5 0
11026.5 0
11027.5 0
11028.5 0
11029.5 0
11030.5 0
11031.5 0
11032.5 0
11033.5 0
11034.5 0
11035.5 0
11036.5 0
11037.5 0
11038.5 0
11039.5 -1.28571
11040.5 0
11041.5 0
11042.5 0
11043.5 0
11044.5 0
11045.5 0
11046.5 0
11047.5 0
11048.5 0
11049.5 0
11050.5 0
11051.5 0
11052.5 0
11053.5 0
11054.5 0
11055.5 0
11056.5 0
11057.5 0
11058.5 0
11059.5 0
11060.5 0
11061.5 0
11062.5 0
11063.5 0
11064.5 0
11065.5 0
11066.5 0
11067.5 0
11068.5 0
11069.5 0
11070.5 0
11071.5 0
11072.5 0
11073.5 0
11074.5 0
11075.5 0
11076.5 0
11077.5 0
11078.5 0
11079.5 0
11080.5 0
11081.5 0
11082.5 0
11083.5 0
11084.5 0
11085.5 0
11086.5 0
11087.5 0
11088.5 0
11089.5 0
11090.5 0
11091.5 0
11092.5 0
11093.5 0
11094.5 0
11095.5 0
11096.5 0
11097.5 0
11098.5 0
11099.5 0
11100.5 0
11101.5 0
11102.5 0
11103.5 0
11104.5 0
11105.5 0
11106.5 0
11107.5 0
11108.5 0
11109.5 -1.28571
11110.5 0
11111.5 0
11112.5 0
11113.5 0
11114.5 0
11115.5 0
11116.5 0
11117.5 0
11118.5 0
11119.5 0
11120.5 0
11121.5 0
11122.5 0
11123.5 -1.28571
11124.5 0
11125.5 0
11126.5 0
11127.5 0
11128.5 0
11129.5 0
11130.5 0
11131.5 0
11132.5 0
11133.5 0
11134.5 0
11135.5 0
11136.5 0
11137.5 0
11138.5 0
11139.5 0
11140.5 0
11141.5 0
11142.5 0
11143.5 0
11144.5 0
11145.5 0
11146.5 0
11147.5 0
11148.5 0
11149.5 0
11150.5 0
11151.5 0
11152.5 0
11153.5 0
11154.5 0
11155.5 0
11156.5 0
11157.5 0
11158.5 0
11159.5 0
11160.5 0
11161.5 0
11162.5 0
11163.5 0
11164.5 0
11165.5 0
11166.5 0
11167.5 0
11168.5 0
11169.5 0
11170.5 0
11171.5 0
11172.5 0
11173.5 0
11174.5 0
11175.5 0
11176.5 0
11177.5 0
11178.5 0
11179.5 0
11180.5 0
11181.5 0
11182.5 0
11183.5 0
11184.5 0
11185.5 0
11186.5 0
11187.5 0
11188.5 0
11189.5 0
11190.5 0
11191.5 0
11192.5 0
11193.5 0
11194.5 0
11195.5 0
11196.5 0
11197.5 0
11198.5 0
11199.5 0
11200.5 0
11201.5 0
11202.5 0
11203.5 0
11204.5 0
11205.5 0
11206.5 0
11207.5 0
11208.5 0
11209.5 0
11210.5 0
11211.5 0
11212.5 -1.28571
11213.5 0
11214.5 0
11215.5 0
11216.5 0
11217.5 0
11218.5 0
11219.5 0
11220.5 0
11221.5 0
11222.5 0
11223.5 0
11224.5 0
11225.5 0
11226.5 0
11227.5 0
11228.5 0
11229.5 0
11230.5 0
11231.5 0
11232.5 0
11233.5 0
11234.5 0
11235.5 0
11236.5 0
11237.5 0
11238.5 0
11239.5 0
11240.5 0
11241.5 0
11242.5 0
11243.5 0
11244.5 0
11245.5 0
11246.5 0
11247.5 -1.28571
11248.5 0
11249.5 0
11250.5 0
11251.5 0
11252.5 0
11253.5 0
11254.5 0
11255.5 0
11256.5 0
11257.5 0
11258.5 0
11259.5 0
11260.5 0
11261.5 0
11262.5 0
11263.5 0
11264.5 0
11265.5 0
11266.5 0
11267.5 0
11268.5 0
11269.5 0
11270.5 0
11271.5 0
11272.5 0
11273.5 0
11274.5 0
11275.5 0
11276.5 0
11277.5 0
11278.5 0
11279.5 0
11280.5 0
11281.5 0
11282.5 0
11283.5 0
11284.5 0
11285.5 0
11286.5 0
11287.5 0
11288.5 0
11289.5 0
11290.5 0
11291.5 0
11292.5 0
11293.5 0
11294.5 0
11295.5 0
11296.5 0
11297.5 0
11298.5 0
11299.5 0
11300.5 0
11301.5 0
11302.5 0
11303.5 0
11304.5 0
11305.5 0
11306.5 0
11307.5 0
11308.5 0
11309.5 0
11310.5 0
11311.5 0
11312.5 0
11313.5 0
11314.5 0
11315.5 0
11316.5 0
11317.5 0
11318.5 0
11319.5 0
11320.5 0
11321.5 0
11322.5 0
11323.5 0
11324.5 0
11325.5 0
11326.5 0
11327.5 0
11328.5 0
11329.5 0
11330.5 0
11331.5 0
11332.5 0
11333.5 0
11334.5 0
11335.5 0
11336.5 0
11337.5 0
11338.5 0
11339.5 0
11340.5 0
11341.5 0
11342.5 0
11343.5 0
11344.5 0
11345.5 0
11346.5 0
11347.5 0
11348.5 -1.28571
11349.5 0
11350.5 0
11351.5 0
11352.5 0
11353.5 0
11354.5 0
11355.5 0
11356.5 0
11357.5 0
11358.5 0
11359.5 0
11360.5 0
11361.5 0
11362.5 0
11363.5 0
11364.5 1
11365.5 0
11366.5 0
11367.5 0
11368.5 0
11369.5 0
11370.5 0
11371.5 0
11372.5 0
11373.5 0
11374.5 0
11375.5 0
11376.5 0
11377.5 0
11378.5 0
11379.5 0
11380.5 0
11381.5 0
11382.5 0
11383.5 0
11384.5 0
11385.5 0
11386.5 0
11387.5 0
11388.5 0
11389.5 0
11390.5 0
11391.5 0
11392.5 0
11393.5 0
11394.5 0
11395.5 0
11396.5 0
11397.5 0
11398.5 0
11399.5 0
11400.5 0
11401.5 0
11402.5 0
11403.5 0
11404.5 0
11405.5 0
11406.5 0
11407.5 0
11408.5 0
11409.5 0
11410.5 0
11411.5 0
11412.5 0
11413.5 0
11414.5 0
11415.5 0
11416.5 0
11417.5 0
11418.5 0
11419.5 0
11420.5 0
11421.5 0
11422.5 0
11423.5 0
11424.5 0
11425.5 0
11426.5 0
11427.5 0
11428.5 0
11429.5 0
11430.5 0
11431.5 0
11432.5 0
11433.5 0
11434.5 0
11435.5 0
11436.5 0
11437.5 0
11438.5 0
11439.5 0
11440.5 0
11441.5 0
11442.5 0
11443.5 0
11444.5 0
11445.5 0
11446.5 0
11447.5 0
11448.5 0
11449.5 0
11450.5 0
11451.5 0
11452.5 0
11453.5 0
11454.5 0
11455.5 0
11456.5 0
11457.5 1
11458.5 0
11459.5 0
11460.5 0
11461.5 0
11462.5 0
11463.5 0
11464.5 0
11465.5 0
11466.5 0
11467.5 0
11468.5 0
11469.5 0
11470.5 0
11471.5 0
11472.5 0
11473.5 0
11474.5 0
11475.5 0
11476.5 0
11477.5 0
11478.5 0
11479.5 0
11480.5 0
11481.5 0
11482.5 0
11483.5 0
11484.5 0
11485.5 0
11486.5 0
11487.5 0
11488.5 0
11489.5 0
11490.5 0
11491.5 0
11492.5 0
11493.5 0
11494.5 0
11495.5 0
11496.5 0
11497.5 0
11498.5 0
11499.5 0
11500.5 0
11501.5 0
11502.5 0
11503.5 0
11504.5 0
11505.5 0
11506.5 0
11507.5 0
11508.5 0
11509.5 0
11510.5 0
11511.5 0
11512.5 0
11513.5 0
11514.5 0
11515.5 0
11516.5 0
11517.5 0
11518.5 0
11519.5 0
11520.5 0
11521.5 0
11522.5 0
11523.5 0
11524.5 0
11525.5 0
11526.5 0
11527.5 0
11528.5 0
11529.5 0
11530.5 0
11531.5 0
11532.5 0
11533.5 0
11534.5 0
11535.5 0
11536.5 0
11537.5 0
11538.5 0
11539.5 0
11540.5 0
11541.5 0
11542.5 0
11543.5 0
11544.5 0
11545.5 0
11546.5 0
11547.5 0
11548.5 0
11549.5 0
11550.5 0
11551.5 0
11552.5 0
11553.5 0
11554.5 0
11555.5 0
11556.5 0
11557.5 0
11558.5 0
11559.5 0
11560.5 0
11561.5 0
11562.5 0
11563.5 0
11564.5 0
11565.5 0
11566.5 0
11567.5 0
11568.5 0
11569.5 0
11570.5 0
11571.5 0
11572.5 0
11573.5 0
11574.5 0
11575.5 0
11576.5 0
11577.5 0
11578.5 0
11579.5 0
11580.5 0
11581.5 0
11582.5 0
11583.5 0
11584.5 0
11585.5 0
11586.5 0
11587.5 0
11588.5 0
11589.5 0
11590.5 0
11591.5 0
11592.5 0
11593.5 0
11594.5 0
11595.5 0
11596.5 0
11597.5 0
11598.5 0
11599.5 0
11600.5 0
11601.5 0
11602.5 0
11603.5 0
11604.5 0
11605.5 0
11606.5 0
11607.5 0
11608.5 0
11609.5 0
11610.5 0
11611.5 0
11612.5 0
11613.5 0
11614.5 0
11615.5 0
11616.5 0
11617.5 0
11618.5 0
11619.5 0
11620.5 0
11621.5 0
11622.5 0
11623.5 0
11624.5 0
11625.5 0
11626.5 0
11627.5 0
11628.5 0
11629.5 0
11630.5 0
11631.5 0
11632.5 0
11633.5 0
11634.5 0
11635.5 0
11636.5 0
11637.5 0
11638.5 0
11639.5 0
11640.5 0
11641.5 0
11642.5 0
11643.5 0
11644.5 0
11645.5 0
11646.5 0
11647.5 0
11648.5 0
11649.5 0
11650.5 0
11651.5 0
11652.5 0
11653.5 0
11654.5 0
11655.5 0
11656.5 0
11657.5 0
11658.5 0
11659.5 0
11660.5 0
11661.5 0
11662.5 0
11663.5 0
11664.5 0
11665.5 0
11666.5 0
11667.5 0
11668.5 0
11669.5 0
11670.5 0
11671.5 0
11672.5 0
11673.5 0
11674.5 0
11675.5 0
11676.5 0
11677.5 0
11678.5 0
11679.5 0
11680.5 0
11681.5 0
11682.5 0
11683.5 0
11684.5 0
11685.5 0
11686.5 0
11687.5 0
11688.5 0
11689.5 0
11690.5 0
11691.5 0
11692.5 0
11693.5 0
11694.5 0
11695.5 0
11696.5 0
11697.5 0
11698.5 0
11699.5 0
11700.5 0
11701.5 0
11702.5 0
11703.5 0
11704.5 0
11705.5 0
11706.5 0
11707.5 0
11708.5 1
11709.5 0
11710.5 0
11711.5 0
11712.5 0
11713.5 0
11714.5 0
11715.5 0
11716.5 0
11717.5 0
11718.5 0
11719.5 0
11720.5 0
11721.5 0
11722.5 0
11723.5 0
11724.5 0
11725.5 0
11726.5 0
11727.5 0
11728.5 0
11729.5 0
11730.5 0
11731.5 0
11732.5 0
11733.5 0
11734.5 0
11735.5 0
11736.5 0
11737.5 0
11738.5 0
11739.5 0
11740.5 0
11741.5 0
11742.5 0
11743.5 0
11744.5 0
11745.5 0
11746.5 0
11747.5 0
11748.5 0
11749.5 0
11750.5 0
11751.5 0
11752.5 0
11753.5 0
11754.5 0
11755.5 0
11756.5 0
11757.5 0
11758.5 0
11759.5 0
11760.5 0
11761.5 0
11762.5 0
11763.5 0
11764.5 0
11765.5 0
11766.5 0
11767.5 0
11768.5 0
11769.5 0
11770.5 0
11771.5 0
11772.5 0
11773.5 0
11774.5 -1.28571
11775.5 0
11776.5 0
11777.5 0
11778.5 0
11779.5 0
11780.5 0
11781.5 0
11782.5 -1.28571
11783.5 0
11784.5 0
11785.5 0
11786.5 0
11787.5 0
11788.5 0
11789.5 0
11790.5 0
11791.5 0
11792.5 0
11793.5 0
11794.5 0
11795.5 0
11796.5 0
11797.5 0
11798.5 0
11799.5 0
11800.5 0
11801.5 0
11802.5 0
11803.5 0
11804.5 0
11805.5 0
11806.5 0
11807.5 0
11808.5 0
11809.5 0
11810.5 0
11811.5 0
11812.5 0
11813.5 0
11814.5 0
11815.5 0
11816.5 0
11817.5 0
11818.5 0
11819.5 0
11820.5 0
11821.5 0
11822.5 0
11823.5 0
11824.5 0
11825.5 0
11826.5 0
11827.5 0
11828.5 0
11829.5 0
11830.5 0
11831.5 0
11832.5 0
11833.5 0
11834.5 0
11835.5 0
11836.5 0
11837.5 0
11838.5 0
11839.5 0
11840.5 0
11841.5 0
11842.5 0
11843.5 0
11844.5 0
11845.5 0
11846.5 0
11847.5 0
11848.5 0
11849.5 0
11850.5 0
11851.5 0
11852.5 0
11853.5 0
11854.5 0
11855.5 0
11856.5 0
11857.5 0
11858.5 0
11859.5 0
11860.5 0
11861.5 0
11862.5 0
11863.5 0
11864.5 0
11865.5 0
11866.5 0
11867.5 0
11868.5 0
11869.5 0
11870.5 0
11871.5 0
11872.5 0
11873.5 0
11874.5 0
11875.5 0
11876.5 0
11877.5 0
11878.5 0
11879.5 0
11880.5 0
11881.5 0
11882.5 0
11883.5 0
11884.5 0
11885.5 0
11886.5 0
11887.5 0
11888.5 0
11889.5 0
11890.5 0
11891.5 0
11892.5 0
11893.5 0
11894.5 0
11895.5 0
11896.5 0
11897.5 0
11898.5 0
11899.5 0
11900.5 0
11901.5 0
11902.5 0
11903.5 0
11904.5 0
11905.5 0
11906.5 0
11907.5 0
11908.5 0
11909.5 0
11910.5 0
11911.5 0
11912.5 0
11913.5 0
11914.5 0
11915.5 0
11916.5 0
11917.5 0
11918.5 0
11919.5 0
11920.5 0
11921.5 0
11922.5 0
11923.5 0
11924.5 0
11925.5 0
11926.5 0
11927.5 0
11928.5 0
11929.5 0
11930.5 0
11931.5 0
11932.5 0
11933.5 0
11934.5 0
11935.5 0
11936.5 0
11937.5 0
11938.5 0
11939.5 0
11940.5 0
11941.5 0
11942.5 0
11943.5 0
11944.5 0
11945.5 0
11946.5 0
11947.5 0
11948.5 0
11949.5 0
11950.5 0
11951.5 0
11952.5 0
11953.5 0
11954.5 0
11955.5 0
11956.5 0
11957.5 0
11958.5 0
11959.5 0
11960.5 0
11961.5 0
11962.5 0
11963.5 0
11964.5 0
11965.5 0
11966.5 0
11967.5 0
11968.5 0
11969.5 0
11970.5 0
11971.5 0
11972.5 0
11973.5 0
11974.5 0
11975.5 0
11976.5 0
11977.5 0
11978.5 0
11979.5 0
11980.5 0
11981.5 0
11982.5 0
11983.5 0
11984.5 0
11985.5 0
11986.5 0
11987.5 0
11988.5 0
11989.5 0
11990.5 0
11991.5 0
11992.5 0
11993.5 0
11994.5 0
11995.5 0
11996.5 0
11997.5 0
11998.5 0
11999.5 0
