# EGG_ProjY_E3446.0(3.0)_B3420.5(1.5)_B3474.0(2.0)
# X axis : Energy (keV) [Y axis]
# Y axis : Counts/1 keV
# N Bins : 12000
# X Min : 0
# X Max : 12000
# X value at the center of the bins
0.5 0
1.5 0
2.5 0
3.5 0
4.5 0
5.5 29
6.5 11.1429
7.5 8.71429
8.5 11.1429
9.5 2
10.5 5.42857
11.5 32.8571
12.5 12.8571
13.5 21.5714
14.5 5.42857
15.5 37
16.5 45.1429
17.5 43
18.5 99.5714
19.5 119.571
20.5 99
21.5 142.714
22.5 129.571
23.5 152.714
24.5 130.286
25.5 178.429
26.5 228.143
27.5 287.143
28.5 326
29.5 325
30.5 327.143
31.5 375
32.5 517
33.5 307
34.5 409.714
35.5 449
36.5 487.714
37.5 356
38.5 432.857
39.5 431.429
40.5 527.286
41.5 442.143
42.5 389.286
43.5 438.286
44.5 460.429
45.5 414.571
46.5 573.143
47.5 550.286
48.5 420.143
49.5 508
50.5 569.714
51.5 518.714
52.5 457
53.5 465.286
54.5 659.857
55.5 535.714
56.5 519.429
57.5 562.857
58.5 661.429
59.5 755.143
60.5 656
61.5 557
62.5 442
63.5 552.571
64.5 416.714
65.5 472.571
66.5 482.143
67.5 583.714
68.5 578.714
69.5 531.429
70.5 491.571
71.5 525.143
72.5 498.857
73.5 649.714
74.5 905.286
75.5 993.143
76.5 1155.43
77.5 1176.71
78.5 892.143
79.5 534
80.5 610.143
81.5 533.286
82.5 539.714
83.5 595.429
84.5 529.429
85.5 796.429
86.5 707.857
87.5 791.286
88.5 730.286
89.5 658
90.5 674.857
91.5 647
92.5 560.571
93.5 470
94.5 606.143
95.5 563
96.5 653
97.5 588.429
98.5 557.571
99.5 551.143
100.5 529
101.5 515.143
102.5 410
103.5 417.571
104.5 613.571
105.5 504.429
106.5 620.571
107.5 554.286
108.5 506.857
109.5 448
110.5 441.714
111.5 494.714
112.5 529.286
113.5 623.143
114.5 572.714
115.5 612
116.5 686.571
117.5 583.571
118.5 711
119.5 687.714
120.5 662.714
121.5 724.429
122.5 689
123.5 698.571
124.5 711.571
125.5 669.143
126.5 560.143
127.5 630.143
128.5 551.714
129.5 635
130.5 753.571
131.5 811
132.5 864
133.5 709.857
134.5 769.429
135.5 804
136.5 876.714
137.5 650.143
138.5 818.143
139.5 814.857
140.5 742
141.5 732.143
142.5 900.714
143.5 670.429
144.5 716.857
145.5 640.857
146.5 580.857
147.5 734.429
148.5 628.857
149.5 562.857
150.5 799.286
151.5 732
152.5 672.571
153.5 599.857
154.5 697.857
155.5 792.286
156.5 735.286
157.5 774.714
158.5 812.143
159.5 703.857
160.5 691.714
161.5 706.714
162.5 747
163.5 787
164.5 719.857
165.5 650.857
166.5 753.286
167.5 758.857
168.5 726.143
169.5 695.286
170.5 707.571
171.5 744.714
172.5 837.857
173.5 857.286
174.5 793.571
175.5 841.571
176.5 878.143
177.5 915.571
178.5 805.286
179.5 927.714
180.5 815.571
181.5 717.286
182.5 767.571
183.5 781.143
184.5 804.714
185.5 670.714
186.5 625.429
187.5 730.429
188.5 717.571
189.5 803.857
190.5 784.571
191.5 728.714
192.5 693.429
193.5 940.571
194.5 844.571
195.5 851.571
196.5 642.143
197.5 883.429
198.5 681.286
199.5 687.143
200.5 820.714
201.5 773.714
202.5 815.286
203.5 768.857
204.5 865.857
205.5 817.571
206.5 775
207.5 898.286
208.5 906.286
209.5 972.714
210.5 982.143
211.5 1001.29
212.5 972.571
213.5 972.143
214.5 1106.29
215.5 1029.43
216.5 987.571
217.5 913.286
218.5 888.714
219.5 853.857
220.5 820.714
221.5 813.714
222.5 770.714
223.5 930.714
224.5 787.714
225.5 910.571
226.5 974.429
227.5 769.429
228.5 791.714
229.5 814.571
230.5 864.429
231.5 965.857
232.5 876.429
233.5 895
234.5 881.286
235.5 850.571
236.5 1030.43
237.5 883.286
238.5 871
239.5 888
240.5 745.571
241.5 817.286
242.5 850.429
243.5 633.143
244.5 787.429
245.5 756.571
246.5 735.286
247.5 785.714
248.5 916.857
249.5 866.143
250.5 799.286
251.5 776.429
252.5 783
253.5 737.714
254.5 888.571
255.5 757.286
256.5 787
257.5 811.857
258.5 710.857
259.5 811
260.5 822.571
261.5 732.571
262.5 728.429
263.5 854.857
264.5 754.429
265.5 830.286
266.5 787.429
267.5 677.714
268.5 604.143
269.5 609.286
270.5 688.143
271.5 592.429
272.5 639.571
273.5 627.286
274.5 704.857
275.5 570.429
276.5 495.143
277.5 730.857
278.5 651.143
279.5 739
280.5 627.286
281.5 726.571
282.5 778.714
283.5 740.857
284.5 648.571
285.5 646.143
286.5 756.714
287.5 801.286
288.5 559.857
289.5 719.571
290.5 729.857
291.5 644.143
292.5 713.143
293.5 620.857
294.5 654.714
295.5 777.286
296.5 794.286
297.5 840.571
298.5 1022.29
299.5 1194
300.5 1035.86
301.5 787.571
302.5 777.286
303.5 647.857
304.5 636.857
305.5 758.571
306.5 726
307.5 654.857
308.5 691.143
309.5 697.857
310.5 631
311.5 720.857
312.5 584.857
313.5 560.429
314.5 687.857
315.5 536.714
316.5 600.429
317.5 633.714
318.5 674.857
319.5 614.286
320.5 570.857
321.5 499.429
322.5 632.286
323.5 525
324.5 482.429
325.5 609.714
326.5 517.429
327.5 606.286
328.5 650.571
329.5 530.286
330.5 526.714
331.5 459.429
332.5 559.286
333.5 471.714
334.5 641.714
335.5 573.143
336.5 452.143
337.5 497.143
338.5 507.714
339.5 706.429
340.5 576.429
341.5 407.429
342.5 552.571
343.5 606.143
344.5 532.714
345.5 543.571
346.5 612.857
347.5 488.571
348.5 585.714
349.5 579.429
350.5 516.857
351.5 535.857
352.5 496
353.5 550.286
354.5 543
355.5 578
356.5 561.286
357.5 514.143
358.5 573.571
359.5 664.429
360.5 660.857
361.5 610.714
362.5 610.286
363.5 623.143
364.5 465.286
365.5 511.143
366.5 589.286
367.5 344.571
368.5 444.143
369.5 360.429
370.5 484
371.5 427.429
372.5 465.286
373.5 490.286
374.5 452.857
375.5 493.286
376.5 637.429
377.5 506.857
378.5 501
379.5 541.286
380.5 548.857
381.5 532.429
382.5 454.857
383.5 457.714
384.5 378
385.5 383.143
386.5 471.857
387.5 370.857
388.5 379
389.5 332.143
390.5 392.571
391.5 442
392.5 398.857
393.5 505.286
394.5 421.429
395.5 317.429
396.5 403.143
397.5 452
398.5 463.571
399.5 450.857
400.5 467.714
401.5 370.857
402.5 531.571
403.5 887
404.5 856
405.5 572.286
406.5 483
407.5 441.857
408.5 543.286
409.5 483
410.5 439.286
411.5 571.143
412.5 594.857
413.5 681.857
414.5 572.857
415.5 490.714
416.5 498.286
417.5 610
418.5 564.143
419.5 534.143
420.5 614.714
421.5 562.429
422.5 581.429
423.5 498.714
424.5 520.714
425.5 388.571
426.5 502.714
427.5 474
428.5 410.714
429.5 517.857
430.5 467.857
431.5 467.571
432.5 395.714
433.5 411.143
434.5 508.857
435.5 404
436.5 271.714
437.5 379.857
438.5 389.714
439.5 312.143
440.5 351.714
441.5 438.143
442.5 446.857
443.5 474.286
444.5 356.429
445.5 392
446.5 438
447.5 296.857
448.5 326.286
449.5 316.429
450.5 388.714
451.5 477.714
452.5 464.857
453.5 459.714
454.5 490.571
455.5 466.714
456.5 560
457.5 509.143
458.5 473.429
459.5 389.429
460.5 453.429
461.5 491.143
462.5 416
463.5 410.571
464.5 347.143
465.5 326.571
466.5 420.714
467.5 437
468.5 304.714
469.5 406.857
470.5 406
471.5 391
472.5 396.286
473.5 443
474.5 517.143
475.5 473.286
476.5 490
477.5 402.143
478.5 501.857
479.5 423.571
480.5 378.571
481.5 366
482.5 424.143
483.5 348
484.5 390.714
485.5 458
486.5 339.143
487.5 420.571
488.5 396.571
489.5 434.429
490.5 364.429
491.5 424.143
492.5 470.857
493.5 371.857
494.5 379.857
495.5 381.714
496.5 338.286
497.5 281.714
498.5 313.286
499.5 408.429
500.5 385.714
501.5 385
502.5 453.571
503.5 346.857
504.5 432
505.5 484.143
506.5 762.143
507.5 1167.71
508.5 2067.71
509.5 3397.86
510.5 4163.43
511.5 3713.57
512.5 2302.57
513.5 1023.14
514.5 646.429
515.5 457.571
516.5 377.429
517.5 398.714
518.5 383.143
519.5 392.857
520.5 395.857
521.5 354.571
522.5 393.714
523.5 478.429
524.5 536.714
525.5 466.857
526.5 493.714
527.5 493.143
528.5 452.857
529.5 419.286
530.5 403.429
531.5 393.714
532.5 413.714
533.5 361.143
534.5 340
535.5 357.714
536.5 265.857
537.5 289.571
538.5 243.429
539.5 345.286
540.5 398.714
541.5 396
542.5 294.714
543.5 309.714
544.5 320.429
545.5 364.714
546.5 444.143
547.5 313.714
548.5 299.429
549.5 256.857
550.5 283.857
551.5 273.571
552.5 299.714
553.5 316.286
554.5 309.714
555.5 277.571
556.5 322.571
557.5 220.571
558.5 331.143
559.5 353.286
560.5 348.857
561.5 287.857
562.5 340
563.5 380.286
564.5 336.714
565.5 375.714
566.5 326.286
567.5 339.571
568.5 369.286
569.5 293.286
570.5 366.143
571.5 280.286
572.5 313
573.5 367.571
574.5 363.143
575.5 349.714
576.5 347.286
577.5 410.714
578.5 382.714
579.5 388.286
580.5 388.429
581.5 347.286
582.5 323.857
583.5 349.429
584.5 351
585.5 458.571
586.5 414.143
587.5 404.143
588.5 404.857
589.5 377.286
590.5 393.286
591.5 348.143
592.5 287.714
593.5 332.286
594.5 425
595.5 427.286
596.5 458.143
597.5 312.571
598.5 363.571
599.5 407
600.5 304.286
601.5 302.429
602.5 299.429
603.5 383.286
604.5 366.143
605.5 347
606.5 336.286
607.5 337
608.5 378.857
609.5 349.429
610.5 363.571
611.5 323.429
612.5 312.143
613.5 324.857
614.5 309.143
615.5 290.143
616.5 310.571
617.5 278.143
618.5 360.714
619.5 293
620.5 311.714
621.5 369.857
622.5 322.286
623.5 360.857
624.5 299.143
625.5 317.714
626.5 419.714
627.5 413.857
628.5 562
629.5 398.714
630.5 420.571
631.5 348.571
632.5 326.714
633.5 287.714
634.5 310.571
635.5 390.857
636.5 382.286
637.5 369.857
638.5 376.857
639.5 312.143
640.5 310
641.5 334
642.5 344.143
643.5 310.143
644.5 337.429
645.5 249.143
646.5 409.429
647.5 362.286
648.5 362.857
649.5 469.429
650.5 595.714
651.5 570.571
652.5 578.429
653.5 668.286
654.5 508.429
655.5 342.857
656.5 397.286
657.5 255.429
658.5 309.857
659.5 220.143
660.5 369.857
661.5 287.714
662.5 366.429
663.5 326.714
664.5 407.571
665.5 354.714
666.5 374.571
667.5 353.571
668.5 422.143
669.5 416.571
670.5 345.714
671.5 367.429
672.5 293.143
673.5 341.857
674.5 343.143
675.5 331
676.5 332.714
677.5 334
678.5 281.857
679.5 320.714
680.5 369.429
681.5 400.429
682.5 366.571
683.5 356
684.5 274
685.5 370.286
686.5 311.571
687.5 340.429
688.5 345.429
689.5 379.286
690.5 326.571
691.5 308
692.5 362.571
693.5 279.714
694.5 377.429
695.5 325.286
696.5 318.571
697.5 340.143
698.5 302.429
699.5 303.286
700.5 314.857
701.5 342.571
702.5 391.857
703.5 449
704.5 422.571
705.5 382.857
706.5 378
707.5 328.571
708.5 340.143
709.5 332.714
710.5 304.714
711.5 322.714
712.5 277
713.5 316.571
714.5 383.571
715.5 273.857
716.5 301
717.5 381.429
718.5 377.429
719.5 419.857
720.5 331.429
721.5 281.857
722.5 350.571
723.5 317.714
724.5 331
725.5 347.714
726.5 326.429
727.5 412.286
728.5 326.857
729.5 317.857
730.5 327.429
731.5 338
732.5 350.429
733.5 270.857
734.5 300.429
735.5 331.143
736.5 314.857
737.5 295
738.5 301.857
739.5 394.143
740.5 283.571
741.5 340
742.5 371.714
743.5 320.571
744.5 368.286
745.5 333
746.5 370.286
747.5 219.286
748.5 360.429
749.5 345.857
750.5 337.857
751.5 360.286
752.5 366
753.5 368.286
754.5 352
755.5 367.857
756.5 397.143
757.5 400
758.5 429
759.5 754.429
760.5 1536.14
761.5 1696.86
762.5 922.143
763.5 546.714
764.5 369
765.5 416.429
766.5 423.286
767.5 384.143
768.5 420.857
769.5 338.857
770.5 338
771.5 324
772.5 342.143
773.5 335.714
774.5 367.714
775.5 392.286
776.5 369.286
777.5 354.286
778.5 383.143
779.5 360.143
780.5 326
781.5 344.857
782.5 339.714
783.5 342
784.5 299
785.5 299.429
786.5 345.714
787.5 373.714
788.5 296.143
789.5 300.143
790.5 347.571
791.5 315.857
792.5 361.714
793.5 367.143
794.5 324
795.5 309.286
796.5 415.571
797.5 420.286
798.5 374
799.5 376.286
800.5 319.286
801.5 417
802.5 343.143
803.5 373.714
804.5 345.143
805.5 412.286
806.5 392.571
807.5 403.857
808.5 324.714
809.5 418.571
810.5 419.714
811.5 327.143
812.5 360.286
813.5 390.286
814.5 411.857
815.5 365.714
816.5 407.429
817.5 370
818.5 340.571
819.5 312.143
820.5 427.571
821.5 381
822.5 389.714
823.5 395.857
824.5 353
825.5 384.143
826.5 397.571
827.5 340.571
828.5 370.429
829.5 360.286
830.5 401.429
831.5 395
832.5 391.286
833.5 331.857
834.5 325.429
835.5 353.143
836.5 420.429
837.5 368.286
838.5 356.143
839.5 374.429
840.5 348.143
841.5 396.571
842.5 371
843.5 364.571
844.5 362
845.5 383.714
846.5 441.429
847.5 428.857
848.5 419.714
849.5 472
850.5 396.714
851.5 437
852.5 424
853.5 390
854.5 369.286
855.5 357.714
856.5 355.286
857.5 418.286
858.5 425
859.5 432.571
860.5 382.714
861.5 379
862.5 366.857
863.5 410.857
864.5 445.286
865.5 486.857
866.5 436.571
867.5 452.143
868.5 530.429
869.5 685.429
870.5 505.143
871.5 420.714
872.5 425
873.5 388.143
874.5 426.429
875.5 468
876.5 458.857
877.5 512.857
878.5 524.571
879.5 481.286
880.5 474.286
881.5 449
882.5 478.571
883.5 425.429
884.5 411.429
885.5 489
886.5 563.143
887.5 489.714
888.5 453.857
889.5 468.714
890.5 409.429
891.5 513.714
892.5 494.429
893.5 466.429
894.5 492.857
895.5 600
896.5 431
897.5 562.857
898.5 555.714
899.5 447.286
900.5 524.857
901.5 478.143
902.5 482.429
903.5 560
904.5 509.857
905.5 531.714
906.5 534.286
907.5 543.857
908.5 514.857
909.5 623.857
910.5 622.143
911.5 547.714
912.5 535.857
913.5 600.857
914.5 601.571
915.5 582.429
916.5 613.429
917.5 564.143
918.5 418.857
919.5 507.286
920.5 551.286
921.5 493
922.5 448
923.5 559.286
924.5 510.429
925.5 497
926.5 533.143
927.5 536
928.5 472.429
929.5 546.571
930.5 595.571
931.5 580.286
932.5 541
933.5 488.143
934.5 519.714
935.5 477.571
936.5 524.571
937.5 548
938.5 521
939.5 608.286
940.5 553.429
941.5 512.286
942.5 425.286
943.5 483.429
944.5 452.857
945.5 435.143
946.5 488.429
947.5 455.571
948.5 436.571
949.5 412.857
950.5 436.429
951.5 365.571
952.5 404.714
953.5 399.714
954.5 413.714
955.5 419.143
956.5 374.714
957.5 341.286
958.5 330.571
959.5 381.143
960.5 360.143
961.5 331.143
962.5 326.571
963.5 441.286
964.5 659.857
965.5 1266.57
966.5 1830
967.5 1396.57
968.5 669.714
969.5 443.286
970.5 391.429
971.5 349.571
972.5 330
973.5 425.143
974.5 263.571
975.5 341
976.5 400
977.5 275.143
978.5 324.286
979.5 291.714
980.5 341.286
981.5 323.143
982.5 317.571
983.5 191.714
984.5 236.429
985.5 324.286
986.5 361.857
987.5 296.714
988.5 288.714
989.5 316.286
990.5 282.571
991.5 277.143
992.5 329.857
993.5 285.429
994.5 324.143
995.5 319.714
996.5 260.286
997.5 227.286
998.5 283.857
999.5 326.286
1000.5 322
1001.5 680.571
1002.5 617.286
1003.5 389.571
1004.5 287.429
1005.5 339.143
1006.5 326.857
1007.5 263.143
1008.5 283.857
1009.5 271.429
1010.5 269.429
1011.5 284.143
1012.5 230.571
1013.5 266.714
1014.5 238.286
1015.5 274.571
1016.5 312
1017.5 246
1018.5 278.714
1019.5 201.429
1020.5 198.143
1021.5 224.571
1022.5 217
1023.5 354.286
1024.5 549.857
1025.5 476.429
1026.5 300.571
1027.5 243.857
1028.5 215.571
1029.5 238.429
1030.5 220.143
1031.5 240.857
1032.5 265.286
1033.5 252.571
1034.5 219.143
1035.5 184.857
1036.5 229.857
1037.5 213.429
1038.5 194.143
1039.5 185
1040.5 213.571
1041.5 192.429
1042.5 226
1043.5 227.286
1044.5 181.143
1045.5 218.143
1046.5 180
1047.5 182.286
1048.5 222.571
1049.5 200.286
1050.5 274.143
1051.5 217.143
1052.5 159.571
1053.5 184.857
1054.5 173.143
1055.5 148.286
1056.5 182
1057.5 133.571
1058.5 156.714
1059.5 172.857
1060.5 248.286
1061.5 168
1062.5 161
1063.5 239.571
1064.5 195.857
1065.5 174.143
1066.5 142.429
1067.5 128
1068.5 185
1069.5 158.857
1070.5 191.143
1071.5 225.714
1072.5 360.286
1073.5 559.571
1074.5 722.571
1075.5 347.857
1076.5 215.429
1077.5 151.571
1078.5 110.857
1079.5 190.286
1080.5 153.286
1081.5 165.143
1082.5 154
1083.5 172.143
1084.5 163.143
1085.5 145.571
1086.5 136.714
1087.5 178.143
1088.5 135.286
1089.5 149
1090.5 147.286
1091.5 159.429
1092.5 153.857
1093.5 214.286
1094.5 148.571
1095.5 179.857
1096.5 150.857
1097.5 144.429
1098.5 145.571
1099.5 194.857
1100.5 168.857
1101.5 205.429
1102.5 176.429
1103.5 148.571
1104.5 165.714
1105.5 139.429
1106.5 188.143
1107.5 168.857
1108.5 175
1109.5 133.714
1110.5 172
1111.5 141.857
1112.5 117
1113.5 190.286
1114.5 148.714
1115.5 190.714
1116.5 161
1117.5 172
1118.5 197.286
1119.5 174.143
1120.5 188.429
1121.5 285.857
1122.5 643.286
1123.5 2563.14
1124.5 9000
1125.5 20156.7
1126.5 21852.3
1127.5 9831.29
1128.5 2123.86
1129.5 534.429
1130.5 201
1131.5 111
1132.5 135
1133.5 112.429
1134.5 107.286
1135.5 110.143
1136.5 85
1137.5 126.571
1138.5 138.429
1139.5 123.429
1140.5 111.714
1141.5 93.4286
1142.5 133
1143.5 146.286
1144.5 58.1429
1145.5 73.4286
1146.5 117.286
1147.5 139.143
1148.5 157.143
1149.5 132.714
1150.5 121.429
1151.5 117.143
1152.5 209.429
1153.5 759.571
1154.5 3134.14
1155.5 10183.4
1156.5 21734.4
1157.5 21261.1
1158.5 8722
1159.5 1648.14
1160.5 383.714
1161.5 114.143
1162.5 56.7143
1163.5 65
1164.5 5.85714
1165.5 89.1429
1166.5 16.4286
1167.5 56.5714
1168.5 50.8571
1169.5 64.8571
1170.5 57.4286
1171.5 29.2857
1172.5 46.8571
1173.5 40.7143
1174.5 36.7143
1175.5 41.2857
1176.5 55.4286
1177.5 32.8571
1178.5 45.5714
1179.5 106.429
1180.5 45.4286
1181.5 74
1182.5 180.571
1183.5 141
1184.5 118.143
1185.5 94.2857
1186.5 119.429
1187.5 140.286
1188.5 158.429
1189.5 158.714
1190.5 127.571
1191.5 43.4286
1192.5 62.1429
1193.5 46.7143
1194.5 41.5714
1195.5 31
1196.5 47.5714
1197.5 53.8571
1198.5 23.5714
1199.5 69.1429
1200.5 34.1429
1201.5 29.2857
1202.5 65.8571
1203.5 24
1204.5 14.4286
1205.5 25.4286
1206.5 38.8571
1207.5 43.4286
1208.5 70.4286
1209.5 45.2857
1210.5 47.5714
1211.5 54.1429
1212.5 61.2857
1213.5 30.4286
1214.5 6.14285
1215.5 33.7143
1216.5 0.857141
1217.5 33.4286
1218.5 37.4286
1219.5 25
1220.5 18.5714
1221.5 29.1429
1222.5 2.57143
1223.5 56.5714
1224.5 67.2857
1225.5 17.1429
1226.5 63.8571
1227.5 9.28571
1228.5 7.42857
1229.5 65.8571
1230.5 31.8571
1231.5 25.1429
1232.5 30
1233.5 53.5714
1234.5 25
1235.5 17.5714
1236.5 30.2857
1237.5 49.7143
1238.5 32.2857
1239.5 22.8571
1240.5 30.2857
1241.5 50.4286
1242.5 6.57143
1243.5 51.7143
1244.5 54.7143
1245.5 53.1429
1246.5 38.5714
1247.5 25.1429
1248.5 27.5714
1249.5 33
1250.5 57.2857
1251.5 72
1252.5 47.2857
1253.5 65
1254.5 21.4286
1255.5 97.8571
1256.5 6.71428
1257.5 31.1429
1258.5 19.1429
1259.5 36.2857
1260.5 38.8571
1261.5 21.5714
1262.5 19.7143
1263.5 73.4286
1264.5 77.1429
1265.5 71
1266.5 77.1429
1267.5 41.7143
1268.5 60.4286
1269.5 36.8571
1270.5 31.8571
1271.5 8.71428
1272.5 26.1429
1273.5 30
1274.5 8.42857
1275.5 44
1276.5 37.1429
1277.5 49.1429
1278.5 47.8571
1279.5 64.1429
1280.5 12.1429
1281.5 27.8571
1282.5 100.286
1283.5 88.2857
1284.5 82.2857
1285.5 68
1286.5 68.4286
1287.5 0.999998
1288.5 54.8571
1289.5 62.1429
1290.5 57.2857
1291.5 49.1429
1292.5 39.4286
1293.5 28.4286
1294.5 38.2857
1295.5 38.4286
1296.5 55.2857
1297.5 48.4286
1298.5 51.1429
1299.5 49.7143
1300.5 55.4286
1301.5 32.8571
1302.5 21.8571
1303.5 61.2857
1304.5 57.1429
1305.5 -7.85714
1306.5 45.4286
1307.5 31.7143
1308.5 24.1429
1309.5 63.4286
1310.5 25.5714
1311.5 30.8571
1312.5 31.2857
1313.5 76.5714
1314.5 64.1429
1315.5 42.5714
1316.5 60.7143
1317.5 31.5714
1318.5 37.5714
1319.5 62.7143
1320.5 28.7143
1321.5 32.7143
1322.5 19.4286
1323.5 33.5714
1324.5 50.2857
1325.5 44.5714
1326.5 1.14286
1327.5 62.5714
1328.5 63.5714
1329.5 61.5714
1330.5 25.2857
1331.5 57.8571
1332.5 33.2857
1333.5 36.4286
1334.5 40.4286
1335.5 25.7143
1336.5 18.7143
1337.5 66.7143
1338.5 34
1339.5 13.5714
1340.5 7.85714
1341.5 55.7143
1342.5 76.8571
1343.5 30.1429
1344.5 52.4286
1345.5 64.4286
1346.5 19
1347.5 20.1429
1348.5 54.4286
1349.5 26.5714
1350.5 72.1429
1351.5 30.7143
1352.5 27.1429
1353.5 46.7143
1354.5 64
1355.5 24.7143
1356.5 48.2857
1357.5 60.1429
1358.5 29.4286
1359.5 33.2857
1360.5 31.1429
1361.5 53.2857
1362.5 62.2857
1363.5 65
1364.5 36.1429
1365.5 26.2857
1366.5 22.8571
1367.5 43.8571
1368.5 15.8571
1369.5 35.4286
1370.5 74
1371.5 46.2857
1372.5 19.7143
1373.5 50.2857
1374.5 65.8571
1375.5 35.8571
1376.5 36.4286
1377.5 36.5714
1378.5 52.5714
1379.5 23.2857
1380.5 0.571427
1381.5 5.28571
1382.5 -12.8571
1383.5 25.8571
1384.5 49.1429
1385.5 40.4286
1386.5 45.4286
1387.5 5.57143
1388.5 29.7143
1389.5 31.4286
1390.5 47.7143
1391.5 49.2857
1392.5 51.5714
1393.5 10.2857
1394.5 37.1429
1395.5 -7.42857
1396.5 24.5714
1397.5 53.7143
1398.5 39.4286
1399.5 41.1429
1400.5 47.5714
1401.5 36
1402.5 27.5714
1403.5 6.42857
1404.5 31.2857
1405.5 47.1429
1406.5 61
1407.5 31.5714
1408.5 10.1429
1409.5 32.7143
1410.5 25.8571
1411.5 51.5714
1412.5 42.2857
1413.5 42.8571
1414.5 33.4286
1415.5 5.28571
1416.5 49.4286
1417.5 53.2857
1418.5 29.2857
1419.5 33.8571
1420.5 46
1421.5 18.4286
1422.5 59.7143
1423.5 52
1424.5 40.5714
1425.5 17.4286
1426.5 60.5714
1427.5 105.143
1428.5 106.857
1429.5 137.857
1430.5 96.1429
1431.5 49.2857
1432.5 65
1433.5 48.1429
1434.5 24.4286
1435.5 27.8571
1436.5 47.4286
1437.5 66.7143
1438.5 69.5714
1439.5 49.8571
1440.5 50.7143
1441.5 7.28571
1442.5 44.8571
1443.5 51
1444.5 0.571427
1445.5 57.2857
1446.5 44
1447.5 44.1429
1448.5 36.8571
1449.5 12
1450.5 52.7143
1451.5 27.1429
1452.5 48.5714
1453.5 40.7143
1454.5 20
1455.5 -0.857144
1456.5 62.8571
1457.5 5.71428
1458.5 57.8571
1459.5 10.4286
1460.5 51.8571
1461.5 46.1429
1462.5 12.8571
1463.5 33.1429
1464.5 27.4286
1465.5 45.1429
1466.5 27.4286
1467.5 14.2857
1468.5 31.5714
1469.5 37.2857
1470.5 46.5714
1471.5 36.5714
1472.5 57.2857
1473.5 42.1429
1474.5 44
1475.5 54.1429
1476.5 15.1429
1477.5 26
1478.5 53.7143
1479.5 8.57143
1480.5 47.5714
1481.5 27.8571
1482.5 58.1429
1483.5 30.1429
1484.5 31
1485.5 35.5714
1486.5 46
1487.5 30.4286
1488.5 24
1489.5 54.1429
1490.5 67.4286
1491.5 55.2857
1492.5 43.7143
1493.5 17.4286
1494.5 46.7143
1495.5 18.2857
1496.5 42.5714
1497.5 81.5714
1498.5 125.429
1499.5 165.429
1500.5 104.857
1501.5 73.1429
1502.5 89.8571
1503.5 86.1429
1504.5 53.5714
1505.5 94.4286
1506.5 53
1507.5 15.5714
1508.5 39.4286
1509.5 50.8571
1510.5 64
1511.5 24.7143
1512.5 30.2857
1513.5 9.14286
1514.5 29.4286
1515.5 30.2857
1516.5 70
1517.5 21.4286
1518.5 49
1519.5 33.7143
1520.5 24.2857
1521.5 66.4286
1522.5 36
1523.5 80.8571
1524.5 31.7143
1525.5 22.8571
1526.5 39.4286
1527.5 32
1528.5 24
1529.5 33
1530.5 24.8571
1531.5 47.7143
1532.5 56
1533.5 51
1534.5 58.4286
1535.5 56.8571
1536.5 52.1429
1537.5 37
1538.5 32.5714
1539.5 71.8571
1540.5 40.7143
1541.5 32.8571
1542.5 35.5714
1543.5 61.8571
1544.5 67.4286
1545.5 47.1429
1546.5 31
1547.5 36.4286
1548.5 39.8571
1549.5 37.1429
1550.5 9.28571
1551.5 43
1552.5 40.8571
1553.5 34.4286
1554.5 -8.71429
1555.5 56.2857
1556.5 19
1557.5 9.42857
1558.5 20
1559.5 49.5714
1560.5 26.8571
1561.5 50
1562.5 26.7143
1563.5 38
1564.5 27.4286
1565.5 47.2857
1566.5 2.71428
1567.5 39
1568.5 7.57143
1569.5 34.7143
1570.5 24
1571.5 21.7143
1572.5 41.1429
1573.5 50.2857
1574.5 59.7143
1575.5 37.2857
1576.5 86.1429
1577.5 54.2857
1578.5 21.1429
1579.5 45.5714
1580.5 35.4286
1581.5 75.5714
1582.5 30.4286
1583.5 28.8571
1584.5 57.1429
1585.5 0.285713
1586.5 11.2857
1587.5 63.8571
1588.5 57.1429
1589.5 59.7143
1590.5 20.8571
1591.5 48
1592.5 26.7143
1593.5 41.1429
1594.5 2.28571
1595.5 60
1596.5 39.1429
1597.5 36.2857
1598.5 41.2857
1599.5 18.4286
1600.5 27.2857
1601.5 26.2857
1602.5 61.2857
1603.5 37.5714
1604.5 38.4286
1605.5 42.5714
1606.5 24
1607.5 38.8571
1608.5 12.2857
1609.5 33.7143
1610.5 40.2857
1611.5 11.2857
1612.5 21.8571
1613.5 27.8571
1614.5 49
1615.5 27
1616.5 20.7143
1617.5 39.7143
1618.5 27.8571
1619.5 69.5714
1620.5 52.7143
1621.5 77.2857
1622.5 35.5714
1623.5 34.2857
1624.5 31
1625.5 35.4286
1626.5 28.4286
1627.5 24
1628.5 28.2857
1629.5 67.2857
1630.5 108.286
1631.5 57.8571
1632.5 69.5714
1633.5 75.4286
1634.5 83.2857
1635.5 75
1636.5 68.2857
1637.5 38.1429
1638.5 43.8571
1639.5 12.2857
1640.5 82.8571
1641.5 34.5714
1642.5 45.1429
1643.5 19.4286
1644.5 36
1645.5 42
1646.5 41.5714
1647.5 65.2857
1648.5 61.5714
1649.5 2.14285
1650.5 29.1429
1651.5 43.7143
1652.5 30.8571
1653.5 54.7143
1654.5 45.8571
1655.5 49.7143
1656.5 57.4286
1657.5 61.7143
1658.5 36.8571
1659.5 44.8571
1660.5 41.2857
1661.5 58
1662.5 39.1429
1663.5 31.4286
1664.5 73.4286
1665.5 58.4286
1666.5 57.2857
1667.5 46.7143
1668.5 46.8571
1669.5 57.5714
1670.5 52.7143
1671.5 99.7143
1672.5 74.5714
1673.5 69.2857
1674.5 27.1429
1675.5 40
1676.5 42.4286
1677.5 37.8571
1678.5 55.1429
1679.5 43.7143
1680.5 39
1681.5 12.4286
1682.5 -11.5714
1683.5 17.1429
1684.5 6.28571
1685.5 9
1686.5 18.1429
1687.5 42.7143
1688.5 42.7143
1689.5 24.2857
1690.5 62.1429
1691.5 25.7143
1692.5 26
1693.5 34.5714
1694.5 21.4286
1695.5 55
1696.5 39.4286
1697.5 24.1429
1698.5 29
1699.5 21.1429
1700.5 60.8571
1701.5 51.8571
1702.5 34.5714
1703.5 20
1704.5 54.5714
1705.5 50.7143
1706.5 32.1429
1707.5 29.4286
1708.5 38.5714
1709.5 33.5714
1710.5 35.8571
1711.5 34.5714
1712.5 28.1429
1713.5 38.4286
1714.5 57.1429
1715.5 15.8571
1716.5 64
1717.5 71.2857
1718.5 25.8571
1719.5 10.2857
1720.5 38.5714
1721.5 24.1429
1722.5 40.2857
1723.5 60.5714
1724.5 65.7143
1725.5 132
1726.5 210.286
1727.5 300.571
1728.5 236.857
1729.5 93.4286
1730.5 57.1429
1731.5 -10.2857
1732.5 28.5714
1733.5 41.7143
1734.5 30.1429
1735.5 40.5714
1736.5 49.7143
1737.5 16.7143
1738.5 16.1429
1739.5 24.2857
1740.5 23.7143
1741.5 31.4286
1742.5 47
1743.5 58.2857
1744.5 22.1429
1745.5 22.1429
1746.5 32
1747.5 31.8571
1748.5 34
1749.5 9.71428
1750.5 20.2857
1751.5 1.85714
1752.5 29.2857
1753.5 83.5714
1754.5 9.42857
1755.5 15
1756.5 47.7143
1757.5 45.4286
1758.5 44.1429
1759.5 19.7143
1760.5 38
1761.5 31.2857
1762.5 44.7143
1763.5 33.1429
1764.5 49.5714
1765.5 29
1766.5 18
1767.5 10.4286
1768.5 22.8571
1769.5 39.4286
1770.5 48.4286
1771.5 25.8571
1772.5 68.1429
1773.5 28.7143
1774.5 22.4286
1775.5 17.8571
1776.5 35.8571
1777.5 60
1778.5 72.7143
1779.5 31.4286
1780.5 19.8571
1781.5 14.4286
1782.5 41.7143
1783.5 89
1784.5 11.7143
1785.5 11.1429
1786.5 61.7143
1787.5 59.1429
1788.5 50.4286
1789.5 37.5714
1790.5 7.14286
1791.5 57.7143
1792.5 30.2857
1793.5 16.7143
1794.5 47.7143
1795.5 49.7143
1796.5 26.2857
1797.5 49.4286
1798.5 48.2857
1799.5 38.7143
1800.5 36
1801.5 14.1429
1802.5 25.5714
1803.5 42.4286
1804.5 46.5714
1805.5 37.4286
1806.5 30.8571
1807.5 64.1429
1808.5 48.4286
1809.5 47.2857
1810.5 24
1811.5 14.8571
1812.5 28.4286
1813.5 9
1814.5 38.5714
1815.5 63.8571
1816.5 18.7143
1817.5 41.4286
1818.5 43.5714
1819.5 14.8571
1820.5 60.1429
1821.5 15.2857
1822.5 49.2857
1823.5 -12.5714
1824.5 36.2857
1825.5 36.2857
1826.5 32.4286
1827.5 26.4286
1828.5 26.4286
1829.5 31.8571
1830.5 46.2857
1831.5 46
1832.5 42.4286
1833.5 37.8571
1834.5 35
1835.5 37.8571
1836.5 34.1429
1837.5 77
1838.5 47.2857
1839.5 53
1840.5 69
1841.5 12
1842.5 45.8571
1843.5 -16.7143
1844.5 0.714284
1845.5 35.8571
1846.5 50
1847.5 17.8571
1848.5 20.7143
1849.5 58
1850.5 18.1429
1851.5 33.7143
1852.5 65.8571
1853.5 64.2857
1854.5 26.8571
1855.5 36.2857
1856.5 45.7143
1857.5 35.2857
1858.5 31.1429
1859.5 56.8571
1860.5 37
1861.5 18.4286
1862.5 53.5714
1863.5 22.7143
1864.5 59.2857
1865.5 36
1866.5 58
1867.5 19.5714
1868.5 38.7143
1869.5 28
1870.5 30.4286
1871.5 57.8571
1872.5 52.7143
1873.5 51.5714
1874.5 25.8571
1875.5 -6.42857
1876.5 40.2857
1877.5 32
1878.5 54.1429
1879.5 23.2857
1880.5 64.4286
1881.5 85.2857
1882.5 130
1883.5 140.714
1884.5 162
1885.5 399.714
1886.5 542
1887.5 670
1888.5 392.143
1889.5 138.571
1890.5 61
1891.5 38.8571
1892.5 3.28571
1893.5 38.2857
1894.5 22
1895.5 49
1896.5 -4.14286
1897.5 46.5714
1898.5 17.1429
1899.5 14.4286
1900.5 27.4286
1901.5 34.1429
1902.5 5.28571
1903.5 49.4286
1904.5 46.2857
1905.5 20
1906.5 69.4286
1907.5 12.5714
1908.5 25.4286
1909.5 34.2857
1910.5 52.8571
1911.5 4.42857
1912.5 62
1913.5 44.7143
1914.5 37.7143
1915.5 67.7143
1916.5 37.8571
1917.5 16
1918.5 37
1919.5 11.4286
1920.5 14.2857
1921.5 8.57143
1922.5 48
1923.5 -11.1429
1924.5 55.4286
1925.5 37.7143
1926.5 25.4286
1927.5 3.28571
1928.5 11.1429
1929.5 66.4286
1930.5 45.2857
1931.5 9.28571
1932.5 20.1429
1933.5 25.4286
1934.5 15
1935.5 43
1936.5 47.5714
1937.5 -7.42857
1938.5 13
1939.5 29.2857
1940.5 30.2857
1941.5 -39.7143
1942.5 53.5714
1943.5 18.5714
1944.5 54.2857
1945.5 29.1429
1946.5 14.8571
1947.5 38
1948.5 11.7143
1949.5 15.8571
1950.5 28.7143
1951.5 25.1429
1952.5 21.1429
1953.5 22.5714
1954.5 21.2857
1955.5 19.5714
1956.5 24.8571
1957.5 14.5714
1958.5 14.5714
1959.5 44.7143
1960.5 58.4286
1961.5 32.8571
1962.5 21.5714
1963.5 17.1429
1964.5 38
1965.5 36.1429
1966.5 39.4286
1967.5 19
1968.5 56.4286
1969.5 -7
1970.5 27.2857
1971.5 10
1972.5 26
1973.5 8.14286
1974.5 21.8571
1975.5 11.7143
1976.5 58.5714
1977.5 28.5714
1978.5 36.7143
1979.5 16.8571
1980.5 37.5714
1981.5 40
1982.5 23.5714
1983.5 60.1429
1984.5 14.7143
1985.5 29
1986.5 31.5714
1987.5 17.7143
1988.5 35.1429
1989.5 44.8571
1990.5 24
1991.5 2.85714
1992.5 26
1993.5 51.5714
1994.5 32.5714
1995.5 28
1996.5 37.8571
1997.5 22.2857
1998.5 36
1999.5 22
2000.5 25.5714
2001.5 22.1429
2002.5 39.4286
2003.5 19.5714
2004.5 22.8571
2005.5 15.7143
2006.5 24.7143
2007.5 29
2008.5 5.85714
2009.5 17.1429
2010.5 24.1429
2011.5 24.5714
2012.5 -8.14286
2013.5 20.4286
2014.5 26
2015.5 10.5714
2016.5 3.57143
2017.5 2.28571
2018.5 30.8571
2019.5 36
2020.5 13.4286
2021.5 35.1429
2022.5 42.4286
2023.5 27.7143
2024.5 29.5714
2025.5 37.7143
2026.5 37.4286
2027.5 41.8571
2028.5 36.2857
2029.5 29.5714
2030.5 25
2031.5 -2.14286
2032.5 38
2033.5 5
2034.5 18.8571
2035.5 12.1429
2036.5 11.5714
2037.5 14.4286
2038.5 20.1429
2039.5 26.1429
2040.5 32.7143
2041.5 22.1429
2042.5 21.7143
2043.5 16
2044.5 41.7143
2045.5 42.7143
2046.5 18
2047.5 11
2048.5 34.2857
2049.5 54.4286
2050.5 26.2857
2051.5 42.2857
2052.5 39.5714
2053.5 13.2857
2054.5 35.2857
2055.5 13
2056.5 36.2857
2057.5 36.7143
2058.5 15.7143
2059.5 39.7143
2060.5 22.1429
2061.5 45
2062.5 25
2063.5 45.5714
2064.5 20.4286
2065.5 17.5714
2066.5 42.2857
2067.5 17.2857
2068.5 47.4286
2069.5 22.1429
2070.5 30.5714
2071.5 13.1429
2072.5 41.8571
2073.5 47.4286
2074.5 40.7143
2075.5 114.571
2076.5 85.1429
2077.5 111.286
2078.5 92.1429
2079.5 33.8571
2080.5 7.14286
2081.5 46.1429
2082.5 44.7143
2083.5 11.4286
2084.5 54.8571
2085.5 32.8571
2086.5 -8
2087.5 58.7143
2088.5 19.1429
2089.5 -8.71429
2090.5 -11.7143
2091.5 26.7143
2092.5 30.1429
2093.5 37.7143
2094.5 20.4286
2095.5 29.2857
2096.5 2.42857
2097.5 35.4286
2098.5 24
2099.5 23
2100.5 4.71428
2101.5 23.1429
2102.5 0.999999
2103.5 12.1429
2104.5 34
2105.5 18.1429
2106.5 -11.2857
2107.5 18.8571
2108.5 44
2109.5 41.4286
2110.5 40.2857
2111.5 18.2857
2112.5 51.7143
2113.5 17.7143
2114.5 49.8571
2115.5 46.5714
2116.5 34.2857
2117.5 22.1429
2118.5 24.4286
2119.5 21
2120.5 44.8571
2121.5 1.85714
2122.5 41.8571
2123.5 25.1429
2124.5 38.8571
2125.5 32.8571
2126.5 40
2127.5 31.1429
2128.5 15.4286
2129.5 18.4286
2130.5 20.4286
2131.5 23
2132.5 22.5714
2133.5 20.4286
2134.5 15.7143
2135.5 40.1429
2136.5 53.5714
2137.5 3.71428
2138.5 21.4286
2139.5 13.4286
2140.5 18.2857
2141.5 41
2142.5 36.2857
2143.5 102
2144.5 178.429
2145.5 87.7143
2146.5 107
2147.5 136.429
2148.5 190.571
2149.5 313
2150.5 389.143
2151.5 349.571
2152.5 138.857
2153.5 72
2154.5 28.4286
2155.5 16.7143
2156.5 1.57143
2157.5 33.4286
2158.5 -9.28572
2159.5 28.2857
2160.5 30.8571
2161.5 7.14286
2162.5 10.7143
2163.5 40.7143
2164.5 46.5714
2165.5 23.4286
2166.5 45.5714
2167.5 58.4286
2168.5 22.8571
2169.5 12.5714
2170.5 8.85714
2171.5 0.714285
2172.5 41.5714
2173.5 17.7143
2174.5 29.1429
2175.5 33.8571
2176.5 28.2857
2177.5 39.4286
2178.5 22
2179.5 25.8571
2180.5 33.2857
2181.5 46.5714
2182.5 10.1429
2183.5 46.5714
2184.5 9.71428
2185.5 24.1429
2186.5 20.7143
2187.5 -4.71429
2188.5 28.4286
2189.5 32.4286
2190.5 27.5714
2191.5 32.4286
2192.5 5.14286
2193.5 27.5714
2194.5 41.7143
2195.5 26
2196.5 26.8571
2197.5 13.1429
2198.5 23.1429
2199.5 56.2857
2200.5 49
2201.5 33.2857
2202.5 23.4286
2203.5 24.5714
2204.5 20.5714
2205.5 8.14286
2206.5 22.2857
2207.5 11.1429
2208.5 38.8571
2209.5 14.7143
2210.5 25.4286
2211.5 20.4286
2212.5 11.1429
2213.5 51.2857
2214.5 11.4286
2215.5 26.4286
2216.5 19.7143
2217.5 -0.571429
2218.5 27
2219.5 -1.28572
2220.5 55.8571
2221.5 46.4286
2222.5 75.2857
2223.5 32.7143
2224.5 56.8571
2225.5 24.5714
2226.5 18.8571
2227.5 22.4286
2228.5 -8.14286
2229.5 6.42857
2230.5 6.42857
2231.5 27.7143
2232.5 30.4286
2233.5 16.5714
2234.5 26.2857
2235.5 18.2857
2236.5 6.71428
2237.5 17
2238.5 32.5714
2239.5 16.5714
2240.5 41.8571
2241.5 26.4286
2242.5 10.2857
2243.5 -5
2244.5 31.5714
2245.5 19.4286
2246.5 11.5714
2247.5 27.8571
2248.5 16.8571
2249.5 29.1429
2250.5 19.5714
2251.5 33.8571
2252.5 14.5714
2253.5 28.7143
2254.5 -3.28572
2255.5 26.7143
2256.5 21.4286
2257.5 20.1429
2258.5 34.8571
2259.5 35.7143
2260.5 5.71428
2261.5 2.85714
2262.5 21.7143
2263.5 41.5714
2264.5 38
2265.5 23.5714
2266.5 22.7143
2267.5 20.7143
2268.5 45.7143
2269.5 47.5714
2270.5 30.2857
2271.5 23.2857
2272.5 27.2857
2273.5 7.71428
2274.5 16.1429
2275.5 26.7143
2276.5 17.7143
2277.5 12.5714
2278.5 20.2857
2279.5 46.8571
2280.5 22.4286
2281.5 61.5714
2282.5 53.4286
2283.5 15.8571
2284.5 42.5714
2285.5 55.1429
2286.5 11.7143
2287.5 27.1429
2288.5 24.2857
2289.5 10.5714
2290.5 25.7143
2291.5 27.4286
2292.5 -2.71429
2293.5 29
2294.5 34.1429
2295.5 34.2857
2296.5 28.8571
2297.5 36.1429
2298.5 27.4286
2299.5 17.7143
2300.5 40.4286
2301.5 48.2857
2302.5 56.1429
2303.5 48.7143
2304.5 31.7143
2305.5 23
2306.5 32.8571
2307.5 18
2308.5 12.1429
2309.5 27.2857
2310.5 25.8571
2311.5 54.8571
2312.5 23.1429
2313.5 -19.1429
2314.5 21
2315.5 3.71428
2316.5 12.4286
2317.5 2.42857
2318.5 20
2319.5 13.1429
2320.5 26.4286
2321.5 22.5714
2322.5 12
2323.5 17.5714
2324.5 9.85714
2325.5 22.5714
2326.5 30.7143
2327.5 25.8571
2328.5 31.2857
2329.5 41.5714
2330.5 14.8571
2331.5 38
2332.5 10.4286
2333.5 16.8571
2334.5 17.2857
2335.5 5.42857
2336.5 11.8571
2337.5 19
2338.5 16.7143
2339.5 17
2340.5 24.4286
2341.5 25.5714
2342.5 6.28571
2343.5 10.4286
2344.5 34.7143
2345.5 25.5714
2346.5 30.2857
2347.5 40
2348.5 3.42857
2349.5 -6.57143
2350.5 17.1429
2351.5 27
2352.5 16.7143
2353.5 20.2857
2354.5 17.1429
2355.5 4.14286
2356.5 31.7143
2357.5 14.5714
2358.5 -3.14286
2359.5 4.14286
2360.5 46.7143
2361.5 32.8571
2362.5 24.5714
2363.5 39.4286
2364.5 18.8571
2365.5 13.4286
2366.5 26.5714
2367.5 13.1429
2368.5 21.2857
2369.5 10.8571
2370.5 17.7143
2371.5 37.7143
2372.5 24.8571
2373.5 37
2374.5 10.7143
2375.5 -1.14286
2376.5 -4.42857
2377.5 39.1429
2378.5 2.28571
2379.5 23.2857
2380.5 34.7143
2381.5 22.4286
2382.5 30.8571
2383.5 13.8571
2384.5 9.57143
2385.5 31.7143
2386.5 18.7143
2387.5 25.8571
2388.5 -5.71429
2389.5 21.7143
2390.5 33.1429
2391.5 12
2392.5 24.8571
2393.5 9.28571
2394.5 15.7143
2395.5 30.7143
2396.5 30.8571
2397.5 17.4286
2398.5 31
2399.5 22
2400.5 25.5714
2401.5 38.8571
2402.5 13.2857
2403.5 10.2857
2404.5 9.57143
2405.5 18.1429
2406.5 -1.14286
2407.5 9.14286
2408.5 14.2857
2409.5 11.5714
2410.5 46.5714
2411.5 20.5714
2412.5 18.8571
2413.5 18.4286
2414.5 24.1429
2415.5 13.4286
2416.5 7.14286
2417.5 3.28571
2418.5 34
2419.5 24.5714
2420.5 9.14286
2421.5 26.7143
2422.5 26.1429
2423.5 29.4286
2424.5 6.28571
2425.5 14.4286
2426.5 31.7143
2427.5 -1
2428.5 27.1429
2429.5 10.2857
2430.5 18.8571
2431.5 13.5714
2432.5 47
2433.5 32.4286
2434.5 36.2857
2435.5 12
2436.5 2.28571
2437.5 37.4286
2438.5 26.1429
2439.5 4.42857
2440.5 34.5714
2441.5 48.4286
2442.5 26.4286
2443.5 7.42857
2444.5 27
2445.5 17
2446.5 27.1429
2447.5 35.4286
2448.5 27.5714
2449.5 2.14286
2450.5 9.57143
2451.5 8.42857
2452.5 39.8571
2453.5 15.8571
2454.5 44.7143
2455.5 20.2857
2456.5 31.4286
2457.5 13.8571
2458.5 25.7143
2459.5 27.2857
2460.5 8.85714
2461.5 33.5714
2462.5 9.42857
2463.5 23.8571
2464.5 25.8571
2465.5 4
2466.5 44.4286
2467.5 14.5714
2468.5 20.7143
2469.5 10.7143
2470.5 22.4286
2471.5 20
2472.5 24.8571
2473.5 12
2474.5 37.7143
2475.5 41.5714
2476.5 25.4286
2477.5 36.1429
2478.5 30.7143
2479.5 27.8571
2480.5 27.5714
2481.5 -0.285715
2482.5 -5.57143
2483.5 24.1429
2484.5 -6.14286
2485.5 27.5714
2486.5 19.8571
2487.5 31.2857
2488.5 8.28571
2489.5 24.8571
2490.5 16.8571
2491.5 5
2492.5 11.1429
2493.5 20.7143
2494.5 18.4286
2495.5 26.7143
2496.5 2.42857
2497.5 20.4286
2498.5 48.5714
2499.5 26.1429
2500.5 17.5714
2501.5 41
2502.5 22.4286
2503.5 35
2504.5 24.5714
2505.5 16.4286
2506.5 24.1429
2507.5 7.85714
2508.5 23.5714
2509.5 16.1429
2510.5 15.2857
2511.5 4.57143
2512.5 -3.28572
2513.5 13.7143
2514.5 36.5714
2515.5 16.7143
2516.5 -32.4286
2517.5 -67.1429
2518.5 -49.5714
2519.5 -98.8571
2520.5 -47.5714
2521.5 -0.142859
2522.5 -10.7143
2523.5 8
2524.5 8.57143
2525.5 31.2857
2526.5 18.1429
2527.5 2.85714
2528.5 -16.8571
2529.5 -7.85714
2530.5 24.4286
2531.5 20.7143
2532.5 38.8571
2533.5 5.14286
2534.5 25.1429
2535.5 20.5714
2536.5 4.85714
2537.5 12.5714
2538.5 28.8571
2539.5 23.8571
2540.5 26.8571
2541.5 16.5714
2542.5 30.2857
2543.5 11.4286
2544.5 32
2545.5 38.7143
2546.5 13.8571
2547.5 7.28571
2548.5 15.2857
2549.5 40.5714
2550.5 24.5714
2551.5 18.2857
2552.5 43.8571
2553.5 15.2857
2554.5 3.28571
2555.5 12.4286
2556.5 28.7143
2557.5 23.5714
2558.5 14
2559.5 33.4286
2560.5 13.4286
2561.5 17.8571
2562.5 16.2857
2563.5 18.2857
2564.5 33
2565.5 4.14286
2566.5 12.5714
2567.5 10
2568.5 15.2857
2569.5 6.71428
2570.5 20
2571.5 13.5714
2572.5 30.4286
2573.5 21.5714
2574.5 10.8571
2575.5 3.14286
2576.5 4.71428
2577.5 12.5714
2578.5 14.4286
2579.5 21
2580.5 48.5714
2581.5 27.7143
2582.5 19.4286
2583.5 31.1429
2584.5 0.428571
2585.5 45.8571
2586.5 73
2587.5 82.8571
2588.5 64.7143
2589.5 38.8571
2590.5 28.7143
2591.5 18.2857
2592.5 25.1429
2593.5 4.42857
2594.5 45.5714
2595.5 23
2596.5 19.8571
2597.5 16.5714
2598.5 25.4286
2599.5 40
2600.5 33.7143
2601.5 10.7143
2602.5 22.7143
2603.5 14.7143
2604.5 33.4286
2605.5 27.7143
2606.5 36
2607.5 30.5714
2608.5 34.4286
2609.5 77.1429
2610.5 32
2611.5 33.1429
2612.5 41.1429
2613.5 33.8571
2614.5 29.7143
2615.5 32
2616.5 15.2857
2617.5 38.5714
2618.5 40.5714
2619.5 44.5714
2620.5 27
2621.5 36.4286
2622.5 23
2623.5 15
2624.5 26.4286
2625.5 3.28571
2626.5 21.2857
2627.5 21
2628.5 34
2629.5 19.1429
2630.5 12.7143
2631.5 35.7143
2632.5 24.5714
2633.5 10.5714
2634.5 24.1429
2635.5 23.4286
2636.5 0.714285
2637.5 20.4286
2638.5 16.7143
2639.5 16.5714
2640.5 7.14286
2641.5 5.14286
2642.5 18
2643.5 11.5714
2644.5 6.28571
2645.5 15.1429
2646.5 33.7143
2647.5 24.7143
2648.5 40.4286
2649.5 26.4286
2650.5 80.7143
2651.5 61.8571
2652.5 33.8571
2653.5 18.7143
2654.5 15.5714
2655.5 13.2857
2656.5 31.2857
2657.5 31.1429
2658.5 50.7143
2659.5 19.1429
2660.5 28.1429
2661.5 13.8571
2662.5 7
2663.5 8.14286
2664.5 21.7143
2665.5 20.4286
2666.5 11.1429
2667.5 24.8571
2668.5 1.57143
2669.5 35.5714
2670.5 16.1429
2671.5 1.57143
2672.5 8.28571
2673.5 32.7143
2674.5 9.71429
2675.5 30
2676.5 46
2677.5 49.4286
2678.5 27.2857
2679.5 31
2680.5 18.7143
2681.5 22.5714
2682.5 6.42857
2683.5 24.7143
2684.5 10.2857
2685.5 39.7143
2686.5 26.5714
2687.5 0.857142
2688.5 14
2689.5 25.8571
2690.5 24.5714
2691.5 12.4286
2692.5 28.7143
2693.5 19.1429
2694.5 9.14286
2695.5 16
2696.5 41
2697.5 28
2698.5 19.2857
2699.5 17
2700.5 -7.85714
2701.5 12.2857
2702.5 25.4286
2703.5 24.2857
2704.5 23.7143
2705.5 28.1429
2706.5 4.42857
2707.5 17.2857
2708.5 25.4286
2709.5 12.8571
2710.5 -1
2711.5 24.2857
2712.5 29.4286
2713.5 24.8571
2714.5 31.2857
2715.5 18.7143
2716.5 23
2717.5 3.85714
2718.5 18.4286
2719.5 24
2720.5 -0.714287
2721.5 10.7143
2722.5 24.1429
2723.5 34.4286
2724.5 42.1429
2725.5 31.1429
2726.5 12.8571
2727.5 18.7143
2728.5 21.2857
2729.5 31.2857
2730.5 19.1429
2731.5 32.8571
2732.5 5.85714
2733.5 22.5714
2734.5 25.8571
2735.5 17.4286
2736.5 35.8571
2737.5 39.5714
2738.5 8.57143
2739.5 26
2740.5 24.1429
2741.5 5
2742.5 15.7143
2743.5 16.2857
2744.5 15.7143
2745.5 17.7143
2746.5 15.8571
2747.5 19.4286
2748.5 17.5714
2749.5 6.71428
2750.5 23.8571
2751.5 15.5714
2752.5 31
2753.5 40.5714
2754.5 -4.71429
2755.5 26.1429
2756.5 15.2857
2757.5 27.1429
2758.5 10.1429
2759.5 9
2760.5 40.7143
2761.5 23.1429
2762.5 12.7143
2763.5 28
2764.5 12.2857
2765.5 11.1429
2766.5 36.2857
2767.5 26.4286
2768.5 28
2769.5 21.1429
2770.5 12.5714
2771.5 13.1429
2772.5 26.2857
2773.5 35.5714
2774.5 50.7143
2775.5 53.4286
2776.5 26.7143
2777.5 8
2778.5 28
2779.5 21
2780.5 4.71429
2781.5 37
2782.5 38.4286
2783.5 25.2857
2784.5 33.4286
2785.5 15.2857
2786.5 41
2787.5 33.5714
2788.5 25.7143
2789.5 43.8571
2790.5 19.5714
2791.5 11.5714
2792.5 21
2793.5 19.8571
2794.5 35.7143
2795.5 19.4286
2796.5 15.2857
2797.5 9.57143
2798.5 13.8571
2799.5 10.1429
2800.5 19.4286
2801.5 30.2857
2802.5 13.8571
2803.5 33.5714
2804.5 1.85714
2805.5 39.4286
2806.5 13.8571
2807.5 12.4286
2808.5 9
2809.5 -0.714287
2810.5 14.8571
2811.5 -0.428572
2812.5 44.7143
2813.5 38.7143
2814.5 62.8571
2815.5 77.2857
2816.5 85.5714
2817.5 51.7143
2818.5 22.4286
2819.5 33.4286
2820.5 20.7143
2821.5 26.7143
2822.5 18
2823.5 25.1429
2824.5 12.2857
2825.5 20.2857
2826.5 20
2827.5 15.5714
2828.5 31.8571
2829.5 3.42857
2830.5 25.5714
2831.5 3.85714
2832.5 12.1429
2833.5 35.5714
2834.5 19.5714
2835.5 28.1429
2836.5 19.4286
2837.5 22.2857
2838.5 7.85714
2839.5 20.8571
2840.5 16.7143
2841.5 23.8571
2842.5 43.5714
2843.5 20.1429
2844.5 38.8571
2845.5 27
2846.5 4.14286
2847.5 26.7143
2848.5 32
2849.5 11.1429
2850.5 21.1429
2851.5 -5
2852.5 31
2853.5 18.5714
2854.5 29.1429
2855.5 16.8571
2856.5 3.28571
2857.5 13.8571
2858.5 20.7143
2859.5 32.8571
2860.5 34.1429
2861.5 26.7143
2862.5 20
2863.5 28.7143
2864.5 9
2865.5 6.57143
2866.5 14
2867.5 15
2868.5 12.7143
2869.5 19.2857
2870.5 32.2857
2871.5 19.8571
2872.5 7.71429
2873.5 12
2874.5 13.2857
2875.5 11.7143
2876.5 25.1429
2877.5 25.2857
2878.5 9.57143
2879.5 14.4286
2880.5 14.2857
2881.5 17.5714
2882.5 9.28571
2883.5 54.7143
2884.5 6.71429
2885.5 22.2857
2886.5 32.2857
2887.5 18.5714
2888.5 21.1429
2889.5 14.8571
2890.5 18.1429
2891.5 12.4286
2892.5 12.7143
2893.5 37.2857
2894.5 28.1429
2895.5 38
2896.5 3.71429
2897.5 3.57143
2898.5 32.4286
2899.5 6.42857
2900.5 3.71429
2901.5 3.14286
2902.5 31
2903.5 26.1429
2904.5 27.7143
2905.5 -3.57143
2906.5 11.5714
2907.5 18.8571
2908.5 14.5714
2909.5 3.85714
2910.5 37.2857
2911.5 14.2857
2912.5 24.8571
2913.5 37.5714
2914.5 31.2857
2915.5 9.85714
2916.5 15.7143
2917.5 15.8571
2918.5 27.5714
2919.5 10.1429
2920.5 15.2857
2921.5 16.1429
2922.5 4.71429
2923.5 3.71429
2924.5 23.1429
2925.5 27
2926.5 6.42857
2927.5 26.4286
2928.5 19.1429
2929.5 14.8571
2930.5 -1.71429
2931.5 19.5714
2932.5 -2.57143
2933.5 20
2934.5 16.4286
2935.5 12.2857
2936.5 26.4286
2937.5 2.28571
2938.5 18.8571
2939.5 28
2940.5 -13.8571
2941.5 12.1429
2942.5 28.1429
2943.5 16
2944.5 -31.8571
2945.5 1.42857
2946.5 53.8571
2947.5 34.2857
2948.5 53.4286
2949.5 29.7143
2950.5 32.7143
2951.5 35.2857
2952.5 29.4286
2953.5 19.2857
2954.5 5.57143
2955.5 -1.28572
2956.5 9.85714
2957.5 17.5714
2958.5 11.5714
2959.5 40
2960.5 37.2857
2961.5 24.5714
2962.5 45.4286
2963.5 17.2857
2964.5 26.7143
2965.5 30.7143
2966.5 25.7143
2967.5 4.28571
2968.5 35
2969.5 9.14286
2970.5 30.8571
2971.5 13.7143
2972.5 26.8571
2973.5 28.8571
2974.5 31
2975.5 28.7143
2976.5 48.1429
2977.5 42.2857
2978.5 21.7143
2979.5 0.285714
2980.5 23.5714
2981.5 17.7143
2982.5 23.2857
2983.5 36.5714
2984.5 25.8571
2985.5 25
2986.5 20
2987.5 21.4286
2988.5 37
2989.5 4.28571
2990.5 14
2991.5 37.4286
2992.5 19.7143
2993.5 10.1429
2994.5 21.1429
2995.5 30.8571
2996.5 42
2997.5 -15
2998.5 1.28571
2999.5 -2.71429
3000.5 21.4286
3001.5 30.8571
3002.5 44.8571
3003.5 32.1429
3004.5 49.1429
3005.5 60
3006.5 50.5714
3007.5 25.5714
3008.5 34.2857
3009.5 22.7143
3010.5 15.4286
3011.5 41.1429
3012.5 -2.85714
3013.5 21.5714
3014.5 32.7143
3015.5 20.7143
3016.5 25.4286
3017.5 -2.85714
3018.5 19.4286
3019.5 23.4286
3020.5 36.4286
3021.5 3.42857
3022.5 11.8571
3023.5 3.42857
3024.5 27.2857
3025.5 13.8571
3026.5 34
3027.5 23.1429
3028.5 28.2857
3029.5 25.7143
3030.5 25.2857
3031.5 24.1429
3032.5 39.4286
3033.5 -3.42857
3034.5 21.5714
3035.5 29.1429
3036.5 3.57143
3037.5 -15.7143
3038.5 -8
3039.5 13
3040.5 15
3041.5 9.14286
3042.5 28.1429
3043.5 23.5714
3044.5 11.4286
3045.5 26.2857
3046.5 23.8571
3047.5 15.1429
3048.5 12.4286
3049.5 62.1429
3050.5 20.2857
3051.5 14.7143
3052.5 25.2857
3053.5 -4.14286
3054.5 43.5714
3055.5 29.7143
3056.5 41.2857
3057.5 15.4286
3058.5 31.2857
3059.5 12.7143
3060.5 23.4286
3061.5 6.28571
3062.5 33.1429
3063.5 20.7143
3064.5 17.8571
3065.5 17.5714
3066.5 12.5714
3067.5 14.7143
3068.5 29
3069.5 15.4286
3070.5 10
3071.5 22.7143
3072.5 50.1429
3073.5 10.7143
3074.5 19.2857
3075.5 36.2857
3076.5 8.42857
3077.5 22.8571
3078.5 25
3079.5 22.4286
3080.5 4.28571
3081.5 23.8571
3082.5 30.1429
3083.5 9.14286
3084.5 27.4286
3085.5 2.28571
3086.5 34
3087.5 8.28571
3088.5 14.4286
3089.5 25.2857
3090.5 24.4286
3091.5 37.1429
3092.5 11.7143
3093.5 23.7143
3094.5 25
3095.5 17.5714
3096.5 13
3097.5 27.1429
3098.5 23.1429
3099.5 43.8571
3100.5 15.2857
3101.5 40.1429
3102.5 -6.28571
3103.5 22.4286
3104.5 15.2857
3105.5 33.4286
3106.5 30.4286
3107.5 -0.428572
3108.5 7.42857
3109.5 23.4286
3110.5 28.1429
3111.5 26.7143
3112.5 13
3113.5 -2.71429
3114.5 19.5714
3115.5 30.8571
3116.5 7.57143
3117.5 11.4286
3118.5 34.2857
3119.5 21.1429
3120.5 8.57143
3121.5 22.8571
3122.5 18.2857
3123.5 38
3124.5 34
3125.5 15.4286
3126.5 24.4286
3127.5 9.71429
3128.5 28.8571
3129.5 22.4286
3130.5 27.5714
3131.5 19.4286
3132.5 16.7143
3133.5 34.5714
3134.5 20.8571
3135.5 36.1429
3136.5 6.57143
3137.5 27
3138.5 10.1429
3139.5 9.42857
3140.5 27.4286
3141.5 20.4286
3142.5 7.85714
3143.5 14
3144.5 48
3145.5 23.7143
3146.5 23.5714
3147.5 15.4286
3148.5 8.14286
3149.5 23.7143
3150.5 38
3151.5 30.5714
3152.5 19.1429
3153.5 17.7143
3154.5 1.57143
3155.5 38.8571
3156.5 25.2857
3157.5 48.5714
3158.5 77.7143
3159.5 92
3160.5 116
3161.5 104.571
3162.5 96
3163.5 88.1429
3164.5 48
3165.5 30
3166.5 1.14286
3167.5 15.4286
3168.5 17.2857
3169.5 29.1429
3170.5 18.1429
3171.5 16.5714
3172.5 13.7143
3173.5 18.8571
3174.5 29.1429
3175.5 25.4286
3176.5 15.1429
3177.5 14.8571
3178.5 7.71429
3179.5 15.7143
3180.5 19.2857
3181.5 19.2857
3182.5 13.7143
3183.5 53.4286
3184.5 12.8571
3185.5 45.4286
3186.5 19.8571
3187.5 11.4286
3188.5 19.1429
3189.5 25.7143
3190.5 23
3191.5 25
3192.5 8
3193.5 17.2857
3194.5 1
3195.5 29.1429
3196.5 17
3197.5 36.5714
3198.5 18.8571
3199.5 27.5714
3200.5 57.8571
3201.5 41.8571
3202.5 55
3203.5 28.8571
3204.5 32.8571
3205.5 34.5714
3206.5 37.4286
3207.5 27.4286
3208.5 16.2857
3209.5 24.2857
3210.5 18.4286
3211.5 26.4286
3212.5 37.8571
3213.5 26
3214.5 38.2857
3215.5 19.2857
3216.5 17.2857
3217.5 34.2857
3218.5 15
3219.5 22.5714
3220.5 23.8571
3221.5 20.7143
3222.5 31.7143
3223.5 20.2857
3224.5 27.8571
3225.5 16.2857
3226.5 21.2857
3227.5 26.4286
3228.5 21.7143
3229.5 22.4286
3230.5 28.4286
3231.5 29
3232.5 14.8571
3233.5 16.2857
3234.5 21.7143
3235.5 40.7143
3236.5 23.1429
3237.5 23.7143
3238.5 19.5714
3239.5 22.2857
3240.5 51.8571
3241.5 33.7143
3242.5 16.7143
3243.5 37.2857
3244.5 26.8571
3245.5 30.1429
3246.5 22.7143
3247.5 18.1429
3248.5 25.7143
3249.5 35.5714
3250.5 33.4286
3251.5 16
3252.5 32.7143
3253.5 17.4286
3254.5 13
3255.5 25.2857
3256.5 38.1429
3257.5 32.4286
3258.5 39.4286
3259.5 24.5714
3260.5 23.2857
3261.5 13.2857
3262.5 29.7143
3263.5 33
3264.5 41.5714
3265.5 12.7143
3266.5 17.7143
3267.5 11.2857
3268.5 32.5714
3269.5 15.8571
3270.5 27.2857
3271.5 20.2857
3272.5 12.4286
3273.5 19.2857
3274.5 12
3275.5 33.7143
3276.5 24.5714
3277.5 8.85714
3278.5 4.14286
3279.5 18.5714
3280.5 13
3281.5 15
3282.5 14.4286
3283.5 29
3284.5 53
3285.5 63.1429
3286.5 48.8571
3287.5 53.2857
3288.5 26.7143
3289.5 17.8571
3290.5 10.7143
3291.5 19.4286
3292.5 23.7143
3293.5 12.8571
3294.5 15.1429
3295.5 29.1429
3296.5 17.8571
3297.5 28.5714
3298.5 23.1429
3299.5 41.7143
3300.5 71.2857
3301.5 34.2857
3302.5 43.4286
3303.5 25.4286
3304.5 37.8571
3305.5 28
3306.5 20.4286
3307.5 6.85714
3308.5 20.4286
3309.5 26.7143
3310.5 21.8571
3311.5 43.4286
3312.5 26.5714
3313.5 14.8571
3314.5 12.2857
3315.5 24.7143
3316.5 38.4286
3317.5 26.1429
3318.5 13
3319.5 11
3320.5 22.7143
3321.5 1.14286
3322.5 27.2857
3323.5 25.5714
3324.5 6.14286
3325.5 14.8571
3326.5 29.4286
3327.5 18.2857
3328.5 36.8571
3329.5 25.4286
3330.5 22.1429
3331.5 10.5714
3332.5 32.7143
3333.5 14.7143
3334.5 23.2857
3335.5 11.2857
3336.5 24.2857
3337.5 20.2857
3338.5 14.7143
3339.5 23.8571
3340.5 27.7143
3341.5 13.1429
3342.5 19.4286
3343.5 15.2857
3344.5 7.28571
3345.5 11.5714
3346.5 17.8571
3347.5 27.7143
3348.5 8.14286
3349.5 24.1429
3350.5 48.4286
3351.5 44
3352.5 32.2857
3353.5 52.5714
3354.5 44.7143
3355.5 77.8571
3356.5 38.4286
3357.5 11.4286
3358.5 10.8571
3359.5 25.8571
3360.5 33.5714
3361.5 45.5714
3362.5 15.2857
3363.5 21.8571
3364.5 14.2857
3365.5 18
3366.5 54.2857
3367.5 51.5714
3368.5 13.8571
3369.5 21.5714
3370.5 18.1429
3371.5 9.57143
3372.5 25.8571
3373.5 13.2857
3374.5 17.4286
3375.5 35.5714
3376.5 16.4286
3377.5 22.5714
3378.5 19.8571
3379.5 10.1429
3380.5 31.5714
3381.5 44.2857
3382.5 30.2857
3383.5 14.5714
3384.5 32.5714
3385.5 13.4286
3386.5 38.1429
3387.5 17.7143
3388.5 9.71429
3389.5 2.57143
3390.5 1.42857
3391.5 36.7143
3392.5 23.7143
3393.5 5.14286
3394.5 20
3395.5 19.5714
3396.5 6.28571
3397.5 38
3398.5 24.5714
3399.5 19
3400.5 13
3401.5 40.1429
3402.5 34.8571
3403.5 30.1429
3404.5 3
3405.5 37
3406.5 30.4286
3407.5 13.8571
3408.5 29.5714
3409.5 17.2857
3410.5 7.14286
3411.5 23.2857
3412.5 15.7143
3413.5 30.7143
3414.5 44
3415.5 24.8571
3416.5 24
3417.5 10.8571
3418.5 30.7143
3419.5 17.5714
3420.5 6.28571
3421.5 19.1429
3422.5 25.5714
3423.5 30.7143
3424.5 15.4286
3425.5 19.5714
3426.5 34.2857
3427.5 39.8571
3428.5 56.2857
3429.5 37.1429
3430.5 16.4286
3431.5 21
3432.5 30.8571
3433.5 20.7143
3434.5 20.4286
3435.5 20.1429
3436.5 33.4286
3437.5 13.7143
3438.5 25.5714
3439.5 26.8571
3440.5 44.7143
3441.5 25.4286
3442.5 3.28571
3443.5 22.2857
3444.5 16.2857
3445.5 23.7143
3446.5 15.1429
3447.5 19.7143
3448.5 45.7143
3449.5 21
3450.5 12.8571
3451.5 18.1429
3452.5 27.1429
3453.5 24.4286
3454.5 12.8571
3455.5 16.7143
3456.5 18.2857
3457.5 19.4286
3458.5 32
3459.5 35.4286
3460.5 43
3461.5 26.1429
3462.5 24.8571
3463.5 2.42857
3464.5 18.4286
3465.5 26.5714
3466.5 31.2857
3467.5 24.8571
3468.5 26.4286
3469.5 15.4286
3470.5 30
3471.5 27.7143
3472.5 22.2857
3473.5 14
3474.5 24.5714
3475.5 21.1429
3476.5 22.7143
3477.5 26.1429
3478.5 23.1429
3479.5 38.4286
3480.5 19.4286
3481.5 20.1429
3482.5 35.7143
3483.5 27.1429
3484.5 11
3485.5 28
3486.5 8.85714
3487.5 21.8571
3488.5 11.8571
3489.5 8
3490.5 11
3491.5 27.5714
3492.5 2.42857
3493.5 34.5714
3494.5 11
3495.5 14.8571
3496.5 22
3497.5 5.85714
3498.5 18.5714
3499.5 10.5714
3500.5 9.57143
3501.5 38.4286
3502.5 32.8571
3503.5 3.71429
3504.5 33.8571
3505.5 14.8571
3506.5 8.14286
3507.5 7.57143
3508.5 2.28571
3509.5 18.5714
3510.5 12.2857
3511.5 21.8571
3512.5 12.7143
3513.5 33.8571
3514.5 4.14286
3515.5 11.7143
3516.5 -24.5714
3517.5 -2.28572
3518.5 -11.2857
3519.5 11.1429
3520.5 7.42857
3521.5 16
3522.5 -6
3523.5 -13.5714
3524.5 -4.85714
3525.5 11.2857
3526.5 32.1429
3527.5 20.5714
3528.5 3.71429
3529.5 15.2857
3530.5 15.1429
3531.5 12.7143
3532.5 42.2857
3533.5 35.7143
3534.5 15
3535.5 15
3536.5 11.4286
3537.5 37.5714
3538.5 19
3539.5 17.1429
3540.5 18.1429
3541.5 33.2857
3542.5 27.2857
3543.5 10.8571
3544.5 12.8571
3545.5 34.7143
3546.5 20.5714
3547.5 36.1429
3548.5 29.8571
3549.5 14.7143
3550.5 26.7143
3551.5 0.428571
3552.5 20.5714
3553.5 26.5714
3554.5 8.42857
3555.5 38.5714
3556.5 28.5714
3557.5 11.8571
3558.5 35.7143
3559.5 23.5714
3560.5 4.71429
3561.5 33.1429
3562.5 7
3563.5 14.7143
3564.5 7
3565.5 6.14286
3566.5 13.5714
3567.5 28
3568.5 35.5714
3569.5 25.7143
3570.5 35.8571
3571.5 25
3572.5 7.14286
3573.5 19.2857
3574.5 20.7143
3575.5 34.8571
3576.5 32
3577.5 9.28571
3578.5 21.4286
3579.5 18
3580.5 5.57143
3581.5 34.8571
3582.5 14.7143
3583.5 20.5714
3584.5 24.4286
3585.5 35.8571
3586.5 16.7143
3587.5 18.8571
3588.5 13.8571
3589.5 24.4286
3590.5 24.1429
3591.5 7.85714
3592.5 12.2857
3593.5 38.1429
3594.5 27
3595.5 22.4286
3596.5 36.4286
3597.5 15.1429
3598.5 9.14286
3599.5 11
3600.5 19.4286
3601.5 32.7143
3602.5 28.8571
3603.5 22.7143
3604.5 24.8571
3605.5 20.5714
3606.5 17.5714
3607.5 18.7143
3608.5 14.5714
3609.5 8.57143
3610.5 22.2857
3611.5 15.4286
3612.5 17
3613.5 25
3614.5 31.5714
3615.5 2.57143
3616.5 42.4286
3617.5 27.1429
3618.5 15.5714
3619.5 22.5714
3620.5 10.2857
3621.5 30
3622.5 29.1429
3623.5 6.85714
3624.5 29.1429
3625.5 35.8571
3626.5 -8.28571
3627.5 18.2857
3628.5 -2
3629.5 16.8571
3630.5 19.4286
3631.5 7.85714
3632.5 20.8571
3633.5 13.5714
3634.5 15.8571
3635.5 19
3636.5 0.714285
3637.5 8
3638.5 15.5714
3639.5 20.5714
3640.5 17.7143
3641.5 10.1429
3642.5 16.4286
3643.5 0.428571
3644.5 17.5714
3645.5 25.5714
3646.5 12.2857
3647.5 -13.7143
3648.5 24.7143
3649.5 23.7143
3650.5 -8.57143
3651.5 23
3652.5 5.71429
3653.5 24
3654.5 12.8571
3655.5 16
3656.5 23.5714
3657.5 12.1429
3658.5 11
3659.5 11.7143
3660.5 31.5714
3661.5 20.1429
3662.5 25
3663.5 23.2857
3664.5 31.4286
3665.5 23.1429
3666.5 39
3667.5 47.1429
3668.5 74.4286
3669.5 154.714
3670.5 290.429
3671.5 426.286
3672.5 601.143
3673.5 481.571
3674.5 315.143
3675.5 138.143
3676.5 54.7143
3677.5 40.7143
3678.5 16
3679.5 7.14286
3680.5 24
3681.5 8.42857
3682.5 31.5714
3683.5 22.4286
3684.5 8.42857
3685.5 24.8571
3686.5 6.14286
3687.5 8.14286
3688.5 16.7143
3689.5 19
3690.5 2.14286
3691.5 25.5714
3692.5 23.1429
3693.5 22.4286
3694.5 20.7143
3695.5 24.2857
3696.5 38.5714
3697.5 41.5714
3698.5 11
3699.5 7
3700.5 22.5714
3701.5 -0.142857
3702.5 18.1429
3703.5 29.1429
3704.5 17.2857
3705.5 33.4286
3706.5 34.1429
3707.5 34.1429
3708.5 20.2857
3709.5 26.1429
3710.5 16
3711.5 11.4286
3712.5 -4.57143
3713.5 2.28571
3714.5 8.14286
3715.5 17.2857
3716.5 13.2857
3717.5 32.5714
3718.5 28
3719.5 22.4286
3720.5 26.4286
3721.5 11.7143
3722.5 14.4286
3723.5 22.1429
3724.5 13.1429
3725.5 30.8571
3726.5 13.5714
3727.5 22
3728.5 13
3729.5 8.28571
3730.5 21.2857
3731.5 -4.85714
3732.5 15.1429
3733.5 13.4286
3734.5 27.2857
3735.5 15.4286
3736.5 5.85714
3737.5 9
3738.5 26.2857
3739.5 7.71429
3740.5 16.5714
3741.5 18
3742.5 5.57143
3743.5 11.2857
3744.5 17.4286
3745.5 21.7143
3746.5 60.8571
3747.5 35.5714
3748.5 14.4286
3749.5 18.2857
3750.5 21.8571
3751.5 14
3752.5 27.8571
3753.5 8.71429
3754.5 22.2857
3755.5 25.4286
3756.5 16.2857
3757.5 20.7143
3758.5 1.85714
3759.5 -1.71429
3760.5 22.7143
3761.5 25.5714
3762.5 23.1429
3763.5 23.7143
3764.5 7.57143
3765.5 21.8571
3766.5 30.2857
3767.5 13.1429
3768.5 14.7143
3769.5 23.1429
3770.5 14
3771.5 19.5714
3772.5 2
3773.5 10.7143
3774.5 12.1429
3775.5 28.4286
3776.5 20
3777.5 15.8571
3778.5 10.8571
3779.5 17.7143
3780.5 17
3781.5 4.57143
3782.5 19.1429
3783.5 20.7143
3784.5 30.8571
3785.5 14.8571
3786.5 6.42857
3787.5 9.42857
3788.5 12.2857
3789.5 16.7143
3790.5 6.14286
3791.5 1
3792.5 12.1429
3793.5 8
3794.5 17.7143
3795.5 15.5714
3796.5 7.57143
3797.5 4.85714
3798.5 23.5714
3799.5 36.2857
3800.5 20.8571
3801.5 13.5714
3802.5 27.8571
3803.5 12.4286
3804.5 18
3805.5 30
3806.5 33.7143
3807.5 22
3808.5 12.2857
3809.5 37.8571
3810.5 27.1429
3811.5 32.7143
3812.5 21.8571
3813.5 38.8571
3814.5 32
3815.5 33.2857
3816.5 44.7143
3817.5 11.4286
3818.5 26.2857
3819.5 7
3820.5 15
3821.5 19.7143
3822.5 22.2857
3823.5 26.7143
3824.5 8.71429
3825.5 25.8571
3826.5 -4.17233e-07
3827.5 25.2857
3828.5 11.4286
3829.5 13.5714
3830.5 27.8571
3831.5 15.1429
3832.5 0.857142
3833.5 15.4286
3834.5 13.1429
3835.5 9.14286
3836.5 28
3837.5 8.42857
3838.5 22
3839.5 16.8571
3840.5 24.4286
3841.5 -1
3842.5 23.8571
3843.5 12.5714
3844.5 1.14286
3845.5 15.2857
3846.5 11.5714
3847.5 16.7143
3848.5 -2.57143
3849.5 23.4286
3850.5 14.7143
3851.5 17
3852.5 17.7143
3853.5 31.2857
3854.5 22.7143
3855.5 11.5714
3856.5 12.7143
3857.5 17.1429
3858.5 37.1429
3859.5 11.5714
3860.5 27
3861.5 25
3862.5 37
3863.5 37.8571
3864.5 32.5714
3865.5 36.7143
3866.5 36.4286
3867.5 42.1429
3868.5 48.4286
3869.5 54.8571
3870.5 37.1429
3871.5 33.1429
3872.5 16.2857
3873.5 33.5714
3874.5 26.5714
3875.5 13.8571
3876.5 27.4286
3877.5 6
3878.5 20
3879.5 26.7143
3880.5 33.8571
3881.5 20.8571
3882.5 6.28571
3883.5 19.5714
3884.5 11.7143
3885.5 20
3886.5 27.7143
3887.5 19.1429
3888.5 25.2857
3889.5 38.5714
3890.5 25.8571
3891.5 21.1429
3892.5 47
3893.5 29.7143
3894.5 20.7143
3895.5 7.85714
3896.5 21
3897.5 28.7143
3898.5 15.1429
3899.5 20.1429
3900.5 15.7143
3901.5 18.5714
3902.5 13.8571
3903.5 27.7143
3904.5 20.2857
3905.5 26.2857
3906.5 24
3907.5 35.1429
3908.5 29.1429
3909.5 29.5714
3910.5 31.8571
3911.5 20
3912.5 21.4286
3913.5 12
3914.5 16.8571
3915.5 16.1429
3916.5 8.71429
3917.5 22.1429
3918.5 31.5714
3919.5 11.8571
3920.5 29
3921.5 1.57143
3922.5 14.8571
3923.5 11.2857
3924.5 27.8571
3925.5 2.57143
3926.5 36
3927.5 27.2857
3928.5 22.2857
3929.5 12.7143
3930.5 32.7143
3931.5 13.2857
3932.5 17
3933.5 16.1429
3934.5 28
3935.5 22.5714
3936.5 16.4286
3937.5 23.2857
3938.5 5.28571
3939.5 16.5714
3940.5 5.57143
3941.5 24.5714
3942.5 7.14286
3943.5 5.71429
3944.5 3.14286
3945.5 3
3946.5 19
3947.5 14
3948.5 10.7143
3949.5 20.2857
3950.5 15.1429
3951.5 20.8571
3952.5 17.2857
3953.5 24.4286
3954.5 12.7143
3955.5 4.71429
3956.5 4.28571
3957.5 14.4286
3958.5 12.4286
3959.5 15.1429
3960.5 18.1429
3961.5 25.8571
3962.5 15.2857
3963.5 31.4286
3964.5 10.7143
3965.5 18.5714
3966.5 29.5714
3967.5 25.1429
3968.5 25.5714
3969.5 9.14286
3970.5 23.8571
3971.5 4.71428
3972.5 42.2857
3973.5 -5.28572
3974.5 19
3975.5 31.4286
3976.5 43.7143
3977.5 33
3978.5 40.8571
3979.5 21.8571
3980.5 9.85714
3981.5 21.1429
3982.5 11.2857
3983.5 19.8571
3984.5 14.2857
3985.5 25.1429
3986.5 24.1429
3987.5 17.8571
3988.5 11.1429
3989.5 17.7143
3990.5 10.5714
3991.5 10.8571
3992.5 4.57143
3993.5 30.2857
3994.5 10.7143
3995.5 11.2857
3996.5 -2.14286
3997.5 17.4286
3998.5 12.7143
3999.5 21.2857
4000.5 14
4001.5 23
4002.5 19.5714
4003.5 22.7143
4004.5 17.4286
4005.5 5.85714
4006.5 21.8571
4007.5 16.1429
4008.5 16.5714
4009.5 12
4010.5 36.4286
4011.5 13.1429
4012.5 13.2857
4013.5 13.4286
4014.5 6.42857
4015.5 13.2857
4016.5 14.1429
4017.5 4
4018.5 19.1429
4019.5 24.1429
4020.5 35.1429
4021.5 10.7143
4022.5 11.8571
4023.5 7.57143
4024.5 22.4286
4025.5 5.57143
4026.5 23.8571
4027.5 9.85714
4028.5 27.7143
4029.5 16.8571
4030.5 14.2857
4031.5 -16.5714
4032.5 -35.8571
4033.5 -75.4286
4034.5 -73.5714
4035.5 -91.2857
4036.5 -46.8571
4037.5 -24.4286
4038.5 5
4039.5 13.8571
4040.5 22.5714
4041.5 28.1429
4042.5 23.8571
4043.5 21.7143
4044.5 27.1429
4045.5 29.2857
4046.5 11.7143
4047.5 22.8571
4048.5 29.2857
4049.5 29.2857
4050.5 18.7143
4051.5 26.1429
4052.5 20.5714
4053.5 23.8571
4054.5 9.57143
4055.5 22.2857
4056.5 22
4057.5 13.7143
4058.5 10.8571
4059.5 26.5714
4060.5 32
4061.5 32
4062.5 13.2857
4063.5 14.1429
4064.5 12
4065.5 15
4066.5 16.4286
4067.5 31.8571
4068.5 20.7143
4069.5 2.85714
4070.5 10.1429
4071.5 16.8571
4072.5 2.42857
4073.5 4.71429
4074.5 16.1429
4075.5 17.1429
4076.5 2.28571
4077.5 22.5714
4078.5 23.1429
4079.5 7.71429
4080.5 24.7143
4081.5 30.8571
4082.5 16.4286
4083.5 20.7143
4084.5 19.1429
4085.5 12.1429
4086.5 9
4087.5 16.1429
4088.5 13.4286
4089.5 20.1429
4090.5 21.1429
4091.5 27
4092.5 33.1429
4093.5 19.2857
4094.5 14.2857
4095.5 17.1429
4096.5 22.1429
4097.5 24.5714
4098.5 16.8571
4099.5 17
4100.5 9.28571
4101.5 7.14286
4102.5 14.1429
4103.5 22
4104.5 23.2857
4105.5 -1.85714
4106.5 23.8571
4107.5 26
4108.5 34.8571
4109.5 20.2857
4110.5 22.8571
4111.5 21.5714
4112.5 21.4286
4113.5 20.7143
4114.5 23.8571
4115.5 21.1429
4116.5 20.1429
4117.5 20.8571
4118.5 7.85714
4119.5 13.7143
4120.5 14.4286
4121.5 15.5714
4122.5 26.2857
4123.5 16.8571
4124.5 19.2857
4125.5 38
4126.5 42
4127.5 70.5714
4128.5 92.4286
4129.5 70.2857
4130.5 69
4131.5 60
4132.5 32
4133.5 34.8571
4134.5 18.2857
4135.5 17.7143
4136.5 18.1429
4137.5 8
4138.5 15.5714
4139.5 13.7143
4140.5 14.7143
4141.5 8.85714
4142.5 0.857143
4143.5 20.1429
4144.5 27
4145.5 11.8571
4146.5 34.1429
4147.5 4.57143
4148.5 15.8571
4149.5 14.4286
4150.5 11.2857
4151.5 14.1429
4152.5 29.1429
4153.5 13
4154.5 -3.57628e-07
4155.5 10.2857
4156.5 16
4157.5 4.85714
4158.5 20.2857
4159.5 25.7143
4160.5 24.4286
4161.5 27
4162.5 16.1429
4163.5 18.5714
4164.5 5.71429
4165.5 6.71429
4166.5 25.1429
4167.5 19.8571
4168.5 12
4169.5 21.7143
4170.5 14.1429
4171.5 15.7143
4172.5 17.4286
4173.5 25.4286
4174.5 26.5714
4175.5 12.1429
4176.5 35.1429
4177.5 22.5714
4178.5 15.4286
4179.5 23.4286
4180.5 11.2857
4181.5 22.8571
4182.5 16.8571
4183.5 25.2857
4184.5 30.4286
4185.5 32.8571
4186.5 17.8571
4187.5 23
4188.5 26.1429
4189.5 19.1429
4190.5 33.5714
4191.5 16.1429
4192.5 17.5714
4193.5 24
4194.5 26.2857
4195.5 22.4286
4196.5 16.4286
4197.5 24.7143
4198.5 23.1429
4199.5 34.2857
4200.5 7.85714
4201.5 14.7143
4202.5 19.2857
4203.5 30.5714
4204.5 33
4205.5 31.4286
4206.5 21.1429
4207.5 33.2857
4208.5 55
4209.5 30.5714
4210.5 20.5714
4211.5 23
4212.5 30.5714
4213.5 22.5714
4214.5 23.2857
4215.5 30.5714
4216.5 34.7143
4217.5 14.8571
4218.5 35
4219.5 15.2857
4220.5 13.8571
4221.5 38
4222.5 36
4223.5 10.4286
4224.5 11
4225.5 18
4226.5 16.2857
4227.5 21
4228.5 23.7143
4229.5 14
4230.5 20.5714
4231.5 14.1429
4232.5 14.5714
4233.5 13.5714
4234.5 13.8571
4235.5 20.4286
4236.5 27.5714
4237.5 19.1429
4238.5 16.7143
4239.5 15.5714
4240.5 25.2857
4241.5 14
4242.5 19.7143
4243.5 26.4286
4244.5 20.1429
4245.5 23.7143
4246.5 25.1429
4247.5 16.8571
4248.5 16.5714
4249.5 14.5714
4250.5 16.1429
4251.5 31.5714
4252.5 27.4286
4253.5 9.57143
4254.5 9
4255.5 19.7143
4256.5 20
4257.5 15
4258.5 13.1429
4259.5 28.5714
4260.5 16.8571
4261.5 25.5714
4262.5 27.7143
4263.5 34.2857
4264.5 13.1429
4265.5 40.8571
4266.5 -1.57143
4267.5 19.8571
4268.5 23.4286
4269.5 23.7143
4270.5 19.7143
4271.5 19.1429
4272.5 17.1429
4273.5 22.4286
4274.5 17.2857
4275.5 20.7143
4276.5 31.8571
4277.5 33
4278.5 34.5714
4279.5 16.1429
4280.5 25.4286
4281.5 14.8571
4282.5 18
4283.5 14.8571
4284.5 12.1429
4285.5 22.2857
4286.5 28.4286
4287.5 1.28571
4288.5 7.71429
4289.5 19.1429
4290.5 27.8571
4291.5 13.4286
4292.5 11.8571
4293.5 25.7143
4294.5 12.1429
4295.5 12.1429
4296.5 8.71429
4297.5 16.2857
4298.5 26.2857
4299.5 9.85714
4300.5 26.2857
4301.5 19.1429
4302.5 17
4303.5 5.14286
4304.5 16.2857
4305.5 13.1429
4306.5 15.4286
4307.5 22.7143
4308.5 24.1429
4309.5 16.7143
4310.5 9.14286
4311.5 17.5714
4312.5 12.2857
4313.5 19.2857
4314.5 13.7143
4315.5 13.5714
4316.5 21.1429
4317.5 28.5714
4318.5 22.1429
4319.5 23.1429
4320.5 21.1429
4321.5 20.4286
4322.5 26.1429
4323.5 22.7143
4324.5 17.8571
4325.5 17.2857
4326.5 23.8571
4327.5 16.8571
4328.5 18
4329.5 19.1429
4330.5 19.8571
4331.5 11
4332.5 30.1429
4333.5 32.4286
4334.5 8.85714
4335.5 8.14286
4336.5 12.7143
4337.5 26.1429
4338.5 8.14286
4339.5 22
4340.5 22.7143
4341.5 12.7143
4342.5 27.7143
4343.5 19
4344.5 14.1429
4345.5 -6.14286
4346.5 17.2857
4347.5 17.7143
4348.5 0.571428
4349.5 8.57143
4350.5 23.2857
4351.5 2.71429
4352.5 11.2857
4353.5 0.571428
4354.5 13
4355.5 27
4356.5 12.4286
4357.5 19.7143
4358.5 19
4359.5 13.8571
4360.5 22.2857
4361.5 19.5714
4362.5 20.5714
4363.5 7.57143
4364.5 13.1429
4365.5 27.5714
4366.5 26.1429
4367.5 35.2857
4368.5 30.5714
4369.5 45.8571
4370.5 69.8571
4371.5 124.571
4372.5 210.143
4373.5 297.143
4374.5 400.714
4375.5 443.143
4376.5 350.286
4377.5 243.286
4378.5 133.857
4379.5 87.5714
4380.5 75.4286
4381.5 83.2857
4382.5 92.8571
4383.5 83.8571
4384.5 62.2857
4385.5 40.2857
4386.5 43.8571
4387.5 33.5714
4388.5 34.5714
4389.5 22.1429
4390.5 36.1429
4391.5 30.4286
4392.5 24
4393.5 26.4286
4394.5 21.8571
4395.5 27.1429
4396.5 20.8571
4397.5 22.1429
4398.5 38.1429
4399.5 16.1429
4400.5 11.2857
4401.5 25.7143
4402.5 38.2857
4403.5 31.2857
4404.5 35.1429
4405.5 21.7143
4406.5 33.4286
4407.5 34.8571
4408.5 25.8571
4409.5 23
4410.5 11.5714
4411.5 16.2857
4412.5 43.8571
4413.5 46.7143
4414.5 23.7143
4415.5 39.4286
4416.5 43.4286
4417.5 32.7143
4418.5 29.7143
4419.5 33.5714
4420.5 44.8571
4421.5 13.8571
4422.5 13.7143
4423.5 38.5714
4424.5 21.4286
4425.5 27.2857
4426.5 24.1429
4427.5 22.8571
4428.5 28
4429.5 36.4286
4430.5 24.1429
4431.5 31.7143
4432.5 27.4286
4433.5 41.2857
4434.5 36.5714
4435.5 19.7143
4436.5 28.7143
4437.5 12.5714
4438.5 34.1429
4439.5 31.1429
4440.5 29.1429
4441.5 13.7143
4442.5 35
4443.5 24.7143
4444.5 34
4445.5 6.71429
4446.5 32
4447.5 24.5714
4448.5 22
4449.5 24
4450.5 33.1429
4451.5 27.7143
4452.5 27.2857
4453.5 23.4286
4454.5 8.14286
4455.5 40.8571
4456.5 21.4286
4457.5 31.1429
4458.5 12.7143
4459.5 36.8571
4460.5 42.2857
4461.5 25.1429
4462.5 36.2857
4463.5 32.5714
4464.5 34.7143
4465.5 28.8571
4466.5 18.4286
4467.5 23
4468.5 32.4286
4469.5 33
4470.5 33.8571
4471.5 28.8571
4472.5 21.4286
4473.5 36.2857
4474.5 15.5714
4475.5 39.5714
4476.5 26.4286
4477.5 16
4478.5 33.7143
4479.5 34
4480.5 20.1429
4481.5 34.5714
4482.5 31.7143
4483.5 26.8571
4484.5 34.8571
4485.5 25
4486.5 30.5714
4487.5 30.1429
4488.5 28.4286
4489.5 23.1429
4490.5 39.1429
4491.5 38.7143
4492.5 40.1429
4493.5 60.1429
4494.5 23.1429
4495.5 24.1429
4496.5 15.2857
4497.5 35.8571
4498.5 30
4499.5 34.4286
4500.5 32.5714
4501.5 28.2857
4502.5 23
4503.5 21.7143
4504.5 34.4286
4505.5 20.8571
4506.5 31.5714
4507.5 23.1429
4508.5 30.4286
4509.5 33.4286
4510.5 33.5714
4511.5 32.2857
4512.5 19.2857
4513.5 28.7143
4514.5 34.2857
4515.5 48.4286
4516.5 24.4286
4517.5 20.4286
4518.5 40.2857
4519.5 47.5714
4520.5 32.8571
4521.5 25.1429
4522.5 34.2857
4523.5 32.7143
4524.5 32
4525.5 38.8571
4526.5 23.8571
4527.5 21
4528.5 39.5714
4529.5 34.2857
4530.5 29.5714
4531.5 26
4532.5 33.2857
4533.5 27.7143
4534.5 37.4286
4535.5 29.5714
4536.5 40.4286
4537.5 28.7143
4538.5 51.1429
4539.5 27
4540.5 30
4541.5 20.2857
4542.5 27.2857
4543.5 29.7143
4544.5 43.8571
4545.5 42
4546.5 35
4547.5 33.2857
4548.5 45
4549.5 33.4286
4550.5 30.7143
4551.5 40.4286
4552.5 29.8571
4553.5 34.2857
4554.5 16.8571
4555.5 33
4556.5 23.8571
4557.5 42.5714
4558.5 15.5714
4559.5 34.7143
4560.5 41.2857
4561.5 20.1429
4562.5 35.2857
4563.5 36.7143
4564.5 27.8571
4565.5 18.5714
4566.5 36
4567.5 26.4286
4568.5 44.5714
4569.5 28.4286
4570.5 35.1429
4571.5 17.5714
4572.5 38.4286
4573.5 30.4286
4574.5 31.5714
4575.5 44
4576.5 27.2857
4577.5 28.4286
4578.5 22.4286
4579.5 43.2857
4580.5 42.4286
4581.5 33.2857
4582.5 46.8571
4583.5 48.1429
4584.5 28.8571
4585.5 40.5714
4586.5 33.2857
4587.5 40.7143
4588.5 36.1429
4589.5 32.8571
4590.5 55.4286
4591.5 28.8571
4592.5 45.2857
4593.5 32.8571
4594.5 35.1429
4595.5 43.1429
4596.5 19.4286
4597.5 31.5714
4598.5 39.8571
4599.5 55
4600.5 15.5714
4601.5 33
4602.5 36
4603.5 40.8571
4604.5 34
4605.5 41.5714
4606.5 39.7143
4607.5 37.7143
4608.5 38.5714
4609.5 36.4286
4610.5 40.7143
4611.5 14
4612.5 38.5714
4613.5 44.7143
4614.5 40.5714
4615.5 40.1429
4616.5 39
4617.5 35.1429
4618.5 31.5714
4619.5 27.7143
4620.5 28.1429
4621.5 33.1429
4622.5 29.2857
4623.5 36
4624.5 20.7143
4625.5 31.7143
4626.5 32.2857
4627.5 20.4286
4628.5 33.1429
4629.5 37
4630.5 23.2857
4631.5 44.7143
4632.5 44.8571
4633.5 25.8571
4634.5 46.5714
4635.5 61.4286
4636.5 45.7143
4637.5 40.4286
4638.5 37.4286
4639.5 31.4286
4640.5 36.7143
4641.5 26.2857
4642.5 39
4643.5 43
4644.5 41
4645.5 37.4286
4646.5 37.1429
4647.5 50.5714
4648.5 40.2857
4649.5 21.1429
4650.5 38.1429
4651.5 24.5714
4652.5 40
4653.5 28
4654.5 33.8571
4655.5 37.2857
4656.5 39.1429
4657.5 32.4286
4658.5 33.1429
4659.5 36.8571
4660.5 37.4286
4661.5 45.1429
4662.5 34.1429
4663.5 32.4286
4664.5 31.8571
4665.5 44.4286
4666.5 32.8571
4667.5 20
4668.5 36
4669.5 41.7143
4670.5 35.1429
4671.5 35.2857
4672.5 51.1429
4673.5 40.5714
4674.5 46.8571
4675.5 59.5714
4676.5 46.8571
4677.5 47.5714
4678.5 37.5714
4679.5 34
4680.5 34.8571
4681.5 38
4682.5 40.1429
4683.5 43.4286
4684.5 50.8571
4685.5 30.5714
4686.5 38.5714
4687.5 33.2857
4688.5 30.8571
4689.5 39.7143
4690.5 33.2857
4691.5 42
4692.5 45.1429
4693.5 34
4694.5 29.1429
4695.5 40.4286
4696.5 57.8571
4697.5 48
4698.5 47.5714
4699.5 42.8571
4700.5 46
4701.5 44.4286
4702.5 45.5714
4703.5 35.5714
4704.5 44.1429
4705.5 27.8571
4706.5 33.5714
4707.5 42.1429
4708.5 28.4286
4709.5 35.5714
4710.5 25.5714
4711.5 53.1429
4712.5 29
4713.5 57
4714.5 30.4286
4715.5 30.2857
4716.5 38
4717.5 37.2857
4718.5 35.8571
4719.5 46.7143
4720.5 33.7143
4721.5 36.1429
4722.5 31.7143
4723.5 34
4724.5 57.7143
4725.5 19.4286
4726.5 27.8571
4727.5 31.1429
4728.5 34.2857
4729.5 43
4730.5 45.7143
4731.5 27.8571
4732.5 29.2857
4733.5 45.4286
4734.5 32.5714
4735.5 31.8571
4736.5 62
4737.5 43.4286
4738.5 45.8571
4739.5 40.2857
4740.5 31.8571
4741.5 24.1429
4742.5 28.2857
4743.5 38.8571
4744.5 25.7143
4745.5 24.5714
4746.5 56.5714
4747.5 33.2857
4748.5 46.5714
4749.5 29.7143
4750.5 37.7143
4751.5 32.1429
4752.5 42.8571
4753.5 22.4286
4754.5 39.8571
4755.5 37.2857
4756.5 35.1429
4757.5 28.8571
4758.5 23
4759.5 37.4286
4760.5 25
4761.5 31.4286
4762.5 30.4286
4763.5 35
4764.5 23.2857
4765.5 33.1429
4766.5 40.2857
4767.5 41.1429
4768.5 35.8571
4769.5 31
4770.5 37.7143
4771.5 48
4772.5 44.2857
4773.5 41.1429
4774.5 38.7143
4775.5 27
4776.5 33.2857
4777.5 34.2857
4778.5 26.1429
4779.5 36.5714
4780.5 40.4286
4781.5 30.1429
4782.5 33.5714
4783.5 30.7143
4784.5 49.1429
4785.5 32.7143
4786.5 45.4286
4787.5 28.5714
4788.5 28
4789.5 14
4790.5 44
4791.5 33.8571
4792.5 40.5714
4793.5 36.1429
4794.5 30.4286
4795.5 24.4286
4796.5 32.1429
4797.5 45
4798.5 31.2857
4799.5 34.5714
4800.5 33.2857
4801.5 37.8571
4802.5 18.1429
4803.5 41.5714
4804.5 34.7143
4805.5 34.8571
4806.5 34.8571
4807.5 27.8571
4808.5 43
4809.5 36.7143
4810.5 16.8571
4811.5 17.5714
4812.5 28.2857
4813.5 32.2857
4814.5 40.2857
4815.5 23.2857
4816.5 22.2857
4817.5 24.8571
4818.5 31.5714
4819.5 31.4286
4820.5 34.4286
4821.5 29.2857
4822.5 32.1429
4823.5 38.5714
4824.5 32.7143
4825.5 37.8571
4826.5 47.4286
4827.5 25
4828.5 33.8571
4829.5 39.8571
4830.5 48.5714
4831.5 27.1429
4832.5 39.5714
4833.5 23.2857
4834.5 33.1429
4835.5 16.7143
4836.5 28.4286
4837.5 29.4286
4838.5 44.2857
4839.5 34.8571
4840.5 30.4286
4841.5 31.4286
4842.5 52.8571
4843.5 40.4286
4844.5 22.4286
4845.5 37.2857
4846.5 22.1429
4847.5 18.7143
4848.5 38.7143
4849.5 32.7143
4850.5 28.4286
4851.5 37.5714
4852.5 44
4853.5 29.1429
4854.5 35.8571
4855.5 33
4856.5 25.2857
4857.5 25.1429
4858.5 29.5714
4859.5 27.4286
4860.5 43.7143
4861.5 25
4862.5 42.8571
4863.5 25.1429
4864.5 40
4865.5 48.4286
4866.5 17.7143
4867.5 36.1429
4868.5 32.2857
4869.5 33.8571
4870.5 24
4871.5 24.1429
4872.5 18
4873.5 38.4286
4874.5 33.2857
4875.5 45.7143
4876.5 40.5714
4877.5 52.4286
4878.5 80.2857
4879.5 128
4880.5 162.857
4881.5 275
4882.5 422.714
4883.5 629.857
4884.5 758.429
4885.5 893.286
4886.5 870.143
4887.5 749.286
4888.5 481
4889.5 273.429
4890.5 143
4891.5 127.143
4892.5 80.2857
4893.5 62
4894.5 77
4895.5 50
4896.5 41.2857
4897.5 39.2857
4898.5 29.8571
4899.5 48.2857
4900.5 58.7143
4901.5 47.7143
4902.5 33.8571
4903.5 36.7143
4904.5 42.7143
4905.5 49.2857
4906.5 44
4907.5 20.5714
4908.5 46.4286
4909.5 46.8571
4910.5 35.7143
4911.5 41.2857
4912.5 36.7143
4913.5 44.5714
4914.5 26.8571
4915.5 45.8571
4916.5 26.2857
4917.5 20.5714
4918.5 35.1429
4919.5 12.1429
4920.5 38.2857
4921.5 48
4922.5 44.4286
4923.5 26.5714
4924.5 24.2857
4925.5 32.8571
4926.5 46.5714
4927.5 40.2857
4928.5 44.1429
4929.5 43.4286
4930.5 47.7143
4931.5 40.7143
4932.5 31.2857
4933.5 45.5714
4934.5 32.5714
4935.5 35
4936.5 42.8571
4937.5 35.7143
4938.5 42.4286
4939.5 50.8571
4940.5 35.8571
4941.5 26.8571
4942.5 56.7143
4943.5 42.1429
4944.5 38.1429
4945.5 34.2857
4946.5 33.2857
4947.5 43.4286
4948.5 33.4286
4949.5 48.7143
4950.5 56.4286
4951.5 40
4952.5 32.4286
4953.5 33.7143
4954.5 44.1429
4955.5 33.1429
4956.5 35.4286
4957.5 39
4958.5 35
4959.5 34.5714
4960.5 56.4286
4961.5 51
4962.5 52.1429
4963.5 34.5714
4964.5 53.8571
4965.5 47.5714
4966.5 37.8571
4967.5 38.1429
4968.5 55.5714
4969.5 37.5714
4970.5 38.7143
4971.5 32.7143
4972.5 32.2857
4973.5 44.2857
4974.5 44.4286
4975.5 47
4976.5 15.1429
4977.5 32.4286
4978.5 26.2857
4979.5 30.8571
4980.5 43.1429
4981.5 22.8571
4982.5 49.8571
4983.5 36.8571
4984.5 49.8571
4985.5 37.2857
4986.5 38.2857
4987.5 36.2857
4988.5 37.8571
4989.5 54.2857
4990.5 23
4991.5 53.2857
4992.5 28
4993.5 40.1429
4994.5 27.4286
4995.5 45.1429
4996.5 50
4997.5 41.5714
4998.5 43.4286
4999.5 35.4286
5000.5 42
5001.5 36.5714
5002.5 45
5003.5 44.4286
5004.5 30.1429
5005.5 36
5006.5 35.7143
5007.5 43.5714
5008.5 42.4286
5009.5 33.2857
5010.5 30.8571
5011.5 43.7143
5012.5 48.8571
5013.5 33.2857
5014.5 28.7143
5015.5 31.5714
5016.5 49.5714
5017.5 39.1429
5018.5 34.7143
5019.5 26.4286
5020.5 38.7143
5021.5 39.7143
5022.5 42.1429
5023.5 35.4286
5024.5 40
5025.5 28.1429
5026.5 49.8571
5027.5 46.1429
5028.5 51.2857
5029.5 49.5714
5030.5 41.1429
5031.5 25.7143
5032.5 55.1429
5033.5 32.8571
5034.5 50.4286
5035.5 46.7143
5036.5 36.2857
5037.5 43.8571
5038.5 50.5714
5039.5 35.1429
5040.5 31.8571
5041.5 40.2857
5042.5 30.4286
5043.5 44.1429
5044.5 47.8571
5045.5 35.4286
5046.5 46
5047.5 40.2857
5048.5 55.8571
5049.5 40.7143
5050.5 44.2857
5051.5 36.8571
5052.5 35.8571
5053.5 41.2857
5054.5 37.8571
5055.5 51.2857
5056.5 49.2857
5057.5 39.1429
5058.5 49
5059.5 43.5714
5060.5 36.1429
5061.5 50.7143
5062.5 45.8571
5063.5 41.8571
5064.5 38.8571
5065.5 42.7143
5066.5 39
5067.5 50.5714
5068.5 34.5714
5069.5 38
5070.5 54.8571
5071.5 54
5072.5 39.8571
5073.5 52.2857
5074.5 65.5714
5075.5 52.1429
5076.5 35.1429
5077.5 47.5714
5078.5 55.2857
5079.5 52.5714
5080.5 42.1429
5081.5 40.4286
5082.5 44
5083.5 42.4286
5084.5 45.1429
5085.5 51.2857
5086.5 29.2857
5087.5 47.7143
5088.5 54.7143
5089.5 41.7143
5090.5 31.7143
5091.5 35.5714
5092.5 50.2857
5093.5 27
5094.5 49.4286
5095.5 51.8571
5096.5 41.7143
5097.5 61.2857
5098.5 36
5099.5 58.5714
5100.5 45
5101.5 35.5714
5102.5 38.5714
5103.5 30.8571
5104.5 38.5714
5105.5 63.7143
5106.5 36.7143
5107.5 57.4286
5108.5 33.4286
5109.5 49.4286
5110.5 51.2857
5111.5 49.4286
5112.5 46
5113.5 40.7143
5114.5 48.4286
5115.5 38
5116.5 30.1429
5117.5 31.2857
5118.5 52.5714
5119.5 68.8571
5120.5 52
5121.5 41.5714
5122.5 45.8571
5123.5 51.4286
5124.5 46.8571
5125.5 38.7143
5126.5 70.5714
5127.5 37.5714
5128.5 47.2857
5129.5 55
5130.5 60
5131.5 51.5714
5132.5 54.8571
5133.5 65
5134.5 60.8571
5135.5 52.5714
5136.5 56.5714
5137.5 40.7143
5138.5 56.8571
5139.5 55
5140.5 74
5141.5 49.4286
5142.5 74.8571
5143.5 59.4286
5144.5 51.7143
5145.5 64.2857
5146.5 63.5714
5147.5 56.2857
5148.5 51
5149.5 45.5714
5150.5 46.4286
5151.5 49.5714
5152.5 53.4286
5153.5 40.2857
5154.5 43.7143
5155.5 42.7143
5156.5 48.4286
5157.5 38.1429
5158.5 47.7143
5159.5 37.7143
5160.5 33.8571
5161.5 31.7143
5162.5 40.8571
5163.5 28.5714
5164.5 24.8571
5165.5 47.8571
5166.5 40.7143
5167.5 41.7143
5168.5 45.2857
5169.5 45.7143
5170.5 48.2857
5171.5 57.7143
5172.5 51.2857
5173.5 35.1429
5174.5 38.8571
5175.5 46.1429
5176.5 50.4286
5177.5 40.2857
5178.5 54
5179.5 40.2857
5180.5 39.4286
5181.5 29.1429
5182.5 24
5183.5 33.2857
5184.5 35.1429
5185.5 41
5186.5 44.2857
5187.5 48.8571
5188.5 41.2857
5189.5 55.2857
5190.5 43.4286
5191.5 51.1429
5192.5 40.5714
5193.5 43.7143
5194.5 35.2857
5195.5 53.4286
5196.5 39.1429
5197.5 43.8571
5198.5 46
5199.5 13.4286
5200.5 16.5714
5201.5 53
5202.5 46.1429
5203.5 30.4286
5204.5 39.8571
5205.5 43.8571
5206.5 43.5714
5207.5 42.2857
5208.5 45.4286
5209.5 41.7143
5210.5 34.7143
5211.5 39.2857
5212.5 42.4286
5213.5 31.7143
5214.5 43
5215.5 45.7143
5216.5 45.4286
5217.5 23
5218.5 31.4286
5219.5 42.1429
5220.5 41.8571
5221.5 40
5222.5 55
5223.5 40
5224.5 50.4286
5225.5 37.8571
5226.5 29.7143
5227.5 41.4286
5228.5 38
5229.5 26
5230.5 41.5714
5231.5 28.5714
5232.5 37.7143
5233.5 43.1429
5234.5 34.4286
5235.5 23.2857
5236.5 14.2857
5237.5 35.7143
5238.5 23.2857
5239.5 24.1429
5240.5 39.1429
5241.5 31.4286
5242.5 36.2857
5243.5 18.8571
5244.5 22
5245.5 43.7143
5246.5 35.4286
5247.5 25.5714
5248.5 34
5249.5 32.8571
5250.5 37.5714
5251.5 40.5714
5252.5 39.4286
5253.5 26
5254.5 41.4286
5255.5 34.7143
5256.5 32.8571
5257.5 48.2857
5258.5 42.4286
5259.5 27.8571
5260.5 55.8571
5261.5 24.7143
5262.5 31.5714
5263.5 27.8571
5264.5 25.1429
5265.5 44.4286
5266.5 42.5714
5267.5 33.2857
5268.5 25.7143
5269.5 22.1429
5270.5 18
5271.5 29.2857
5272.5 23.8571
5273.5 37.7143
5274.5 19.8571
5275.5 22.7143
5276.5 27.5714
5277.5 18.4286
5278.5 27.1429
5279.5 27.5714
5280.5 32.5714
5281.5 23.5714
5282.5 26
5283.5 22.7143
5284.5 19.4286
5285.5 26.5714
5286.5 13.1429
5287.5 25.4286
5288.5 14.7143
5289.5 31.2857
5290.5 24.8571
5291.5 28.8571
5292.5 29
5293.5 12.2857
5294.5 25.5714
5295.5 27.1429
5296.5 15.2857
5297.5 17
5298.5 3.71429
5299.5 14.1429
5300.5 19.1429
5301.5 26.7143
5302.5 20.2857
5303.5 11
5304.5 16
5305.5 22.4286
5306.5 17.4286
5307.5 27
5308.5 7.71429
5309.5 20.8571
5310.5 17.5714
5311.5 9.71429
5312.5 9.85714
5313.5 22.1429
5314.5 8
5315.5 23.8571
5316.5 8
5317.5 13
5318.5 31.1429
5319.5 19.2857
5320.5 18.4286
5321.5 18
5322.5 17.7143
5323.5 16.1429
5324.5 23.4286
5325.5 9.57143
5326.5 10
5327.5 24.1429
5328.5 10.4286
5329.5 18.1429
5330.5 11.2857
5331.5 19.4286
5332.5 8.85714
5333.5 14.4286
5334.5 12.4286
5335.5 5
5336.5 6.85714
5337.5 10.4286
5338.5 2.28571
5339.5 14.1429
5340.5 20.5714
5341.5 13
5342.5 17.8571
5343.5 19.4286
5344.5 9
5345.5 7.28571
5346.5 12.7143
5347.5 15.4286
5348.5 9.85714
5349.5 19.2857
5350.5 13.2857
5351.5 12.4286
5352.5 6.42857
5353.5 5.28571
5354.5 -0.428572
5355.5 2.85714
5356.5 -3.57143
5357.5 10.7143
5358.5 15.5714
5359.5 15.8571
5360.5 10
5361.5 17
5362.5 14.4286
5363.5 8.42857
5364.5 11.8571
5365.5 13.7143
5366.5 15.5714
5367.5 9.42857
5368.5 -2.28571
5369.5 10.1429
5370.5 16
5371.5 5.42857
5372.5 8.57143
5373.5 2.14286
5374.5 10.4286
5375.5 16.2857
5376.5 18
5377.5 11.1429
5378.5 8.85714
5379.5 13.4286
5380.5 15.2857
5381.5 14.7143
5382.5 10.7143
5383.5 20.7143
5384.5 20.1429
5385.5 19.4286
5386.5 29.4286
5387.5 35.8571
5388.5 41.4286
5389.5 100.571
5390.5 175
5391.5 284.857
5392.5 539.714
5393.5 857.714
5394.5 1303.71
5395.5 1772.29
5396.5 2255
5397.5 2477.57
5398.5 2089
5399.5 1233.29
5400.5 632.143
5401.5 279.857
5402.5 104.857
5403.5 55.4286
5404.5 34.1429
5405.5 15.7143
5406.5 6.42857
5407.5 16.2857
5408.5 19.2857
5409.5 7.85714
5410.5 2.57143
5411.5 16.5714
5412.5 4.28571
5413.5 -2.14286
5414.5 3.85714
5415.5 9.42857
5416.5 -2.71429
5417.5 3.57143
5418.5 -6.28571
5419.5 -7
5420.5 -2.14286
5421.5 -7.42857
5422.5 -1.57143
5423.5 8.71429
5424.5 2.28571
5425.5 -5.96046e-08
5426.5 0.285714
5427.5 3
5428.5 -4.14286
5429.5 -4.57143
5430.5 1.14286
5431.5 3.71429
5432.5 5.85714
5433.5 -3
5434.5 2.71429
5435.5 -4.28571
5436.5 -6.28571
5437.5 -8.14286
5438.5 -3.85714
5439.5 1.57143
5440.5 -7
5441.5 -3
5442.5 -3.28571
5443.5 0.285714
5444.5 -2.28571
5445.5 2.28571
5446.5 1.14286
5447.5 2.42857
5448.5 -4.57143
5449.5 -1.71429
5450.5 -0.142857
5451.5 1.71429
5452.5 -1.57143
5453.5 2.14286
5454.5 -5.96046e-08
5455.5 -3
5456.5 -0.142857
5457.5 1
5458.5 -4.28571
5459.5 3.71429
5460.5 -6.14286
5461.5 -3.42857
5462.5 2.28571
5463.5 -1.28571
5464.5 5.71429
5465.5 -1.71429
5466.5 -6
5467.5 -4.42857
5468.5 -3.57143
5469.5 -1.57143
5470.5 -6.28571
5471.5 -4
5472.5 -2.14286
5473.5 -0.285714
5474.5 -4.57143
5475.5 -1.42857
5476.5 -6
5477.5 -1.71429
5478.5 -16.2857
5479.5 9.14286
5480.5 -11.2857
5481.5 -3.28571
5482.5 1.14286
5483.5 -0.571429
5484.5 0.428571
5485.5 2.14286
5486.5 -15.2857
5487.5 -2.57143
5488.5 -6.28571
5489.5 -13.7143
5490.5 3.57143
5491.5 -6.14286
5492.5 -4.85714
5493.5 1.85714
5494.5 -1.19209e-07
5495.5 -7.71429
5496.5 1.28571
5497.5 -1.42857
5498.5 1.42857
5499.5 1.14286
5500.5 -1
5501.5 -0.142857
5502.5 3.85714
5503.5 4.57143
5504.5 -3.28571
5505.5 0.571428
5506.5 6.85714
5507.5 -1.85714
5508.5 -0.571429
5509.5 -2.85714
5510.5 9.14286
5511.5 8.57143
5512.5 2.28571
5513.5 -6
5514.5 -0.714286
5515.5 -1.42857
5516.5 -6.14286
5517.5 1.71429
5518.5 4.85714
5519.5 5.28571
5520.5 -2.28571
5521.5 6
5522.5 -2.28571
5523.5 -3
5524.5 -4.57143
5525.5 -15
5526.5 -13.2857
5527.5 -14.1429
5528.5 -7.71429
5529.5 -1.42857
5530.5 0.285714
5531.5 -1.57143
5532.5 -1.19209e-07
5533.5 5.28571
5534.5 11.8571
5535.5 -3.85714
5536.5 -7.57143
5537.5 -0.714286
5538.5 -9.85714
5539.5 -12.4286
5540.5 -5.57143
5541.5 9.42857
5542.5 1.71429
5543.5 3.28571
5544.5 3
5545.5 -6
5546.5 5.28571
5547.5 6
5548.5 -3.42857
5549.5 0.142857
5550.5 -0.142857
5551.5 1.28571
5552.5 3.28571
5553.5 4.14286
5554.5 2.28571
5555.5 -3.14286
5556.5 2.28571
5557.5 -1.85714
5558.5 2.57143
5559.5 -5.28571
5560.5 -3.85714
5561.5 8
5562.5 1.28571
5563.5 4
5564.5 -4.28571
5565.5 -6.14286
5566.5 2.14286
5567.5 -0.428572
5568.5 0.142857
5569.5 -0.285714
5570.5 -2.42857
5571.5 -2.42857
5572.5 -7.28571
5573.5 -1
5574.5 1.85714
5575.5 1.42857
5576.5 2.57143
5577.5 2.28571
5578.5 -1.71429
5579.5 7.14286
5580.5 -6.71429
5581.5 3
5582.5 0.142857
5583.5 1.85714
5584.5 -5
5585.5 -4.71429
5586.5 -0.714286
5587.5 -4.57143
5588.5 6.57143
5589.5 2.42857
5590.5 -3.14286
5591.5 14
5592.5 -3
5593.5 -0.714286
5594.5 1.42857
5595.5 1.57143
5596.5 -2.28571
5597.5 4.57143
5598.5 2.85714
5599.5 -2
5600.5 -1.19209e-07
5601.5 -13.2857
5602.5 6.14286
5603.5 1.14286
5604.5 -0.142857
5605.5 -2.14286
5606.5 5.14286
5607.5 2.57143
5608.5 1.57143
5609.5 -0.571429
5610.5 0.285714
5611.5 -10.1429
5612.5 -6.14286
5613.5 2.85714
5614.5 -9
5615.5 3.85714
5616.5 -0.428572
5617.5 1.14286
5618.5 -2.71429
5619.5 5.28571
5620.5 6
5621.5 -3.42857
5622.5 1.14286
5623.5 2.57143
5624.5 -0.285714
5625.5 -2.71429
5626.5 -3.71429
5627.5 -0.428572
5628.5 2.57143
5629.5 -3.57143
5630.5 -9.57143
5631.5 -3.42857
5632.5 -9.28571
5633.5 -9.42857
5634.5 -1.42857
5635.5 -2.57143
5636.5 3.57143
5637.5 -1.71429
5638.5 -5.42857
5639.5 3
5640.5 -3.85714
5641.5 -2.28571
5642.5 2.85714
5643.5 -7
5644.5 -4
5645.5 3.85714
5646.5 5.42857
5647.5 3.85714
5648.5 3.57143
5649.5 2.42857
5650.5 6.85714
5651.5 -2.71429
5652.5 -12.2857
5653.5 0.142857
5654.5 2.14286
5655.5 -7.14286
5656.5 5.28571
5657.5 7.28571
5658.5 5.57143
5659.5 2.14286
5660.5 6
5661.5 5
5662.5 7.71429
5663.5 -0.428572
5664.5 2.42857
5665.5 -1.57143
5666.5 7.28571
5667.5 -6.14286
5668.5 0.857143
5669.5 -12.7143
5670.5 -4.85714
5671.5 0.714286
5672.5 5
5673.5 0.857143
5674.5 6.71429
5675.5 1.42857
5676.5 -3.71429
5677.5 -6.14286
5678.5 3
5679.5 5.14286
5680.5 3.28571
5681.5 2.42857
5682.5 6.85714
5683.5 0.428571
5684.5 0.285714
5685.5 -3.42857
5686.5 -1
5687.5 -8.28571
5688.5 -1.28571
5689.5 0.428571
5690.5 -3.14286
5691.5 8.42857
5692.5 2.57143
5693.5 -0.571429
5694.5 4.71429
5695.5 -0.714286
5696.5 4
5697.5 3
5698.5 -1.57143
5699.5 -1.85714
5700.5 -5
5701.5 1.42857
5702.5 0.714286
5703.5 -0.571429
5704.5 3.28571
5705.5 -9.28571
5706.5 6
5707.5 -6
5708.5 -3
5709.5 -6.42857
5710.5 6.85714
5711.5 -7.14286
5712.5 5.71429
5713.5 -13
5714.5 -8.85714
5715.5 -1.28571
5716.5 -0.714286
5717.5 0.714286
5718.5 2.57143
5719.5 3.42857
5720.5 6.42857
5721.5 8
5722.5 3.28571
5723.5 -7
5724.5 -1.28571
5725.5 1.71429
5726.5 2.28571
5727.5 -2.42857
5728.5 0.285714
5729.5 -0.857143
5730.5 -3.71429
5731.5 -8.42857
5732.5 -6.28571
5733.5 -2.57143
5734.5 -8.71429
5735.5 6
5736.5 -2.28571
5737.5 2
5738.5 7.14286
5739.5 2
5740.5 -1
5741.5 -1.28571
5742.5 -1.71429
5743.5 -0.142857
5744.5 0.571428
5745.5 -0.428572
5746.5 -0.857143
5747.5 -0.571429
5748.5 -4.85714
5749.5 1.28571
5750.5 -0.428572
5751.5 -4.42857
5752.5 6.85714
5753.5 -2
5754.5 -3.28571
5755.5 -9.14286
5756.5 -7.57143
5757.5 5.14286
5758.5 3.42857
5759.5 0.714286
5760.5 -9.42857
5761.5 4.14286
5762.5 3
5763.5 -1.42857
5764.5 2
5765.5 0.428571
5766.5 -3
5767.5 6
5768.5 3
5769.5 -5.42857
5770.5 -3.71429
5771.5 3.28571
5772.5 -1
5773.5 -0.285714
5774.5 -2.14286
5775.5 -3.42857
5776.5 -0.857143
5777.5 0.857143
5778.5 -0.142857
5779.5 -3.57143
5780.5 -3.57143
5781.5 -1.42857
5782.5 -2.14286
5783.5 9.28571
5784.5 4.57143
5785.5 -6
5786.5 3.71429
5787.5 9.14286
5788.5 2.71429
5789.5 -1.19209e-07
5790.5 -10.5714
5791.5 2.14286
5792.5 -5.28571
5793.5 -1
5794.5 0.857143
5795.5 -3.85714
5796.5 -0.857143
5797.5 1.71429
5798.5 -3.71429
5799.5 7.14286
5800.5 -4.85714
5801.5 6
5802.5 -0.285714
5803.5 -3.14286
5804.5 7.42857
5805.5 -4.57143
5806.5 1.57143
5807.5 -0.428572
5808.5 1.57143
5809.5 1
5810.5 0.857143
5811.5 -8.28571
5812.5 -0.428572
5813.5 -1.71429
5814.5 -1.19209e-07
5815.5 4
5816.5 -3.85714
5817.5 -6.85714
5818.5 -12
5819.5 3.57143
5820.5 2.85714
5821.5 0.285714
5822.5 -2.28571
5823.5 2.14286
5824.5 1.57143
5825.5 1.42857
5826.5 -3.14286
5827.5 6
5828.5 0.142857
5829.5 -5.42857
5830.5 -4.71429
5831.5 1.57143
5832.5 -0.142857
5833.5 2.57143
5834.5 -7.85714
5835.5 0.714286
5836.5 9
5837.5 -2.71429
5838.5 -4.28571
5839.5 3.42857
5840.5 2.71429
5841.5 0.571428
5842.5 -6
5843.5 -0.714286
5844.5 3.57143
5845.5 5
5846.5 5.28571
5847.5 2.42857
5848.5 -2.42857
5849.5 8.71429
5850.5 -4.42857
5851.5 -3.28571
5852.5 1.85714
5853.5 1.14286
5854.5 2.57143
5855.5 3.71429
5856.5 -5.14286
5857.5 -1.71429
5858.5 1.14286
5859.5 2.85714
5860.5 -3.71429
5861.5 -3
5862.5 -2.57143
5863.5 3.28571
5864.5 -2
5865.5 6.85714
5866.5 5.57143
5867.5 2.14286
5868.5 2.85714
5869.5 -3
5870.5 -3.85714
5871.5 -1.57143
5872.5 -3.42857
5873.5 1.57143
5874.5 2.42857
5875.5 7.85714
5876.5 -4.57143
5877.5 1.85714
5878.5 -4.14286
5879.5 2.14286
5880.5 -6.42857
5881.5 0.285714
5882.5 -4.57143
5883.5 -0.285714
5884.5 1.85714
5885.5 1.42857
5886.5 -4.85714
5887.5 1.14286
5888.5 4.28571
5889.5 1.28571
5890.5 1.42857
5891.5 0.142857
5892.5 -1
5893.5 -3.57143
5894.5 -4.28571
5895.5 -5.57143
5896.5 4.57143
5897.5 0.571428
5898.5 0.142857
5899.5 2.85714
5900.5 -1.28571
5901.5 -1.85714
5902.5 2
5903.5 3.57143
5904.5 -5.96046e-08
5905.5 -2
5906.5 2.85714
5907.5 -3.14286
5908.5 -7.28571
5909.5 -2.57143
5910.5 8.71429
5911.5 -0.571429
5912.5 1.14286
5913.5 -0.714286
5914.5 2.57143
5915.5 1.85714
5916.5 2.14286
5917.5 -2
5918.5 4.85714
5919.5 0.857143
5920.5 5.71429
5921.5 1.28571
5922.5 3.28571
5923.5 -1.42857
5924.5 -5
5925.5 -1.14286
5926.5 3.28571
5927.5 6.42857
5928.5 -3.71429
5929.5 -3.85714
5930.5 -2.57143
5931.5 1.85714
5932.5 -0.714286
5933.5 1.14286
5934.5 1.28571
5935.5 -1.28571
5936.5 -5.71429
5937.5 -5.96046e-08
5938.5 -5.96046e-08
5939.5 2.14286
5940.5 3.57143
5941.5 8.57143
5942.5 -2.42857
5943.5 3.57143
5944.5 1.71429
5945.5 -4.85714
5946.5 -6.28571
5947.5 -1.71429
5948.5 -3
5949.5 -5.96046e-08
5950.5 3.14286
5951.5 -1
5952.5 -6.71429
5953.5 2.71429
5954.5 -7.28571
5955.5 2.28571
5956.5 -4
5957.5 1.14286
5958.5 -5.14286
5959.5 1.71429
5960.5 -2
5961.5 -3.71429
5962.5 0.142857
5963.5 5.71429
5964.5 2
5965.5 -0.285714
5966.5 -1.42857
5967.5 -7.85714
5968.5 3
5969.5 5.14286
5970.5 6.42857
5971.5 11.4286
5972.5 -4.42857
5973.5 1.42857
5974.5 -0.285714
5975.5 -5.96046e-08
5976.5 -0.142857
5977.5 3
5978.5 6.42857
5979.5 -1.14286
5980.5 3.28571
5981.5 2.14286
5982.5 -0.142857
5983.5 -7.42857
5984.5 -3.71429
5985.5 -1.85714
5986.5 -1
5987.5 -3.57143
5988.5 -0.285714
5989.5 0.571429
5990.5 0.428571
5991.5 0.857143
5992.5 -4
5993.5 -6.71429
5994.5 -4.71429
5995.5 -0.285714
5996.5 1.42857
5997.5 8.28571
5998.5 -7.71429
5999.5 10.7143
6000.5 7.85714
6001.5 -8.14286
6002.5 -3.57143
6003.5 -4.14286
6004.5 1.14286
6005.5 -2.57143
6006.5 -3.14286
6007.5 5.57143
6008.5 -2
6009.5 -1.14286
6010.5 1.28571
6011.5 1.57143
6012.5 0.428571
6013.5 4.85714
6014.5 4.14286
6015.5 7.57143
6016.5 12.4286
6017.5 2
6018.5 -0.428571
6019.5 -0.714286
6020.5 -1.71429
6021.5 -3.85714
6022.5 -5.57143
6023.5 -5.96046e-08
6024.5 3.57143
6025.5 4.28571
6026.5 0.857143
6027.5 -4
6028.5 -6.14286
6029.5 -0.285714
6030.5 -7.85714
6031.5 -11.2857
6032.5 -22.5714
6033.5 -15.1429
6034.5 -19.2857
6035.5 -26.1429
6036.5 -18.7143
6037.5 -22
6038.5 -15.7143
6039.5 -4.28571
6040.5 -10.2857
6041.5 -2.85714
6042.5 -5.85714
6043.5 3.71429
6044.5 -1.14286
6045.5 -2
6046.5 -4.57143
6047.5 -0.857143
6048.5 -0.571429
6049.5 1.71429
6050.5 -5.14286
6051.5 -3.57143
6052.5 -1.42857
6053.5 -0.285714
6054.5 -0.142857
6055.5 -3.42857
6056.5 -1.57143
6057.5 4.28571
6058.5 -1.42857
6059.5 1.85714
6060.5 -3
6061.5 -1.14286
6062.5 0.714286
6063.5 3.42857
6064.5 3.57143
6065.5 -1.14286
6066.5 -5.96046e-08
6067.5 6.57143
6068.5 -7
6069.5 2.71429
6070.5 -4
6071.5 1
6072.5 0.714286
6073.5 2.57143
6074.5 1.42857
6075.5 0.857143
6076.5 0.857143
6077.5 -1.28571
6078.5 -2
6079.5 5.28571
6080.5 2.42857
6081.5 -2.71429
6082.5 -0.428571
6083.5 5.42857
6084.5 -4
6085.5 -3.71429
6086.5 4.28571
6087.5 1.28571
6088.5 -0.285714
6089.5 -0.714286
6090.5 -2
6091.5 1.57143
6092.5 2.85714
6093.5 -1.42857
6094.5 -1.14286
6095.5 -3.14286
6096.5 -1.57143
6097.5 -5.28571
6098.5 2.71429
6099.5 0.428571
6100.5 -4
6101.5 -4.28571
6102.5 -6.42857
6103.5 -5.14286
6104.5 -3.85714
6105.5 12.8571
6106.5 3.57143
6107.5 -0.142857
6108.5 -2.57143
6109.5 8.85714
6110.5 -2.28571
6111.5 1.57143
6112.5 -1.57143
6113.5 2.85714
6114.5 -7.71429
6115.5 -9.57143
6116.5 -8
6117.5 2
6118.5 -0.714286
6119.5 4.57143
6120.5 -0.714286
6121.5 5.57143
6122.5 -0.571429
6123.5 5.71429
6124.5 -2.85714
6125.5 1.57143
6126.5 -3.14286
6127.5 1.14286
6128.5 4.71429
6129.5 -4.42857
6130.5 -6.28571
6131.5 1.57143
6132.5 -0.428571
6133.5 1.85714
6134.5 2.14286
6135.5 0.571429
6136.5 -0.285714
6137.5 1.42857
6138.5 3.71429
6139.5 3.28571
6140.5 -3
6141.5 0.142857
6142.5 -2.71429
6143.5 -0.428572
6144.5 8.71429
6145.5 3.71429
6146.5 -1.57143
6147.5 -3.42857
6148.5 -1.28571
6149.5 1.14286
6150.5 2.14286
6151.5 1.85714
6152.5 -4.42857
6153.5 1.28571
6154.5 2.28571
6155.5 4.71429
6156.5 -4
6157.5 -2.85714
6158.5 -3.42857
6159.5 1.42857
6160.5 4.14286
6161.5 -1.28571
6162.5 -2.71429
6163.5 -0.428571
6164.5 -0.142857
6165.5 0.285714
6166.5 1.71429
6167.5 -7.57143
6168.5 3.71429
6169.5 -0.428571
6170.5 0.714286
6171.5 1.28571
6172.5 0.857143
6173.5 -6
6174.5 3.57143
6175.5 2.42857
6176.5 -2.85714
6177.5 -2.42857
6178.5 -2
6179.5 -0.428571
6180.5 -6.57143
6181.5 0.571429
6182.5 -3.14286
6183.5 -2.14286
6184.5 2.14286
6185.5 -0.285714
6186.5 5.28571
6187.5 0.857143
6188.5 3.42857
6189.5 -3
6190.5 0.571429
6191.5 0.571429
6192.5 0.571429
6193.5 1.42857
6194.5 4.14286
6195.5 0.428571
6196.5 -1.42857
6197.5 5.42857
6198.5 -3.71429
6199.5 -0.142857
6200.5 -0.142857
6201.5 -2.14286
6202.5 0.571429
6203.5 0.285714
6204.5 1.28571
6205.5 -0.428571
6206.5 0.285714
6207.5 1.28571
6208.5 -1.42857
6209.5 -4.14286
6210.5 3.28571
6211.5 -2.57143
6212.5 -0.571429
6213.5 -0.142857
6214.5 -0.428571
6215.5 0.142857
6216.5 -1.28571
6217.5 -4.71429
6218.5 0.714286
6219.5 -0.857143
6220.5 -7.28571
6221.5 -4.14286
6222.5 1.42857
6223.5 -3.28571
6224.5 11
6225.5 -13.4286
6226.5 -4.85714
6227.5 -5.28571
6228.5 -0.714286
6229.5 -5.42857
6230.5 -1
6231.5 -0.428572
6232.5 -0.285714
6233.5 -2.42857
6234.5 -2.57143
6235.5 1.42857
6236.5 -0.714286
6237.5 -0.714286
6238.5 3.14286
6239.5 0.571429
6240.5 1.28571
6241.5 4
6242.5 3.14286
6243.5 -2.57143
6244.5 -2.71429
6245.5 1.57143
6246.5 -4.57143
6247.5 2.14286
6248.5 -0.428571
6249.5 -1
6250.5 -3.28571
6251.5 -2
6252.5 -2.14286
6253.5 3.71429
6254.5 -3.28571
6255.5 -2.28571
6256.5 -0.571429
6257.5 0.428571
6258.5 2.42857
6259.5 -6.85714
6260.5 -1.28571
6261.5 2.57143
6262.5 -7.71429
6263.5 -2.14286
6264.5 -0.571429
6265.5 -0.571429
6266.5 0.285714
6267.5 -0.571429
6268.5 0.285714
6269.5 1.42857
6270.5 -2.28571
6271.5 -1.14286
6272.5 -2
6273.5 1.28571
6274.5 -2.28571
6275.5 -0.571429
6276.5 -0.571429
6277.5 -2.28571
6278.5 1.14286
6279.5 -2.42857
6280.5 -1.57143
6281.5 1.28571
6282.5 -2.28571
6283.5 -2.42857
6284.5 0.285714
6285.5 -2.42857
6286.5 -3.14286
6287.5 0.714286
6288.5 -0.285714
6289.5 2.28571
6290.5 -2.28571
6291.5 -1.57143
6292.5 -0.285714
6293.5 0.285714
6294.5 -1
6295.5 1.42857
6296.5 -1.57143
6297.5 4.28571
6298.5 -4
6299.5 -3.14286
6300.5 -1.42857
6301.5 0.571429
6302.5 -1.28571
6303.5 -2
6304.5 -0.571429
6305.5 -2.28571
6306.5 -1.57143
6307.5 -0.428571
6308.5 -0.714286
6309.5 -0.571429
6310.5 -1.42857
6311.5 0.571429
6312.5 2.14286
6313.5 1.14286
6314.5 -0.714286
6315.5 -0.571429
6316.5 -0.571429
6317.5 -1.14286
6318.5 0.571429
6319.5 -0.142857
6320.5 -1
6321.5 1.57143
6322.5 5.28571
6323.5 9.57143
6324.5 1.71429
6325.5 15
6326.5 -6.14286
6327.5 9.85714
6328.5 -7.57143
6329.5 6.57143
6330.5 -6.71429
6331.5 -0.428572
6332.5 2.71429
6333.5 0.714286
6334.5 -3
6335.5 0.571429
6336.5 3.28571
6337.5 -1.71429
6338.5 -2.42857
6339.5 -0.428571
6340.5 -0.142857
6341.5 -3.28571
6342.5 1.28571
6343.5 -0.428571
6344.5 1.28571
6345.5 0.571429
6346.5 -1.14286
6347.5 1.71429
6348.5 -6.57143
6349.5 1
6350.5 2
6351.5 3.57143
6352.5 2.14286
6353.5 -0.142857
6354.5 -7.42857
6355.5 1.28571
6356.5 4.42857
6357.5 3.42857
6358.5 0.428571
6359.5 1.28571
6360.5 4.14286
6361.5 -3.14286
6362.5 0.285714
6363.5 -2.57143
6364.5 -3.28571
6365.5 -4.28571
6366.5 1
6367.5 0.285714
6368.5 1
6369.5 4.28571
6370.5 -5.14286
6371.5 0.142857
6372.5 -4.28571
6373.5 -0.571429
6374.5 -0.428571
6375.5 3.14286
6376.5 -1.71429
6377.5 -2.57143
6378.5 -4.14286
6379.5 4.28571
6380.5 0.285714
6381.5 0.285714
6382.5 -1.42857
6383.5 -1.57143
6384.5 -2.42857
6385.5 -1.57143
6386.5 -1.42857
6387.5 -0.714286
6388.5 -4.28571
6389.5 -3.14286
6390.5 -3.85714
6391.5 2.14286
6392.5 0.571429
6393.5 -0.428571
6394.5 -0.571429
6395.5 -3.42857
6396.5 -3.42857
6397.5 1.14286
6398.5 -0.714286
6399.5 -5.14286
6400.5 2
6401.5 -1.71429
6402.5 -0.714286
6403.5 -0.714286
6404.5 1
6405.5 -1.57143
6406.5 -1.28571
6407.5 1.42857
6408.5 0.142857
6409.5 1.42857
6410.5 -1.71429
6411.5 2.14286
6412.5 0.142857
6413.5 -0.857143
6414.5 -0.857143
6415.5 -1.57143
6416.5 0.142857
6417.5 -5.85714
6418.5 0.285714
6419.5 0.428571
6420.5 -1.85714
6421.5 0.714286
6422.5 -1.42857
6423.5 -1.42857
6424.5 -3.42857
6425.5 -1.71429
6426.5 0.428571
6427.5 0.285714
6428.5 1.28571
6429.5 0.142857
6430.5 -2.57143
6431.5 -2.42857
6432.5 0.142857
6433.5 -0.571429
6434.5 0.285714
6435.5 -0.428571
6436.5 -5
6437.5 8.14286
6438.5 0.428571
6439.5 -1.71429
6440.5 0.857143
6441.5 3.28571
6442.5 5
6443.5 -1.14286
6444.5 -2.14286
6445.5 -1.57143
6446.5 -2.57143
6447.5 -0.857143
6448.5 0.285714
6449.5 3.28571
6450.5 4.14286
6451.5 1.14286
6452.5 0.142857
6453.5 -0.857143
6454.5 2
6455.5 -1.71429
6456.5 3
6457.5 -0.857143
6458.5 2.14286
6459.5 0.285714
6460.5 -2.42857
6461.5 2.14286
6462.5 0.285714
6463.5 -2.42857
6464.5 0
6465.5 1.14286
6466.5 0.142857
6467.5 1.14286
6468.5 -1.71429
6469.5 1.14286
6470.5 2.14286
6471.5 -3.14286
6472.5 2.14286
6473.5 -0.285714
6474.5 -1
6475.5 -2.42857
6476.5 -6.85714
6477.5 -0.714286
6478.5 -5.42857
6479.5 -1.28571
6480.5 5.28571
6481.5 -1.14286
6482.5 4
6483.5 -2.85714
6484.5 -1.42857
6485.5 -0.571429
6486.5 -1.57143
6487.5 0.285714
6488.5 -0.428571
6489.5 0.142857
6490.5 0.285714
6491.5 -1.57143
6492.5 -5.14286
6493.5 -0.571429
6494.5 0.285714
6495.5 -4.28571
6496.5 -1.71429
6497.5 -0.714286
6498.5 -3.42857
6499.5 0.285714
6500.5 -0.857143
6501.5 0.142857
6502.5 -0.857143
6503.5 -0.857143
6504.5 -0.857143
6505.5 2
6506.5 1.14286
6507.5 -1.57143
6508.5 1.14286
6509.5 -2.57143
6510.5 0
6511.5 -1.71429
6512.5 -0.857143
6513.5 -0.714286
6514.5 -0.857143
6515.5 -0.714286
6516.5 0.142857
6517.5 -1.57143
6518.5 1.14286
6519.5 4.14286
6520.5 3.28571
6521.5 1.28571
6522.5 2.28571
6523.5 4
6524.5 4.42857
6525.5 0.142857
6526.5 1.28571
6527.5 1.14286
6528.5 0.142857
6529.5 0.285714
6530.5 -0.571429
6531.5 0.285714
6532.5 -1.71429
6533.5 -0.714286
6534.5 1.28571
6535.5 2.28571
6536.5 -1.57143
6537.5 -0.714286
6538.5 -7.57143
6539.5 -3.85714
6540.5 -5.71429
6541.5 -11.2857
6542.5 -22
6543.5 -23
6544.5 -41.5714
6545.5 -50.8571
6546.5 -36.1429
6547.5 -33.1429
6548.5 -20.4286
6549.5 -7.14286
6550.5 -5.57143
6551.5 2.57143
6552.5 5.28571
6553.5 1.14286
6554.5 4.14286
6555.5 3.14286
6556.5 1
6557.5 4.14286
6558.5 -1.57143
6559.5 -0.714286
6560.5 1
6561.5 2.14286
6562.5 0.142857
6563.5 -1.57143
6564.5 2
6565.5 0.142857
6566.5 1.14286
6567.5 3.14286
6568.5 1.28571
6569.5 -1.57143
6570.5 -3.42857
6571.5 0.142857
6572.5 1
6573.5 -0.857143
6574.5 0
6575.5 1
6576.5 2
6577.5 -0.857143
6578.5 -1.57143
6579.5 -0.714286
6580.5 -0.857143
6581.5 2.14286
6582.5 0.142857
6583.5 0
6584.5 1.14286
6585.5 0.142857
6586.5 1
6587.5 2
6588.5 -0.857143
6589.5 -1.71429
6590.5 -1.71429
6591.5 0
6592.5 0
6593.5 -0.857143
6594.5 0
6595.5 1
6596.5 0.142857
6597.5 3
6598.5 -2.57143
6599.5 1.14286
6600.5 -2.57143
6601.5 -0.714286
6602.5 -4.28571
6603.5 -0.857143
6604.5 -0.857143
6605.5 -0.857143
6606.5 0.142857
6607.5 0.142857
6608.5 0.142857
6609.5 0.142857
6610.5 -2.42857
6611.5 3
6612.5 -0.857143
6613.5 0
6614.5 -0.714286
6615.5 1
6616.5 1
6617.5 -1.71429
6618.5 0
6619.5 1.14286
6620.5 4
6621.5 -0.857143
6622.5 0.285714
6623.5 -1.71429
6624.5 2
6625.5 0.142857
6626.5 0
6627.5 -0.857143
6628.5 -0.857143
6629.5 0.142857
6630.5 0.285714
6631.5 -1.71429
6632.5 0
6633.5 0.142857
6634.5 0.142857
6635.5 -1.71429
6636.5 -0.857143
6637.5 -0.714286
6638.5 1
6639.5 1
6640.5 2
6641.5 0.142857
6642.5 0
6643.5 -0.857143
6644.5 -0.714286
6645.5 1
6646.5 1
6647.5 1.14286
6648.5 -0.857143
6649.5 -1.71429
6650.5 -1.57143
6651.5 1
6652.5 1
6653.5 -0.714286
6654.5 -5.14286
6655.5 -2.57143
6656.5 -0.714286
6657.5 -1.71429
6658.5 -1.71429
6659.5 -3.42857
6660.5 -2.42857
6661.5 -1.57143
6662.5 -2.57143
6663.5 0
6664.5 -0.714286
6665.5 0
6666.5 0.142857
6667.5 2
6668.5 -0.857143
6669.5 2.14286
6670.5 0
6671.5 0
6672.5 1
6673.5 -0.857143
6674.5 0
6675.5 0
6676.5 0
6677.5 0
6678.5 -1.57143
6679.5 -0.714286
6680.5 -1.71429
6681.5 -2.57143
6682.5 0
6683.5 -0.857143
6684.5 -1.57143
6685.5 -0.857143
6686.5 0
6687.5 2
6688.5 -0.714286
6689.5 2
6690.5 -0.714286
6691.5 -1.71429
6692.5 0.142857
6693.5 1.14286
6694.5 0
6695.5 0.142857
6696.5 2.14286
6697.5 -1.71429
6698.5 0.142857
6699.5 0.142857
6700.5 1.14286
6701.5 1.14286
6702.5 0.142857
6703.5 0.142857
6704.5 1.14286
6705.5 1
6706.5 2
6707.5 0
6708.5 -0.714286
6709.5 -0.714286
6710.5 0.142857
6711.5 -0.857143
6712.5 -1.71429
6713.5 1.14286
6714.5 0
6715.5 0
6716.5 -2.57143
6717.5 0.285714
6718.5 0.142857
6719.5 -0.857143
6720.5 0.142857
6721.5 -2.57143
6722.5 -1.71429
6723.5 1
6724.5 1
6725.5 -1.57143
6726.5 0
6727.5 -1.71429
6728.5 -0.857143
6729.5 1
6730.5 1
6731.5 3.14286
6732.5 0
6733.5 1
6734.5 -0.857143
6735.5 0
6736.5 -0.714286
6737.5 2
6738.5 1
6739.5 -0.857143
6740.5 0
6741.5 0
6742.5 2
6743.5 0.285714
6744.5 0
6745.5 -1.71429
6746.5 1
6747.5 -0.857143
6748.5 2.14286
6749.5 1.14286
6750.5 -0.857143
6751.5 1
6752.5 -0.857143
6753.5 -0.857143
6754.5 1
6755.5 0.142857
6756.5 1.14286
6757.5 -1.71429
6758.5 0.142857
6759.5 2.14286
6760.5 3
6761.5 -0.857143
6762.5 -1.71429
6763.5 -0.857143
6764.5 2
6765.5 0.142857
6766.5 0.142857
6767.5 1.14286
6768.5 1
6769.5 2.14286
6770.5 -3.42857
6771.5 0.142857
6772.5 2
6773.5 -2.28571
6774.5 -0.857143
6775.5 -0.857143
6776.5 -1.71429
6777.5 0
6778.5 -0.857143
6779.5 -1.71429
6780.5 -0.714286
6781.5 0
6782.5 -1.71429
6783.5 0.285714
6784.5 0
6785.5 -1.71429
6786.5 0
6787.5 0.142857
6788.5 0
6789.5 -1.71429
6790.5 2.14286
6791.5 1.14286
6792.5 1.14286
6793.5 1
6794.5 0.142857
6795.5 -0.714286
6796.5 0
6797.5 1.14286
6798.5 0.142857
6799.5 0.142857
6800.5 1.42857
6801.5 0
6802.5 -0.714286
6803.5 1
6804.5 0
6805.5 0.142857
6806.5 1
6807.5 -0.714286
6808.5 0.142857
6809.5 0.142857
6810.5 -1.71429
6811.5 2
6812.5 1
6813.5 0.142857
6814.5 -0.714286
6815.5 1
6816.5 -1.71429
6817.5 1
6818.5 -0.857143
6819.5 0
6820.5 0.142857
6821.5 1.14286
6822.5 1.14286
6823.5 0
6824.5 -0.857143
6825.5 0
6826.5 2
6827.5 2
6828.5 -0.857143
6829.5 3
6830.5 -0.857143
6831.5 0
6832.5 2
6833.5 0
6834.5 0
6835.5 1.14286
6836.5 0
6837.5 -0.857143
6838.5 0
6839.5 0
6840.5 -0.857143
6841.5 -0.857143
6842.5 -1.71429
6843.5 -0.857143
6844.5 0
6845.5 -0.857143
6846.5 -1.71429
6847.5 1
6848.5 -1.71429
6849.5 0
6850.5 -0.857143
6851.5 0
6852.5 0
6853.5 1.14286
6854.5 0
6855.5 1
6856.5 2
6857.5 0
6858.5 -0.857143
6859.5 -0.857143
6860.5 -0.857143
6861.5 -0.857143
6862.5 0
6863.5 -0.857143
6864.5 0
6865.5 1
6866.5 2
6867.5 0
6868.5 0.285714
6869.5 0
6870.5 0.142857
6871.5 -0.857143
6872.5 -0.857143
6873.5 0
6874.5 -0.857143
6875.5 -0.857143
6876.5 0
6877.5 2
6878.5 1
6879.5 -0.714286
6880.5 2
6881.5 -1.71429
6882.5 1
6883.5 1
6884.5 -2.57143
6885.5 0.142857
6886.5 -0.857143
6887.5 0
6888.5 1
6889.5 -0.857143
6890.5 1
6891.5 1
6892.5 1
6893.5 1
6894.5 -0.857143
6895.5 1
6896.5 1
6897.5 0
6898.5 0.142857
6899.5 -0.857143
6900.5 0
6901.5 1
6902.5 2.14286
6903.5 2.14286
6904.5 0.285714
6905.5 2.14286
6906.5 -0.857143
6907.5 1
6908.5 0.142857
6909.5 1
6910.5 2
6911.5 -0.857143
6912.5 -0.857143
6913.5 -0.857143
6914.5 0.142857
6915.5 1
6916.5 1
6917.5 0
6918.5 -0.857143
6919.5 -0.714286
6920.5 0.142857
6921.5 -2.57143
6922.5 -0.857143
6923.5 0
6924.5 1
6925.5 1
6926.5 0
6927.5 -0.857143
6928.5 -0.857143
6929.5 -2.57143
6930.5 0
6931.5 -2.42857
6932.5 -1.71429
6933.5 1
6934.5 1.14286
6935.5 -1.42857
6936.5 0.142857
6937.5 -0.857143
6938.5 1.14286
6939.5 0.142857
6940.5 1.14286
6941.5 0
6942.5 -0.857143
6943.5 -0.857143
6944.5 -0.857143
6945.5 1
6946.5 0.285714
6947.5 -0.857143
6948.5 2
6949.5 1
6950.5 0
6951.5 -0.857143
6952.5 -0.714286
6953.5 0
6954.5 0
6955.5 -1.71429
6956.5 -0.714286
6957.5 -1.71429
6958.5 -1.71429
6959.5 1
6960.5 -1.71429
6961.5 -0.857143
6962.5 0.142857
6963.5 0.142857
6964.5 0
6965.5 2
6966.5 -0.857143
6967.5 0.142857
6968.5 -1.71429
6969.5 -0.857143
6970.5 1
6971.5 1.14286
6972.5 0
6973.5 1.14286
6974.5 -0.857143
6975.5 0
6976.5 0
6977.5 -0.714286
6978.5 0
6979.5 2
6980.5 -0.857143
6981.5 1
6982.5 0
6983.5 1
6984.5 1
6985.5 -1.71429
6986.5 -0.857143
6987.5 0
6988.5 1
6989.5 1
6990.5 0
6991.5 0.142857
6992.5 1
6993.5 -0.857143
6994.5 0.142857
6995.5 1
6996.5 0
6997.5 -0.857143
6998.5 -0.857143
6999.5 1
7000.5 0.142857
7001.5 0
7002.5 0
7003.5 0.142857
7004.5 -0.857143
7005.5 -0.714286
7006.5 -1.71429
7007.5 -0.857143
7008.5 1.14286
7009.5 0
7010.5 -0.857143
7011.5 -2.57143
7012.5 3
7013.5 1
7014.5 1
7015.5 1
7016.5 -1.71429
7017.5 1
7018.5 0
7019.5 -0.857143
7020.5 -2.57143
7021.5 0
7022.5 2
7023.5 1
7024.5 0
7025.5 1.14286
7026.5 1
7027.5 -0.857143
7028.5 -0.857143
7029.5 0
7030.5 0
7031.5 1
7032.5 2
7033.5 0
7034.5 -0.857143
7035.5 1
7036.5 0
7037.5 -0.857143
7038.5 -0.857143
7039.5 -0.857143
7040.5 2
7041.5 1
7042.5 2
7043.5 0
7044.5 0.142857
7045.5 0
7046.5 -1.71429
7047.5 0.142857
7048.5 1
7049.5 0
7050.5 2
7051.5 1
7052.5 2
7053.5 0.142857
7054.5 -0.857143
7055.5 0
7056.5 3
7057.5 0.142857
7058.5 -0.857143
7059.5 1
7060.5 -1.71429
7061.5 -0.857143
7062.5 0
7063.5 -0.857143
7064.5 -0.857143
7065.5 1.14286
7066.5 -0.714286
7067.5 -0.857143
7068.5 -0.857143
7069.5 -0.857143
7070.5 -0.857143
7071.5 -0.857143
7072.5 0
7073.5 0
7074.5 -0.857143
7075.5 0
7076.5 -0.857143
7077.5 0
7078.5 0
7079.5 -0.857143
7080.5 0
7081.5 0.142857
7082.5 0
7083.5 -0.714286
7084.5 -1.71429
7085.5 1
7086.5 1
7087.5 -0.714286
7088.5 0
7089.5 1
7090.5 -0.857143
7091.5 1
7092.5 0
7093.5 0
7094.5 1
7095.5 0
7096.5 0
7097.5 1
7098.5 0
7099.5 0
7100.5 1
7101.5 1
7102.5 0
7103.5 1
7104.5 1
7105.5 1
7106.5 0.142857
7107.5 0
7108.5 0.142857
7109.5 1
7110.5 3
7111.5 1
7112.5 -0.857143
7113.5 0
7114.5 1
7115.5 -0.714286
7116.5 2
7117.5 -0.857143
7118.5 2
7119.5 0
7120.5 1.14286
7121.5 1
7122.5 1
7123.5 0
7124.5 0.142857
7125.5 1
7126.5 1
7127.5 0.142857
7128.5 1
7129.5 -0.857143
7130.5 0
7131.5 1
7132.5 0
7133.5 1
7134.5 0
7135.5 1
7136.5 -0.857143
7137.5 0.142857
7138.5 0.142857
7139.5 0
7140.5 1
7141.5 -0.857143
7142.5 0
7143.5 0
7144.5 0
7145.5 0
7146.5 1
7147.5 0.142857
7148.5 0
7149.5 -1.71429
7150.5 -1.71429
7151.5 1
7152.5 0
7153.5 0
7154.5 0.142857
7155.5 -0.857143
7156.5 1
7157.5 0
7158.5 -0.857143
7159.5 1
7160.5 0
7161.5 -0.857143
7162.5 -2.57143
7163.5 -1.57143
7164.5 -0.714286
7165.5 -2.57143
7166.5 -0.714286
7167.5 -0.714286
7168.5 -5.14286
7169.5 -4.28571
7170.5 -4.28571
7171.5 -1.71429
7172.5 -1.71429
7173.5 0
7174.5 0
7175.5 2
7176.5 0
7177.5 -2.57143
7178.5 0
7179.5 -1.71429
7180.5 -0.857143
7181.5 0
7182.5 -0.857143
7183.5 1
7184.5 -1.71429
7185.5 0
7186.5 0
7187.5 0.142857
7188.5 0
7189.5 0.142857
7190.5 0
7191.5 -0.857143
7192.5 1
7193.5 -0.857143
7194.5 0
7195.5 0
7196.5 -0.714286
7197.5 0
7198.5 0
7199.5 1
7200.5 0
7201.5 0.142857
7202.5 1
7203.5 -1.71429
7204.5 -0.857143
7205.5 2
7206.5 4.14286
7207.5 -1.42857
7208.5 2
7209.5 -1.71429
7210.5 2.28571
7211.5 4
7212.5 -0.857143
7213.5 0
7214.5 -0.857143
7215.5 0
7216.5 0.142857
7217.5 2
7218.5 0.142857
7219.5 0
7220.5 2
7221.5 0
7222.5 -1.71429
7223.5 0
7224.5 0
7225.5 0
7226.5 0
7227.5 0
7228.5 1
7229.5 0.142857
7230.5 1
7231.5 -0.857143
7232.5 2
7233.5 0
7234.5 0
7235.5 0.142857
7236.5 0.142857
7237.5 0
7238.5 1
7239.5 0
7240.5 1
7241.5 0
7242.5 -1.71429
7243.5 0
7244.5 0
7245.5 0.142857
7246.5 0
7247.5 1
7248.5 1
7249.5 0
7250.5 0
7251.5 0
7252.5 -0.714286
7253.5 0
7254.5 -0.857143
7255.5 1
7256.5 1
7257.5 1.28571
7258.5 0
7259.5 3
7260.5 0.142857
7261.5 -3.42857
7262.5 -0.857143
7263.5 1
7264.5 0
7265.5 1.14286
7266.5 2.14286
7267.5 1
7268.5 0
7269.5 -0.857143
7270.5 0
7271.5 0
7272.5 -0.857143
7273.5 0
7274.5 0.142857
7275.5 1
7276.5 1
7277.5 3
7278.5 1
7279.5 1
7280.5 2
7281.5 0
7282.5 0
7283.5 -0.857143
7284.5 -0.857143
7285.5 -1.71429
7286.5 0
7287.5 0
7288.5 0
7289.5 0
7290.5 0
7291.5 -0.857143
7292.5 0.142857
7293.5 -0.857143
7294.5 -1.71429
7295.5 1
7296.5 1
7297.5 1
7298.5 2.14286
7299.5 -0.714286
7300.5 1
7301.5 -0.857143
7302.5 -2.57143
7303.5 -2.57143
7304.5 0
7305.5 1
7306.5 -0.857143
7307.5 0
7308.5 0
7309.5 0.142857
7310.5 -0.857143
7311.5 0.142857
7312.5 1
7313.5 -0.857143
7314.5 1
7315.5 1
7316.5 -0.714286
7317.5 2
7318.5 -1.71429
7319.5 -0.857143
7320.5 1.14286
7321.5 0
7322.5 1
7323.5 0
7324.5 0
7325.5 1
7326.5 -0.857143
7327.5 -0.857143
7328.5 0
7329.5 1
7330.5 0
7331.5 -0.857143
7332.5 1
7333.5 0
7334.5 1
7335.5 0
7336.5 0
7337.5 -0.857143
7338.5 0.142857
7339.5 2
7340.5 1
7341.5 -0.857143
7342.5 -0.857143
7343.5 0
7344.5 -1.71429
7345.5 1
7346.5 -1.71429
7347.5 -0.857143
7348.5 0
7349.5 0
7350.5 0.142857
7351.5 0
7352.5 -0.714286
7353.5 2
7354.5 -0.714286
7355.5 0
7356.5 1
7357.5 0.142857
7358.5 0
7359.5 2
7360.5 0
7361.5 -0.857143
7362.5 0
7363.5 0
7364.5 -0.857143
7365.5 0
7366.5 0.142857
7367.5 0
7368.5 0
7369.5 0.142857
7370.5 0.142857
7371.5 0.142857
7372.5 0
7373.5 0
7374.5 0
7375.5 0
7376.5 0
7377.5 0
7378.5 0
7379.5 0
7380.5 0
7381.5 -0.857143
7382.5 0
7383.5 0
7384.5 0
7385.5 -0.857143
7386.5 0
7387.5 0
7388.5 0
7389.5 0
7390.5 -0.714286
7391.5 -0.857143
7392.5 2
7393.5 -0.857143
7394.5 2
7395.5 -0.857143
7396.5 -0.857143
7397.5 0
7398.5 0
7399.5 0
7400.5 0
7401.5 1
7402.5 -0.857143
7403.5 0
7404.5 1
7405.5 1.14286
7406.5 0
7407.5 0
7408.5 -0.857143
7409.5 -0.857143
7410.5 0
7411.5 1
7412.5 0
7413.5 -0.857143
7414.5 0.142857
7415.5 3
7416.5 1
7417.5 -0.714286
7418.5 0.142857
7419.5 0
7420.5 2
7421.5 -0.857143
7422.5 0
7423.5 1
7424.5 0
7425.5 0
7426.5 1
7427.5 -0.857143
7428.5 0
7429.5 0
7430.5 0
7431.5 0.142857
7432.5 -1.71429
7433.5 0
7434.5 0
7435.5 0
7436.5 -0.857143
7437.5 -0.857143
7438.5 0
7439.5 0
7440.5 0
7441.5 0
7442.5 -0.857143
7443.5 -0.857143
7444.5 1
7445.5 0
7446.5 0
7447.5 0
7448.5 0
7449.5 0
7450.5 1
7451.5 0
7452.5 0
7453.5 -0.714286
7454.5 1
7455.5 0.142857
7456.5 1
7457.5 1
7458.5 0
7459.5 0.142857
7460.5 1
7461.5 0
7462.5 -1.71429
7463.5 -0.857143
7464.5 0
7465.5 1
7466.5 1
7467.5 0
7468.5 0.285714
7469.5 -0.857143
7470.5 1
7471.5 0.142857
7472.5 0
7473.5 0
7474.5 -0.857143
7475.5 -0.857143
7476.5 0
7477.5 1
7478.5 -1.71429
7479.5 -0.857143
7480.5 0
7481.5 1
7482.5 1.14286
7483.5 0
7484.5 0
7485.5 0.142857
7486.5 0
7487.5 0
7488.5 1
7489.5 1
7490.5 0
7491.5 -0.857143
7492.5 1
7493.5 0
7494.5 -0.857143
7495.5 2
7496.5 1
7497.5 0
7498.5 1
7499.5 1
7500.5 1
7501.5 0
7502.5 0.142857
7503.5 0
7504.5 -0.857143
7505.5 0
7506.5 -1.71429
7507.5 0.142857
7508.5 0
7509.5 0
7510.5 0
7511.5 0
7512.5 0
7513.5 0
7514.5 0
7515.5 0
7516.5 1
7517.5 0.142857
7518.5 0
7519.5 -0.857143
7520.5 -0.857143
7521.5 1
7522.5 -0.857143
7523.5 0
7524.5 -0.857143
7525.5 -0.714286
7526.5 0
7527.5 0
7528.5 0
7529.5 0
7530.5 0
7531.5 1
7532.5 0.142857
7533.5 0
7534.5 0
7535.5 0
7536.5 1
7537.5 0.142857
7538.5 0
7539.5 -0.857143
7540.5 1
7541.5 0
7542.5 3
7543.5 -0.857143
7544.5 -0.857143
7545.5 1
7546.5 2
7547.5 0
7548.5 0
7549.5 -0.857143
7550.5 0
7551.5 0
7552.5 -0.857143
7553.5 -0.857143
7554.5 0
7555.5 0
7556.5 -0.857143
7557.5 0
7558.5 0
7559.5 0
7560.5 2
7561.5 1
7562.5 -0.857143
7563.5 -0.857143
7564.5 0
7565.5 0
7566.5 0
7567.5 0
7568.5 0
7569.5 -0.857143
7570.5 3
7571.5 -0.857143
7572.5 0
7573.5 0
7574.5 1
7575.5 0
7576.5 2
7577.5 1
7578.5 -0.857143
7579.5 0
7580.5 1
7581.5 0
7582.5 0
7583.5 0
7584.5 0
7585.5 -0.857143
7586.5 0
7587.5 1
7588.5 -0.857143
7589.5 2.14286
7590.5 0
7591.5 0
7592.5 -0.857143
7593.5 0
7594.5 -2.57143
7595.5 0
7596.5 0
7597.5 0
7598.5 1
7599.5 0
7600.5 0
7601.5 0
7602.5 -0.857143
7603.5 0
7604.5 0
7605.5 0
7606.5 0.142857
7607.5 0
7608.5 1
7609.5 0
7610.5 0
7611.5 0
7612.5 0
7613.5 0
7614.5 0
7615.5 0
7616.5 -0.857143
7617.5 1
7618.5 0
7619.5 0
7620.5 0
7621.5 -0.857143
7622.5 0.142857
7623.5 0
7624.5 0
7625.5 0
7626.5 0
7627.5 1
7628.5 1
7629.5 3
7630.5 -0.857143
7631.5 0
7632.5 0
7633.5 1
7634.5 -0.857143
7635.5 1
7636.5 0
7637.5 0
7638.5 0
7639.5 1
7640.5 1
7641.5 0
7642.5 1
7643.5 -0.857143
7644.5 0.142857
7645.5 0
7646.5 0
7647.5 0
7648.5 1
7649.5 0
7650.5 1
7651.5 0
7652.5 0
7653.5 0
7654.5 0
7655.5 1
7656.5 0
7657.5 0.142857
7658.5 0
7659.5 1
7660.5 0
7661.5 0
7662.5 1
7663.5 0
7664.5 0
7665.5 -0.857143
7666.5 1
7667.5 1
7668.5 0
7669.5 0
7670.5 0
7671.5 1
7672.5 -0.857143
7673.5 -0.857143
7674.5 -1.71429
7675.5 0
7676.5 0
7677.5 0
7678.5 0
7679.5 0
7680.5 0
7681.5 0
7682.5 -0.857143
7683.5 0
7684.5 0
7685.5 -0.857143
7686.5 1
7687.5 0
7688.5 -0.857143
7689.5 2
7690.5 1
7691.5 1
7692.5 -0.857143
7693.5 0
7694.5 0
7695.5 1
7696.5 0
7697.5 0
7698.5 -0.714286
7699.5 0
7700.5 0
7701.5 0
7702.5 0
7703.5 0
7704.5 1
7705.5 0.142857
7706.5 2
7707.5 0
7708.5 0
7709.5 -0.857143
7710.5 0
7711.5 1
7712.5 -1.71429
7713.5 0
7714.5 1
7715.5 0
7716.5 0
7717.5 0
7718.5 0
7719.5 0
7720.5 -0.857143
7721.5 -0.857143
7722.5 1
7723.5 0
7724.5 1
7725.5 0
7726.5 0
7727.5 0
7728.5 -0.857143
7729.5 0
7730.5 0
7731.5 0
7732.5 0
7733.5 0
7734.5 0
7735.5 0
7736.5 0
7737.5 1
7738.5 -0.857143
7739.5 -0.857143
7740.5 0
7741.5 1
7742.5 1
7743.5 0
7744.5 0
7745.5 -0.857143
7746.5 0
7747.5 -0.857143
7748.5 -0.857143
7749.5 0
7750.5 0
7751.5 0
7752.5 0
7753.5 0
7754.5 0
7755.5 0
7756.5 0
7757.5 1
7758.5 1
7759.5 0
7760.5 0
7761.5 0
7762.5 0.142857
7763.5 0
7764.5 -0.857143
7765.5 0
7766.5 -0.857143
7767.5 0
7768.5 -0.857143
7769.5 -0.857143
7770.5 2
7771.5 0
7772.5 -0.714286
7773.5 -0.428571
7774.5 1.14286
7775.5 -0.857143
7776.5 0
7777.5 1.14286
7778.5 0
7779.5 0
7780.5 0
7781.5 0
7782.5 0
7783.5 0
7784.5 0
7785.5 0
7786.5 0
7787.5 0
7788.5 0.142857
7789.5 -0.857143
7790.5 -0.857143
7791.5 1
7792.5 0.142857
7793.5 0
7794.5 -0.714286
7795.5 0
7796.5 0
7797.5 0
7798.5 0
7799.5 -0.857143
7800.5 -0.857143
7801.5 0
7802.5 0
7803.5 0
7804.5 0
7805.5 0
7806.5 0
7807.5 0
7808.5 -0.857143
7809.5 1
7810.5 0
7811.5 -1.71429
7812.5 0
7813.5 -0.857143
7814.5 0
7815.5 0
7816.5 0
7817.5 -0.714286
7818.5 0
7819.5 -1.71429
7820.5 -0.857143
7821.5 2
7822.5 -0.714286
7823.5 0
7824.5 1
7825.5 0
7826.5 1
7827.5 0
7828.5 -0.857143
7829.5 1
7830.5 0
7831.5 0
7832.5 -0.857143
7833.5 0
7834.5 0
7835.5 0
7836.5 1
7837.5 0.142857
7838.5 0
7839.5 0
7840.5 0
7841.5 -0.857143
7842.5 0
7843.5 0
7844.5 -0.857143
7845.5 0
7846.5 0
7847.5 -0.857143
7848.5 1
7849.5 0
7850.5 0
7851.5 0
7852.5 0
7853.5 0
7854.5 0
7855.5 -0.857143
7856.5 0
7857.5 0
7858.5 0
7859.5 1
7860.5 0
7861.5 0
7862.5 0
7863.5 0
7864.5 0.142857
7865.5 0
7866.5 0
7867.5 1
7868.5 0
7869.5 0
7870.5 0
7871.5 0
7872.5 0
7873.5 0
7874.5 0
7875.5 0
7876.5 1
7877.5 0
7878.5 0
7879.5 -1.71429
7880.5 0
7881.5 0
7882.5 0
7883.5 0
7884.5 0
7885.5 0
7886.5 0
7887.5 0
7888.5 0
7889.5 1
7890.5 -0.857143
7891.5 1
7892.5 0
7893.5 0
7894.5 0
7895.5 0
7896.5 0
7897.5 -0.857143
7898.5 1
7899.5 1
7900.5 0
7901.5 0
7902.5 0
7903.5 0.142857
7904.5 0
7905.5 0
7906.5 0
7907.5 0
7908.5 0
7909.5 0
7910.5 0
7911.5 0
7912.5 0
7913.5 0
7914.5 0
7915.5 0
7916.5 0
7917.5 -0.857143
7918.5 1
7919.5 0
7920.5 0
7921.5 0
7922.5 0
7923.5 0
7924.5 0
7925.5 0
7926.5 0
7927.5 0
7928.5 0
7929.5 0
7930.5 0
7931.5 0
7932.5 0
7933.5 0
7934.5 0
7935.5 1
7936.5 0.142857
7937.5 0
7938.5 1
7939.5 0
7940.5 0
7941.5 0
7942.5 0
7943.5 0
7944.5 0
7945.5 0
7946.5 1
7947.5 0
7948.5 0
7949.5 0
7950.5 1
7951.5 0
7952.5 0
7953.5 0
7954.5 0
7955.5 0
7956.5 0
7957.5 0
7958.5 0
7959.5 -0.857143
7960.5 -0.857143
7961.5 -0.857143
7962.5 0
7963.5 1
7964.5 0
7965.5 0
7966.5 -1.71429
7967.5 0
7968.5 0
7969.5 0
7970.5 -0.857143
7971.5 0
7972.5 0
7973.5 0
7974.5 1
7975.5 -0.857143
7976.5 1
7977.5 0
7978.5 1
7979.5 0
7980.5 0
7981.5 0
7982.5 2
7983.5 1
7984.5 0
7985.5 -0.857143
7986.5 -0.857143
7987.5 0
7988.5 0
7989.5 0
7990.5 1
7991.5 -0.857143
7992.5 0
7993.5 1
7994.5 0
7995.5 0
7996.5 0
7997.5 0
7998.5 0
7999.5 -0.857143
8000.5 1
8001.5 0
8002.5 0
8003.5 -0.857143
8004.5 0
8005.5 0
8006.5 0
8007.5 1
8008.5 0
8009.5 1
8010.5 1
8011.5 1
8012.5 -0.857143
8013.5 0
8014.5 1
8015.5 2
8016.5 0
8017.5 0
8018.5 0
8019.5 0
8020.5 0
8021.5 1
8022.5 -0.857143
8023.5 0
8024.5 0
8025.5 0
8026.5 0
8027.5 0
8028.5 0
8029.5 0
8030.5 0
8031.5 0
8032.5 0
8033.5 0
8034.5 0
8035.5 1
8036.5 -1.71429
8037.5 0
8038.5 -1.71429
8039.5 0
8040.5 1
8041.5 -0.857143
8042.5 0
8043.5 -0.857143
8044.5 0
8045.5 0
8046.5 1
8047.5 1
8048.5 0
8049.5 0
8050.5 0
8051.5 0
8052.5 0
8053.5 0
8054.5 -0.857143
8055.5 1
8056.5 0
8057.5 0
8058.5 0
8059.5 0
8060.5 0
8061.5 0
8062.5 1
8063.5 0
8064.5 2
8065.5 -0.857143
8066.5 0
8067.5 0
8068.5 -0.857143
8069.5 0
8070.5 -0.857143
8071.5 0
8072.5 -0.857143
8073.5 1
8074.5 -0.857143
8075.5 0
8076.5 0
8077.5 -0.857143
8078.5 0.142857
8079.5 -0.857143
8080.5 0
8081.5 0
8082.5 0
8083.5 -0.857143
8084.5 0
8085.5 0
8086.5 3
8087.5 0
8088.5 -0.857143
8089.5 2
8090.5 -0.857143
8091.5 0
8092.5 0
8093.5 0
8094.5 0
8095.5 -0.857143
8096.5 0
8097.5 0
8098.5 0
8099.5 0
8100.5 0
8101.5 0
8102.5 0
8103.5 1
8104.5 1
8105.5 -0.857143
8106.5 0
8107.5 0.142857
8108.5 -0.857143
8109.5 0
8110.5 0
8111.5 0
8112.5 0
8113.5 1
8114.5 0
8115.5 0
8116.5 1
8117.5 1
8118.5 0
8119.5 0
8120.5 0
8121.5 0
8122.5 1
8123.5 0
8124.5 1
8125.5 1
8126.5 0
8127.5 0
8128.5 1
8129.5 -0.857143
8130.5 0
8131.5 0
8132.5 0
8133.5 0
8134.5 0
8135.5 0
8136.5 0
8137.5 0
8138.5 0
8139.5 1
8140.5 0
8141.5 0
8142.5 0
8143.5 0
8144.5 1
8145.5 0
8146.5 0
8147.5 1
8148.5 1
8149.5 0
8150.5 0
8151.5 2
8152.5 1
8153.5 0
8154.5 -0.857143
8155.5 0
8156.5 0
8157.5 0
8158.5 1
8159.5 0
8160.5 0
8161.5 1
8162.5 0
8163.5 0
8164.5 0
8165.5 0
8166.5 0
8167.5 0
8168.5 0
8169.5 0
8170.5 -0.857143
8171.5 0
8172.5 0
8173.5 0
8174.5 0
8175.5 0
8176.5 1.14286
8177.5 0
8178.5 0
8179.5 0
8180.5 0
8181.5 0
8182.5 0
8183.5 0
8184.5 0
8185.5 1
8186.5 1
8187.5 0
8188.5 0
8189.5 0
8190.5 0
8191.5 0
8192.5 0
8193.5 0
8194.5 0
8195.5 0
8196.5 0
8197.5 0
8198.5 0
8199.5 2
8200.5 0
8201.5 0
8202.5 0
8203.5 0
8204.5 0
8205.5 0.142857
8206.5 0
8207.5 -0.857143
8208.5 0
8209.5 2
8210.5 0
8211.5 -0.857143
8212.5 0
8213.5 0
8214.5 -0.857143
8215.5 0
8216.5 0
8217.5 -0.857143
8218.5 0
8219.5 1
8220.5 0
8221.5 0
8222.5 0
8223.5 0
8224.5 0
8225.5 -0.857143
8226.5 0
8227.5 0
8228.5 0
8229.5 0
8230.5 0
8231.5 0
8232.5 0
8233.5 0
8234.5 0
8235.5 0
8236.5 0
8237.5 0
8238.5 0
8239.5 0
8240.5 0
8241.5 0
8242.5 0
8243.5 0
8244.5 0
8245.5 0
8246.5 0
8247.5 0
8248.5 -0.857143
8249.5 1
8250.5 0
8251.5 0
8252.5 0
8253.5 1
8254.5 0
8255.5 0
8256.5 0
8257.5 0
8258.5 0
8259.5 0
8260.5 0
8261.5 0
8262.5 -0.857143
8263.5 0
8264.5 0
8265.5 0
8266.5 0
8267.5 0
8268.5 0
8269.5 0
8270.5 -0.857143
8271.5 0
8272.5 0
8273.5 -0.857143
8274.5 0
8275.5 0
8276.5 1
8277.5 0
8278.5 0
8279.5 0
8280.5 0
8281.5 1
8282.5 1
8283.5 0
8284.5 1
8285.5 0
8286.5 0
8287.5 0
8288.5 0
8289.5 0
8290.5 0
8291.5 0
8292.5 0
8293.5 0
8294.5 0
8295.5 1
8296.5 0
8297.5 -1.71429
8298.5 0
8299.5 1
8300.5 0
8301.5 0
8302.5 0
8303.5 0
8304.5 0
8305.5 0
8306.5 0
8307.5 0
8308.5 -0.857143
8309.5 -0.857143
8310.5 0
8311.5 0
8312.5 0
8313.5 0
8314.5 0
8315.5 0
8316.5 0
8317.5 0
8318.5 0
8319.5 0
8320.5 2
8321.5 0
8322.5 0
8323.5 0
8324.5 0
8325.5 0
8326.5 1
8327.5 0
8328.5 0
8329.5 0
8330.5 0
8331.5 0
8332.5 0
8333.5 0
8334.5 0
8335.5 0
8336.5 2
8337.5 0
8338.5 -0.857143
8339.5 1
8340.5 0
8341.5 0
8342.5 0
8343.5 0
8344.5 0
8345.5 0
8346.5 0
8347.5 0
8348.5 -0.857143
8349.5 0
8350.5 1
8351.5 0
8352.5 0
8353.5 0
8354.5 0
8355.5 0.142857
8356.5 0
8357.5 0
8358.5 0
8359.5 0
8360.5 0
8361.5 -0.857143
8362.5 0
8363.5 0
8364.5 1
8365.5 0
8366.5 0
8367.5 0
8368.5 1
8369.5 0
8370.5 0
8371.5 0
8372.5 1
8373.5 0
8374.5 0
8375.5 0
8376.5 0
8377.5 0
8378.5 0
8379.5 0
8380.5 0
8381.5 1
8382.5 1
8383.5 1
8384.5 0
8385.5 1
8386.5 0
8387.5 0
8388.5 0
8389.5 0
8390.5 0
8391.5 0
8392.5 0
8393.5 0
8394.5 0
8395.5 0
8396.5 0
8397.5 0
8398.5 0
8399.5 0
8400.5 -0.857143
8401.5 0
8402.5 0
8403.5 0
8404.5 0
8405.5 0
8406.5 0
8407.5 0
8408.5 0
8409.5 0
8410.5 0
8411.5 0
8412.5 -0.857143
8413.5 0
8414.5 0
8415.5 0
8416.5 0
8417.5 1
8418.5 0
8419.5 0
8420.5 0
8421.5 1
8422.5 0
8423.5 0
8424.5 1
8425.5 0
8426.5 0
8427.5 1
8428.5 -0.857143
8429.5 0
8430.5 0
8431.5 0
8432.5 0
8433.5 0
8434.5 -0.857143
8435.5 -0.857143
8436.5 1
8437.5 0
8438.5 0
8439.5 0
8440.5 0
8441.5 0
8442.5 0
8443.5 0
8444.5 0
8445.5 0
8446.5 0
8447.5 0
8448.5 0
8449.5 0
8450.5 0
8451.5 -0.857143
8452.5 -0.857143
8453.5 0
8454.5 0
8455.5 0
8456.5 0
8457.5 0
8458.5 0
8459.5 1
8460.5 0
8461.5 0
8462.5 0
8463.5 -0.857143
8464.5 -0.857143
8465.5 0
8466.5 0
8467.5 1
8468.5 0
8469.5 1
8470.5 0
8471.5 0
8472.5 0
8473.5 0
8474.5 0
8475.5 0
8476.5 0
8477.5 0
8478.5 1
8479.5 0
8480.5 0
8481.5 0
8482.5 0
8483.5 0
8484.5 0
8485.5 0
8486.5 0
8487.5 0.142857
8488.5 0
8489.5 -0.857143
8490.5 0
8491.5 0
8492.5 0
8493.5 1
8494.5 0
8495.5 -0.857143
8496.5 0
8497.5 0
8498.5 0
8499.5 0
8500.5 0
8501.5 0
8502.5 1
8503.5 1
8504.5 0
8505.5 0
8506.5 2
8507.5 0
8508.5 1
8509.5 0
8510.5 0
8511.5 0
8512.5 -0.857143
8513.5 0
8514.5 0
8515.5 0
8516.5 0
8517.5 0
8518.5 0
8519.5 0
8520.5 0
8521.5 0
8522.5 0
8523.5 0
8524.5 0
8525.5 1
8526.5 0
8527.5 0
8528.5 0
8529.5 0
8530.5 0
8531.5 0
8532.5 0.142857
8533.5 1
8534.5 0
8535.5 2
8536.5 0
8537.5 1
8538.5 0
8539.5 0
8540.5 0
8541.5 0
8542.5 0
8543.5 0
8544.5 0
8545.5 0
8546.5 0
8547.5 0.142857
8548.5 0
8549.5 0
8550.5 0
8551.5 -0.857143
8552.5 0
8553.5 0
8554.5 0
8555.5 0
8556.5 -0.857143
8557.5 0
8558.5 -0.857143
8559.5 0
8560.5 1
8561.5 0
8562.5 1
8563.5 1
8564.5 0
8565.5 0
8566.5 0
8567.5 0
8568.5 0
8569.5 -0.857143
8570.5 1
8571.5 0
8572.5 0
8573.5 0
8574.5 1
8575.5 0
8576.5 0
8577.5 0
8578.5 0
8579.5 0
8580.5 0
8581.5 0
8582.5 1
8583.5 0
8584.5 0
8585.5 0
8586.5 0
8587.5 0
8588.5 0
8589.5 1
8590.5 0
8591.5 -0.857143
8592.5 0.142857
8593.5 0
8594.5 0
8595.5 0
8596.5 0
8597.5 0
8598.5 1
8599.5 0
8600.5 -0.857143
8601.5 0
8602.5 0
8603.5 0
8604.5 0
8605.5 0
8606.5 1
8607.5 0
8608.5 0
8609.5 -0.857143
8610.5 0
8611.5 0
8612.5 0
8613.5 0
8614.5 0
8615.5 0
8616.5 0
8617.5 0
8618.5 0
8619.5 0
8620.5 0
8621.5 0
8622.5 0
8623.5 0
8624.5 0.142857
8625.5 0
8626.5 0
8627.5 0
8628.5 0
8629.5 0
8630.5 0
8631.5 0
8632.5 0
8633.5 0
8634.5 0
8635.5 0
8636.5 0
8637.5 0
8638.5 0
8639.5 0
8640.5 0
8641.5 0
8642.5 1
8643.5 0
8644.5 0
8645.5 0
8646.5 0
8647.5 0
8648.5 1
8649.5 1
8650.5 0
8651.5 1
8652.5 0
8653.5 0
8654.5 0
8655.5 0
8656.5 2
8657.5 0
8658.5 0
8659.5 0
8660.5 0
8661.5 0
8662.5 0
8663.5 0
8664.5 0
8665.5 0
8666.5 0
8667.5 -0.857143
8668.5 1
8669.5 0
8670.5 0
8671.5 0
8672.5 0
8673.5 1
8674.5 0
8675.5 0
8676.5 1
8677.5 -0.857143
8678.5 0
8679.5 0
8680.5 0
8681.5 0
8682.5 0
8683.5 0
8684.5 -0.857143
8685.5 0
8686.5 0
8687.5 0
8688.5 0
8689.5 0
8690.5 0
8691.5 0
8692.5 0
8693.5 -0.857143
8694.5 0
8695.5 0
8696.5 0
8697.5 0
8698.5 0
8699.5 1
8700.5 1
8701.5 0
8702.5 0
8703.5 0
8704.5 0
8705.5 0
8706.5 0
8707.5 0
8708.5 -1.71429
8709.5 0
8710.5 0
8711.5 0
8712.5 -0.857143
8713.5 0
8714.5 0
8715.5 0
8716.5 0.142857
8717.5 1.14286
8718.5 0
8719.5 0
8720.5 0
8721.5 1
8722.5 -0.857143
8723.5 0
8724.5 1
8725.5 0
8726.5 0
8727.5 0
8728.5 0
8729.5 0
8730.5 0
8731.5 0
8732.5 0
8733.5 0
8734.5 0
8735.5 0
8736.5 0
8737.5 0
8738.5 0
8739.5 0
8740.5 0
8741.5 0
8742.5 0
8743.5 0
8744.5 0
8745.5 0
8746.5 0
8747.5 1
8748.5 0
8749.5 0
8750.5 0
8751.5 0
8752.5 0
8753.5 0
8754.5 1
8755.5 0
8756.5 0
8757.5 0
8758.5 0
8759.5 0
8760.5 -1.71429
8761.5 -0.857143
8762.5 0
8763.5 0
8764.5 -0.857143
8765.5 1
8766.5 0
8767.5 0
8768.5 0
8769.5 1
8770.5 0
8771.5 0
8772.5 0
8773.5 0
8774.5 0
8775.5 2
8776.5 0
8777.5 1
8778.5 0
8779.5 0
8780.5 1
8781.5 0
8782.5 0
8783.5 0
8784.5 1
8785.5 0
8786.5 -0.857143
8787.5 0
8788.5 0
8789.5 0
8790.5 0
8791.5 1
8792.5 -0.857143
8793.5 -0.857143
8794.5 -0.857143
8795.5 0
8796.5 0
8797.5 0
8798.5 0
8799.5 0
8800.5 -0.857143
8801.5 0
8802.5 0
8803.5 0
8804.5 0
8805.5 1
8806.5 1
8807.5 0
8808.5 -1.71429
8809.5 0
8810.5 0
8811.5 0
8812.5 0
8813.5 0
8814.5 0
8815.5 1
8816.5 0
8817.5 0
8818.5 -0.857143
8819.5 0
8820.5 0
8821.5 -0.714286
8822.5 0
8823.5 0
8824.5 0
8825.5 0
8826.5 -0.857143
8827.5 1
8828.5 0
8829.5 0
8830.5 0
8831.5 0
8832.5 0
8833.5 0
8834.5 0
8835.5 0
8836.5 0
8837.5 1
8838.5 0
8839.5 0
8840.5 0
8841.5 0
8842.5 0
8843.5 0
8844.5 2
8845.5 0
8846.5 2
8847.5 -0.857143
8848.5 1
8849.5 0
8850.5 0
8851.5 0
8852.5 0
8853.5 -0.857143
8854.5 1
8855.5 0
8856.5 0
8857.5 1
8858.5 0
8859.5 0
8860.5 -0.857143
8861.5 0
8862.5 0
8863.5 0
8864.5 0
8865.5 1
8866.5 0.142857
8867.5 0
8868.5 0
8869.5 0
8870.5 0
8871.5 -0.857143
8872.5 0
8873.5 1
8874.5 0
8875.5 0
8876.5 0
8877.5 0
8878.5 0
8879.5 0
8880.5 0
8881.5 0
8882.5 -0.857143
8883.5 0
8884.5 0
8885.5 0
8886.5 0
8887.5 0
8888.5 0
8889.5 0
8890.5 0
8891.5 0
8892.5 0
8893.5 0
8894.5 0
8895.5 0
8896.5 0
8897.5 0
8898.5 1
8899.5 0
8900.5 0
8901.5 0
8902.5 0
8903.5 0
8904.5 0
8905.5 0
8906.5 0
8907.5 0
8908.5 0
8909.5 1
8910.5 1
8911.5 0
8912.5 0
8913.5 0
8914.5 1
8915.5 0
8916.5 1
8917.5 0
8918.5 0
8919.5 0
8920.5 -0.857143
8921.5 -0.857143
8922.5 0
8923.5 0
8924.5 0
8925.5 0
8926.5 0
8927.5 0
8928.5 0.142857
8929.5 0
8930.5 0
8931.5 0
8932.5 0
8933.5 0
8934.5 0
8935.5 0
8936.5 0
8937.5 0
8938.5 0
8939.5 -0.857143
8940.5 0
8941.5 0
8942.5 0
8943.5 0
8944.5 0
8945.5 0
8946.5 0.142857
8947.5 0
8948.5 0
8949.5 0
8950.5 0
8951.5 0
8952.5 0
8953.5 0
8954.5 0
8955.5 1
8956.5 0
8957.5 0
8958.5 0
8959.5 0
8960.5 0
8961.5 0
8962.5 0
8963.5 0
8964.5 0
8965.5 0
8966.5 1
8967.5 0
8968.5 -0.857143
8969.5 0
8970.5 0
8971.5 -0.857143
8972.5 0
8973.5 0
8974.5 0
8975.5 0
8976.5 0
8977.5 0
8978.5 0
8979.5 0
8980.5 0
8981.5 0
8982.5 0
8983.5 0
8984.5 -0.857143
8985.5 1
8986.5 0
8987.5 1
8988.5 0
8989.5 0
8990.5 -0.857143
8991.5 0
8992.5 0
8993.5 0
8994.5 0
8995.5 0
8996.5 0
8997.5 -0.857143
8998.5 0
8999.5 0
9000.5 0
9001.5 0
9002.5 0
9003.5 0
9004.5 0
9005.5 1
9006.5 0
9007.5 0
9008.5 0
9009.5 -0.857143
9010.5 0
9011.5 -0.857143
9012.5 1
9013.5 0
9014.5 0
9015.5 0
9016.5 0
9017.5 0
9018.5 0
9019.5 0
9020.5 0
9021.5 0
9022.5 0
9023.5 0
9024.5 -0.857143
9025.5 0
9026.5 0
9027.5 0
9028.5 0
9029.5 0
9030.5 0
9031.5 1
9032.5 0
9033.5 0
9034.5 0
9035.5 0
9036.5 0
9037.5 0
9038.5 1
9039.5 0
9040.5 0
9041.5 0
9042.5 0
9043.5 0
9044.5 0
9045.5 0
9046.5 0
9047.5 0
9048.5 0
9049.5 1
9050.5 0
9051.5 0
9052.5 0
9053.5 -0.857143
9054.5 0
9055.5 0
9056.5 0
9057.5 0
9058.5 0
9059.5 0
9060.5 -0.857143
9061.5 0
9062.5 0
9063.5 0
9064.5 0
9065.5 0
9066.5 0
9067.5 0
9068.5 0
9069.5 0
9070.5 0
9071.5 0
9072.5 0
9073.5 0
9074.5 0
9075.5 0
9076.5 0
9077.5 0
9078.5 -0.857143
9079.5 0
9080.5 0
9081.5 0
9082.5 0
9083.5 0
9084.5 0
9085.5 0
9086.5 0
9087.5 0
9088.5 0
9089.5 0
9090.5 0
9091.5 1
9092.5 1
9093.5 0
9094.5 0
9095.5 0
9096.5 -0.857143
9097.5 0
9098.5 0
9099.5 0
9100.5 0
9101.5 0
9102.5 -1.71429
9103.5 0
9104.5 0
9105.5 0
9106.5 0
9107.5 0
9108.5 0
9109.5 1
9110.5 0
9111.5 0
9112.5 0
9113.5 0
9114.5 0
9115.5 1
9116.5 0
9117.5 0
9118.5 2
9119.5 0
9120.5 0
9121.5 0
9122.5 0
9123.5 0
9124.5 0
9125.5 0
9126.5 0
9127.5 0
9128.5 0
9129.5 0
9130.5 0
9131.5 0
9132.5 1
9133.5 0
9134.5 0
9135.5 0
9136.5 0
9137.5 0
9138.5 0
9139.5 0
9140.5 0
9141.5 0
9142.5 0
9143.5 0
9144.5 0
9145.5 0
9146.5 0
9147.5 0
9148.5 0
9149.5 0
9150.5 0
9151.5 0
9152.5 0
9153.5 0
9154.5 0
9155.5 0
9156.5 0
9157.5 0
9158.5 0
9159.5 -0.857143
9160.5 0
9161.5 0
9162.5 0
9163.5 0
9164.5 0
9165.5 0
9166.5 0
9167.5 0
9168.5 0
9169.5 1
9170.5 0
9171.5 0
9172.5 -0.857143
9173.5 0
9174.5 1
9175.5 0
9176.5 0
9177.5 0
9178.5 0
9179.5 0
9180.5 0
9181.5 0
9182.5 0
9183.5 0
9184.5 0
9185.5 0
9186.5 1
9187.5 0
9188.5 0
9189.5 0
9190.5 -0.857143
9191.5 0
9192.5 0
9193.5 0
9194.5 0
9195.5 2
9196.5 0
9197.5 0
9198.5 0
9199.5 1
9200.5 0
9201.5 1
9202.5 0
9203.5 0
9204.5 0
9205.5 0
9206.5 2
9207.5 -0.857143
9208.5 0
9209.5 0
9210.5 0
9211.5 0
9212.5 0
9213.5 0
9214.5 0
9215.5 1
9216.5 0
9217.5 0
9218.5 0
9219.5 0
9220.5 0
9221.5 0
9222.5 0
9223.5 -0.857143
9224.5 0
9225.5 0
9226.5 -0.857143
9227.5 0
9228.5 0
9229.5 0
9230.5 0
9231.5 0
9232.5 0
9233.5 0
9234.5 0
9235.5 0
9236.5 0
9237.5 0
9238.5 0
9239.5 0
9240.5 0
9241.5 0
9242.5 0
9243.5 0
9244.5 0
9245.5 0
9246.5 1
9247.5 0
9248.5 0
9249.5 0
9250.5 0
9251.5 0
9252.5 0
9253.5 0
9254.5 0
9255.5 0
9256.5 0
9257.5 0
9258.5 0
9259.5 0.142857
9260.5 0
9261.5 0
9262.5 0
9263.5 -0.857143
9264.5 0
9265.5 0
9266.5 0
9267.5 1
9268.5 0
9269.5 0
9270.5 0
9271.5 0
9272.5 -0.857143
9273.5 1
9274.5 0
9275.5 0
9276.5 0
9277.5 0
9278.5 0
9279.5 0
9280.5 1
9281.5 0
9282.5 0
9283.5 0
9284.5 0
9285.5 1
9286.5 0
9287.5 0
9288.5 0
9289.5 0
9290.5 0
9291.5 0
9292.5 0
9293.5 0
9294.5 0
9295.5 0
9296.5 0
9297.5 0
9298.5 0
9299.5 0
9300.5 0
9301.5 0
9302.5 0
9303.5 0
9304.5 0
9305.5 0
9306.5 0
9307.5 1
9308.5 0
9309.5 0
9310.5 0
9311.5 0
9312.5 0
9313.5 0
9314.5 0
9315.5 0
9316.5 0
9317.5 0
9318.5 0
9319.5 0
9320.5 0
9321.5 0
9322.5 0
9323.5 0
9324.5 -0.857143
9325.5 0
9326.5 -0.857143
9327.5 0
9328.5 0
9329.5 0
9330.5 0.142857
9331.5 0
9332.5 0
9333.5 0
9334.5 1
9335.5 0
9336.5 0
9337.5 0
9338.5 0
9339.5 1
9340.5 0
9341.5 0
9342.5 0
9343.5 1
9344.5 0
9345.5 0
9346.5 0
9347.5 0
9348.5 0
9349.5 0
9350.5 0
9351.5 0
9352.5 0
9353.5 0
9354.5 0
9355.5 0
9356.5 1
9357.5 0
9358.5 0
9359.5 -0.857143
9360.5 2
9361.5 0
9362.5 0
9363.5 0
9364.5 0
9365.5 0
9366.5 0
9367.5 0
9368.5 0
9369.5 0
9370.5 0
9371.5 -0.857143
9372.5 0
9373.5 0
9374.5 0
9375.5 0
9376.5 0
9377.5 0
9378.5 0
9379.5 0
9380.5 0
9381.5 0
9382.5 0
9383.5 0
9384.5 0
9385.5 0
9386.5 0
9387.5 0
9388.5 0
9389.5 0
9390.5 0
9391.5 0
9392.5 0
9393.5 0
9394.5 0
9395.5 0
9396.5 0
9397.5 0
9398.5 0
9399.5 0
9400.5 1
9401.5 0
9402.5 0
9403.5 -0.857143
9404.5 0
9405.5 0
9406.5 0
9407.5 0
9408.5 0
9409.5 0
9410.5 0
9411.5 0
9412.5 0
9413.5 0
9414.5 0
9415.5 0
9416.5 0
9417.5 0
9418.5 0
9419.5 0
9420.5 0
9421.5 0
9422.5 0
9423.5 -0.857143
9424.5 0
9425.5 0
9426.5 0
9427.5 0
9428.5 0
9429.5 0
9430.5 0
9431.5 0
9432.5 -0.857143
9433.5 0
9434.5 0
9435.5 0
9436.5 0
9437.5 0
9438.5 0
9439.5 0
9440.5 0
9441.5 0
9442.5 0
9443.5 -1.71429
9444.5 -0.857143
9445.5 -0.857143
9446.5 0
9447.5 0
9448.5 0
9449.5 0
9450.5 0
9451.5 0
9452.5 0
9453.5 0
9454.5 0
9455.5 -0.857143
9456.5 0
9457.5 0
9458.5 -0.857143
9459.5 0
9460.5 0
9461.5 0
9462.5 0
9463.5 0
9464.5 0
9465.5 0
9466.5 0
9467.5 0
9468.5 0
9469.5 0
9470.5 0
9471.5 0
9472.5 0
9473.5 0
9474.5 0
9475.5 0
9476.5 0
9477.5 0
9478.5 0
9479.5 0
9480.5 0
9481.5 0
9482.5 0
9483.5 0
9484.5 0
9485.5 0
9486.5 1
9487.5 0
9488.5 0
9489.5 0
9490.5 0
9491.5 0
9492.5 1
9493.5 0
9494.5 0
9495.5 -1.71429
9496.5 -0.857143
9497.5 0
9498.5 0
9499.5 0
9500.5 0
9501.5 0
9502.5 0
9503.5 0
9504.5 0
9505.5 0
9506.5 0
9507.5 0
9508.5 0
9509.5 0
9510.5 0
9511.5 0
9512.5 -0.857143
9513.5 0
9514.5 0
9515.5 0
9516.5 0
9517.5 0
9518.5 0
9519.5 0
9520.5 0
9521.5 0
9522.5 0
9523.5 0
9524.5 1
9525.5 1
9526.5 0
9527.5 0
9528.5 0
9529.5 0
9530.5 0
9531.5 0
9532.5 0
9533.5 0
9534.5 0
9535.5 0
9536.5 0
9537.5 0
9538.5 0
9539.5 0
9540.5 0
9541.5 0
9542.5 0
9543.5 0
9544.5 1
9545.5 0
9546.5 0
9547.5 0
9548.5 0
9549.5 0
9550.5 0
9551.5 0
9552.5 1
9553.5 1
9554.5 0
9555.5 1.14286
9556.5 0
9557.5 0
9558.5 0
9559.5 -0.857143
9560.5 1
9561.5 0
9562.5 0
9563.5 0
9564.5 0
9565.5 0
9566.5 0
9567.5 0
9568.5 0
9569.5 0
9570.5 0
9571.5 0
9572.5 0
9573.5 0
9574.5 0
9575.5 0
9576.5 0
9577.5 0
9578.5 0
9579.5 0
9580.5 -0.857143
9581.5 0
9582.5 0
9583.5 0
9584.5 0
9585.5 0
9586.5 0
9587.5 -0.857143
9588.5 0
9589.5 0
9590.5 0
9591.5 0
9592.5 0
9593.5 0
9594.5 1
9595.5 0
9596.5 0
9597.5 0
9598.5 0
9599.5 0
9600.5 0
9601.5 0
9602.5 0
9603.5 0
9604.5 0
9605.5 0
9606.5 0
9607.5 0
9608.5 0
9609.5 1
9610.5 0
9611.5 0
9612.5 0
9613.5 0
9614.5 0
9615.5 0
9616.5 0
9617.5 0
9618.5 0
9619.5 0
9620.5 0
9621.5 0
9622.5 0
9623.5 0
9624.5 0
9625.5 0
9626.5 0
9627.5 0
9628.5 0
9629.5 0
9630.5 1
9631.5 0
9632.5 0
9633.5 0
9634.5 0
9635.5 0
9636.5 0
9637.5 0
9638.5 -0.857143
9639.5 0
9640.5 0
9641.5 0
9642.5 0
9643.5 0
9644.5 0
9645.5 0
9646.5 0
9647.5 0
9648.5 0
9649.5 0
9650.5 0
9651.5 0
9652.5 0
9653.5 0
9654.5 0
9655.5 0
9656.5 0
9657.5 0
9658.5 -0.857143
9659.5 -0.857143
9660.5 0
9661.5 0
9662.5 0
9663.5 0
9664.5 0
9665.5 0
9666.5 0
9667.5 0
9668.5 0
9669.5 0
9670.5 0
9671.5 0
9672.5 0
9673.5 0
9674.5 0
9675.5 0
9676.5 0
9677.5 0
9678.5 0
9679.5 0
9680.5 0
9681.5 0
9682.5 0
9683.5 0
9684.5 0
9685.5 0
9686.5 0
9687.5 0
9688.5 0
9689.5 0
9690.5 0
9691.5 1
9692.5 -0.857143
9693.5 0
9694.5 0
9695.5 0
9696.5 0
9697.5 0
9698.5 0
9699.5 0
9700.5 0
9701.5 0
9702.5 0
9703.5 0
9704.5 0
9705.5 0
9706.5 0
9707.5 0
9708.5 0
9709.5 0
9710.5 0
9711.5 0
9712.5 0
9713.5 0
9714.5 0
9715.5 0
9716.5 0
9717.5 0
9718.5 -0.857143
9719.5 0
9720.5 0
9721.5 0
9722.5 0
9723.5 0
9724.5 0
9725.5 0
9726.5 0
9727.5 0
9728.5 0
9729.5 0
9730.5 0
9731.5 0
9732.5 0
9733.5 0
9734.5 0
9735.5 0
9736.5 0
9737.5 0
9738.5 0
9739.5 0
9740.5 0
9741.5 0
9742.5 0
9743.5 0
9744.5 0
9745.5 0
9746.5 0
9747.5 0
9748.5 0
9749.5 0
9750.5 0
9751.5 0
9752.5 1
9753.5 0
9754.5 0
9755.5 0
9756.5 0
9757.5 0
9758.5 0
9759.5 0
9760.5 0
9761.5 0
9762.5 0
9763.5 0
9764.5 0
9765.5 0
9766.5 0
9767.5 0
9768.5 0
9769.5 0
9770.5 0
9771.5 0
9772.5 0
9773.5 0
9774.5 0
9775.5 0
9776.5 0
9777.5 0
9778.5 0
9779.5 0
9780.5 0
9781.5 0
9782.5 0
9783.5 0
9784.5 0
9785.5 0
9786.5 0
9787.5 0
9788.5 0
9789.5 0
9790.5 0
9791.5 0
9792.5 0
9793.5 0
9794.5 0
9795.5 0
9796.5 0
9797.5 0
9798.5 0
9799.5 0
9800.5 0
9801.5 0
9802.5 0
9803.5 0
9804.5 0
9805.5 0
9806.5 0
9807.5 0
9808.5 0
9809.5 0
9810.5 0
9811.5 0
9812.5 0
9813.5 0
9814.5 0
9815.5 0
9816.5 0
9817.5 0
9818.5 0
9819.5 0
9820.5 0
9821.5 0
9822.5 0
9823.5 0
9824.5 0
9825.5 0
9826.5 0
9827.5 1
9828.5 0
9829.5 0
9830.5 0
9831.5 0
9832.5 0
9833.5 0
9834.5 0
9835.5 0
9836.5 0
9837.5 0
9838.5 0
9839.5 0
9840.5 1
9841.5 0
9842.5 0
9843.5 0
9844.5 0
9845.5 0
9846.5 0
9847.5 0
9848.5 0
9849.5 0
9850.5 0
9851.5 0
9852.5 0
9853.5 0
9854.5 0
9855.5 0
9856.5 0
9857.5 0
9858.5 0
9859.5 0
9860.5 0
9861.5 0
9862.5 0
9863.5 0
9864.5 0
9865.5 0
9866.5 0
9867.5 0
9868.5 0
9869.5 0
9870.5 0
9871.5 0
9872.5 0
9873.5 0
9874.5 0
9875.5 0
9876.5 0
9877.5 0
9878.5 0
9879.5 0
9880.5 0
9881.5 0
9882.5 0
9883.5 0
9884.5 0
9885.5 0
9886.5 -0.857143
9887.5 0
9888.5 0
9889.5 0
9890.5 0
9891.5 0
9892.5 0
9893.5 0
9894.5 0
9895.5 0
9896.5 0
9897.5 0
9898.5 0
9899.5 0
9900.5 0
9901.5 0
9902.5 0
9903.5 0
9904.5 1
9905.5 0
9906.5 0
9907.5 0
9908.5 0
9909.5 0
9910.5 0
9911.5 0
9912.5 0
9913.5 0
9914.5 0
9915.5 0
9916.5 1
9917.5 0
9918.5 1
9919.5 0
9920.5 0
9921.5 0
9922.5 0
9923.5 0
9924.5 0
9925.5 0
9926.5 0
9927.5 0
9928.5 0
9929.5 0
9930.5 0
9931.5 0
9932.5 0
9933.5 0
9934.5 0
9935.5 0
9936.5 0
9937.5 0
9938.5 0
9939.5 0
9940.5 0
9941.5 0
9942.5 0
9943.5 0
9944.5 0
9945.5 1
9946.5 0
9947.5 0
9948.5 0
9949.5 0
9950.5 0
9951.5 0
9952.5 0
9953.5 0
9954.5 -0.857143
9955.5 0
9956.5 0
9957.5 0
9958.5 0
9959.5 0
9960.5 0
9961.5 0
9962.5 0
9963.5 0
9964.5 0
9965.5 -0.857143
9966.5 0
9967.5 0
9968.5 0
9969.5 0
9970.5 -0.857143
9971.5 0
9972.5 0
9973.5 0
9974.5 0
9975.5 0
9976.5 0
9977.5 0
9978.5 0
9979.5 0
9980.5 0
9981.5 0
9982.5 0
9983.5 0
9984.5 0
9985.5 1
9986.5 0
9987.5 0
9988.5 0
9989.5 0
9990.5 0
9991.5 0
9992.5 0
9993.5 0
9994.5 0
9995.5 0
9996.5 0
9997.5 0
9998.5 0
9999.5 0
10000.5 0
10001.5 0
10002.5 0
10003.5 0
10004.5 0
10005.5 0
10006.5 0
10007.5 0
10008.5 0
10009.5 0
10010.5 0
10011.5 0
10012.5 1
10013.5 0
10014.5 0
10015.5 0
10016.5 0
10017.5 0
10018.5 0
10019.5 0
10020.5 0
10021.5 0
10022.5 0
10023.5 0
10024.5 0
10025.5 0
10026.5 0
10027.5 0
10028.5 0
10029.5 0
10030.5 0
10031.5 0
10032.5 0
10033.5 0
10034.5 0
10035.5 0
10036.5 0
10037.5 0
10038.5 0
10039.5 0
10040.5 0
10041.5 0
10042.5 0
10043.5 0
10044.5 0
10045.5 0
10046.5 0
10047.5 0
10048.5 0
10049.5 0
10050.5 0
10051.5 0
10052.5 0
10053.5 0
10054.5 0
10055.5 0
10056.5 0
10057.5 0
10058.5 1
10059.5 0
10060.5 -0.857143
10061.5 0
10062.5 1
10063.5 0
10064.5 0
10065.5 0
10066.5 0
10067.5 0
10068.5 0
10069.5 0
10070.5 0
10071.5 0
10072.5 0
10073.5 0
10074.5 0
10075.5 0
10076.5 0
10077.5 0
10078.5 0
10079.5 0
10080.5 0
10081.5 0
10082.5 0
10083.5 0
10084.5 0
10085.5 0
10086.5 0
10087.5 0
10088.5 0
10089.5 0
10090.5 0
10091.5 0
10092.5 0
10093.5 0
10094.5 0
10095.5 0
10096.5 0
10097.5 0
10098.5 0
10099.5 0
10100.5 0
10101.5 0
10102.5 0
10103.5 0
10104.5 0
10105.5 0
10106.5 0
10107.5 0
10108.5 0
10109.5 0
10110.5 0
10111.5 0
10112.5 0
10113.5 0
10114.5 0
10115.5 0
10116.5 0
10117.5 0
10118.5 0
10119.5 -0.857143
10120.5 0
10121.5 0
10122.5 0
10123.5 0
10124.5 0
10125.5 0
10126.5 0
10127.5 0
10128.5 0
10129.5 0
10130.5 0
10131.5 0
10132.5 0
10133.5 0
10134.5 0
10135.5 0
10136.5 0
10137.5 0
10138.5 0
10139.5 0
10140.5 0
10141.5 -0.857143
10142.5 0
10143.5 0
10144.5 0
10145.5 0
10146.5 0
10147.5 0
10148.5 0
10149.5 0
10150.5 0
10151.5 0
10152.5 0
10153.5 0
10154.5 0
10155.5 0
10156.5 0
10157.5 0
10158.5 0
10159.5 1
10160.5 0
10161.5 0
10162.5 0
10163.5 0
10164.5 0
10165.5 0
10166.5 0
10167.5 0
10168.5 0
10169.5 0
10170.5 0
10171.5 0
10172.5 0
10173.5 0
10174.5 0
10175.5 0
10176.5 0
10177.5 0
10178.5 0
10179.5 0
10180.5 0
10181.5 0
10182.5 0
10183.5 0
10184.5 0
10185.5 0
10186.5 0
10187.5 0
10188.5 0
10189.5 0
10190.5 -0.857143
10191.5 0
10192.5 0
10193.5 0
10194.5 0
10195.5 0
10196.5 0
10197.5 0
10198.5 0
10199.5 0
10200.5 0
10201.5 0
10202.5 0
10203.5 -0.857143
10204.5 0
10205.5 0
10206.5 0
10207.5 0
10208.5 0
10209.5 0
10210.5 0
10211.5 0
10212.5 0
10213.5 0
10214.5 0
10215.5 0
10216.5 0
10217.5 0
10218.5 0
10219.5 0
10220.5 0
10221.5 0
10222.5 0
10223.5 0
10224.5 0
10225.5 0
10226.5 0
10227.5 0
10228.5 0
10229.5 0
10230.5 0
10231.5 0
10232.5 0
10233.5 0
10234.5 0
10235.5 0
10236.5 0
10237.5 0
10238.5 0
10239.5 0
10240.5 0
10241.5 0
10242.5 0
10243.5 0
10244.5 0
10245.5 0
10246.5 0
10247.5 0
10248.5 0
10249.5 0
10250.5 0
10251.5 0
10252.5 0
10253.5 0
10254.5 0
10255.5 0
10256.5 0
10257.5 0
10258.5 0
10259.5 0
10260.5 0
10261.5 0
10262.5 0
10263.5 0
10264.5 0
10265.5 0
10266.5 0
10267.5 0
10268.5 0
10269.5 1
10270.5 0
10271.5 0
10272.5 0
10273.5 0
10274.5 0
10275.5 0
10276.5 0
10277.5 0
10278.5 0
10279.5 0
10280.5 0
10281.5 0
10282.5 0
10283.5 0
10284.5 0
10285.5 0
10286.5 0
10287.5 0
10288.5 0
10289.5 0
10290.5 0
10291.5 0
10292.5 0
10293.5 0
10294.5 0
10295.5 0
10296.5 0
10297.5 0
10298.5 0
10299.5 0
10300.5 0
10301.5 0
10302.5 0
10303.5 0
10304.5 0
10305.5 0
10306.5 0
10307.5 0
10308.5 0
10309.5 0
10310.5 0
10311.5 0
10312.5 0
10313.5 0
10314.5 0
10315.5 0
10316.5 0
10317.5 0
10318.5 0
10319.5 1
10320.5 0
10321.5 0
10322.5 0
10323.5 0
10324.5 0
10325.5 0
10326.5 0
10327.5 0
10328.5 0
10329.5 0
10330.5 0
10331.5 0
10332.5 0
10333.5 0
10334.5 0
10335.5 0
10336.5 0
10337.5 0
10338.5 0
10339.5 1
10340.5 0
10341.5 0
10342.5 0
10343.5 0
10344.5 -0.857143
10345.5 0
10346.5 0
10347.5 0
10348.5 0
10349.5 0
10350.5 0
10351.5 0
10352.5 0
10353.5 0
10354.5 0
10355.5 0
10356.5 0
10357.5 0
10358.5 0
10359.5 0
10360.5 0
10361.5 0
10362.5 0
10363.5 0
10364.5 0
10365.5 1
10366.5 0
10367.5 0
10368.5 0
10369.5 0
10370.5 0
10371.5 0
10372.5 0
10373.5 0
10374.5 0
10375.5 0
10376.5 0
10377.5 0
10378.5 0
10379.5 0
10380.5 0
10381.5 0
10382.5 0
10383.5 0
10384.5 0
10385.5 0
10386.5 0
10387.5 -0.857143
10388.5 0
10389.5 0
10390.5 0
10391.5 0
10392.5 0
10393.5 -0.857143
10394.5 0
10395.5 0
10396.5 0
10397.5 0
10398.5 0
10399.5 0
10400.5 0
10401.5 0
10402.5 0
10403.5 1
10404.5 0
10405.5 0
10406.5 1
10407.5 0
10408.5 0
10409.5 0
10410.5 0
10411.5 0
10412.5 0
10413.5 0
10414.5 0
10415.5 0
10416.5 0
10417.5 0
10418.5 0
10419.5 0
10420.5 0
10421.5 0
10422.5 0
10423.5 0
10424.5 0
10425.5 0
10426.5 0
10427.5 0
10428.5 0
10429.5 0
10430.5 0
10431.5 0
10432.5 0
10433.5 0
10434.5 0
10435.5 0
10436.5 0
10437.5 0
10438.5 0
10439.5 0
10440.5 0
10441.5 0
10442.5 0
10443.5 0
10444.5 0
10445.5 0
10446.5 0
10447.5 0
10448.5 0
10449.5 0
10450.5 0
10451.5 0
10452.5 0
10453.5 0
10454.5 0
10455.5 0
10456.5 0
10457.5 0
10458.5 1
10459.5 0
10460.5 0
10461.5 0
10462.5 0
10463.5 0
10464.5 0
10465.5 0
10466.5 0
10467.5 0
10468.5 0
10469.5 0
10470.5 0
10471.5 0
10472.5 0
10473.5 0
10474.5 0
10475.5 0
10476.5 0
10477.5 0
10478.5 0
10479.5 0
10480.5 0
10481.5 0
10482.5 1
10483.5 0
10484.5 0
10485.5 0
10486.5 0
10487.5 0
10488.5 0
10489.5 0
10490.5 0
10491.5 0
10492.5 0
10493.5 0
10494.5 0
10495.5 0
10496.5 0
10497.5 0
10498.5 0
10499.5 0
10500.5 0
10501.5 0
10502.5 0
10503.5 0
10504.5 0
10505.5 0
10506.5 0
10507.5 0
10508.5 0
10509.5 0
10510.5 0
10511.5 0
10512.5 0
10513.5 0
10514.5 0
10515.5 0
10516.5 0
10517.5 0
10518.5 0
10519.5 0
10520.5 0
10521.5 0
10522.5 0
10523.5 0
10524.5 0
10525.5 0
10526.5 0
10527.5 0
10528.5 0
10529.5 0
10530.5 0
10531.5 0
10532.5 0
10533.5 0
10534.5 0
10535.5 0
10536.5 0
10537.5 0
10538.5 0
10539.5 0
10540.5 0
10541.5 0
10542.5 0
10543.5 0
10544.5 0
10545.5 0
10546.5 0
10547.5 0
10548.5 0
10549.5 0
10550.5 0
10551.5 0
10552.5 0
10553.5 0
10554.5 0
10555.5 0
10556.5 0
10557.5 0
10558.5 0
10559.5 0
10560.5 0
10561.5 0
10562.5 0
10563.5 0
10564.5 0
10565.5 0
10566.5 0
10567.5 0
10568.5 0
10569.5 0
10570.5 0
10571.5 0
10572.5 0
10573.5 0
10574.5 0
10575.5 0
10576.5 0
10577.5 0
10578.5 0
10579.5 0
10580.5 0
10581.5 0
10582.5 0
10583.5 0
10584.5 0
10585.5 0
10586.5 0
10587.5 0
10588.5 0
10589.5 0
10590.5 0
10591.5 0
10592.5 0
10593.5 0
10594.5 0
10595.5 0
10596.5 0
10597.5 0
10598.5 0
10599.5 0
10600.5 0
10601.5 0
10602.5 0
10603.5 0
10604.5 0
10605.5 0
10606.5 0
10607.5 0
10608.5 0
10609.5 0
10610.5 0
10611.5 0
10612.5 0
10613.5 0
10614.5 0
10615.5 0
10616.5 0
10617.5 0
10618.5 0
10619.5 0
10620.5 0
10621.5 0
10622.5 0
10623.5 0
10624.5 0
10625.5 0
10626.5 0
10627.5 0
10628.5 0
10629.5 0
10630.5 0
10631.5 0
10632.5 0
10633.5 0
10634.5 0
10635.5 0
10636.5 0
10637.5 0
10638.5 0
10639.5 0
10640.5 0
10641.5 0
10642.5 0
10643.5 0
10644.5 0
10645.5 0
10646.5 0
10647.5 0
10648.5 0
10649.5 0
10650.5 0
10651.5 0
10652.5 0
10653.5 0
10654.5 0
10655.5 0
10656.5 0
10657.5 0
10658.5 0
10659.5 0
10660.5 0
10661.5 0
10662.5 0
10663.5 0
10664.5 0
10665.5 0
10666.5 0
10667.5 0
10668.5 0
10669.5 0
10670.5 0
10671.5 0
10672.5 0
10673.5 0
10674.5 0
10675.5 0
10676.5 0
10677.5 0
10678.5 0
10679.5 0
10680.5 0
10681.5 0
10682.5 0
10683.5 0
10684.5 0
10685.5 0
10686.5 0
10687.5 0
10688.5 0
10689.5 0
10690.5 0
10691.5 0
10692.5 0
10693.5 0
10694.5 0
10695.5 0
10696.5 0
10697.5 0
10698.5 0
10699.5 0
10700.5 0
10701.5 0
10702.5 0
10703.5 0
10704.5 0
10705.5 0
10706.5 0
10707.5 0
10708.5 0
10709.5 0
10710.5 0
10711.5 0
10712.5 0
10713.5 0
10714.5 0
10715.5 0
10716.5 0
10717.5 0
10718.5 0
10719.5 0
10720.5 0
10721.5 0
10722.5 0
10723.5 0
10724.5 0
10725.5 0
10726.5 0
10727.5 0
10728.5 0
10729.5 0
10730.5 0
10731.5 0
10732.5 0
10733.5 0
10734.5 0
10735.5 0
10736.5 0
10737.5 0
10738.5 0
10739.5 0
10740.5 0
10741.5 0
10742.5 0
10743.5 0
10744.5 0
10745.5 0
10746.5 0
10747.5 0
10748.5 0
10749.5 0
10750.5 0
10751.5 0
10752.5 0
10753.5 0
10754.5 0
10755.5 0
10756.5 0
10757.5 0
10758.5 0
10759.5 0
10760.5 0
10761.5 0
10762.5 0
10763.5 0
10764.5 0
10765.5 0
10766.5 0
10767.5 0
10768.5 0
10769.5 0
10770.5 1
10771.5 0
10772.5 0
10773.5 0
10774.5 0
10775.5 0
10776.5 0
10777.5 0
10778.5 0
10779.5 0
10780.5 0
10781.5 0
10782.5 0
10783.5 0
10784.5 0
10785.5 0
10786.5 0
10787.5 0
10788.5 0
10789.5 0
10790.5 0
10791.5 0
10792.5 0
10793.5 0
10794.5 0
10795.5 0
10796.5 0
10797.5 0
10798.5 0
10799.5 0
10800.5 0
10801.5 0
10802.5 0
10803.5 0
10804.5 0
10805.5 0
10806.5 0
10807.5 0
10808.5 0
10809.5 0
10810.5 0
10811.5 0
10812.5 0
10813.5 0
10814.5 0
10815.5 0
10816.5 0
10817.5 0
10818.5 0
10819.5 0
10820.5 0
10821.5 0
10822.5 0
10823.5 0
10824.5 0
10825.5 0
10826.5 0
10827.5 0
10828.5 0
10829.5 1
10830.5 0
10831.5 0
10832.5 0
10833.5 0
10834.5 0
10835.5 0
10836.5 0
10837.5 0
10838.5 0
10839.5 0
10840.5 0
10841.5 0
10842.5 0
10843.5 0
10844.5 0
10845.5 0
10846.5 0
10847.5 0
10848.5 0
10849.5 0
10850.5 1
10851.5 0
10852.5 0
10853.5 0
10854.5 0
10855.5 0
10856.5 0
10857.5 -0.857143
10858.5 0
10859.5 0
10860.5 0
10861.5 0
10862.5 0
10863.5 0
10864.5 0
10865.5 0
10866.5 0
10867.5 0
10868.5 0
10869.5 0
10870.5 0
10871.5 0
10872.5 0
10873.5 0
10874.5 0
10875.5 0
10876.5 0
10877.5 0
10878.5 0
10879.5 0
10880.5 0
10881.5 0
10882.5 0
10883.5 0
10884.5 0
10885.5 0
10886.5 0
10887.5 0
10888.5 0
10889.5 0
10890.5 0
10891.5 0
10892.5 0
10893.5 0
10894.5 0
10895.5 0
10896.5 0
10897.5 0
10898.5 0
10899.5 0
10900.5 0
10901.5 0
10902.5 0
10903.5 0
10904.5 0
10905.5 0
10906.5 0
10907.5 0
10908.5 0
10909.5 0
10910.5 0
10911.5 0
10912.5 0
10913.5 0
10914.5 0
10915.5 0
10916.5 0
10917.5 0
10918.5 0
10919.5 0
10920.5 0
10921.5 0
10922.5 0
10923.5 0
10924.5 0
10925.5 0
10926.5 0
10927.5 0
10928.5 0
10929.5 0
10930.5 0
10931.5 0
10932.5 0
10933.5 0
10934.5 0
10935.5 0
10936.5 0
10937.5 1
10938.5 0
10939.5 0
10940.5 0
10941.5 0
10942.5 0
10943.5 0
10944.5 0
10945.5 0
10946.5 0
10947.5 0
10948.5 0
10949.5 0
10950.5 0
10951.5 0
10952.5 0
10953.5 0
10954.5 0
10955.5 0
10956.5 0
10957.5 0
10958.5 0
10959.5 0
10960.5 0
10961.5 0
10962.5 0
10963.5 0
10964.5 -0.857143
10965.5 0
10966.5 0
10967.5 0
10968.5 0
10969.5 0
10970.5 0
10971.5 0
10972.5 0
10973.5 0
10974.5 0
10975.5 0
10976.5 0
10977.5 0
10978.5 0
10979.5 0
10980.5 0
10981.5 0
10982.5 0
10983.5 0
10984.5 0
10985.5 0
10986.5 0
10987.5 0
10988.5 0
10989.5 0
10990.5 0
10991.5 0
10992.5 0
10993.5 0
10994.5 0
10995.5 0
10996.5 0
10997.5 0
10998.5 0
10999.5 0
11000.5 0
11001.5 0
11002.5 0
11003.5 0
11004.5 0
11005.5 0
11006.5 0
11007.5 0
11008.5 0
11009.5 0
11010.5 0
11011.5 0
11012.5 0
11013.5 0
11014.5 0
11015.5 0
11016.5 0
11017.5 0
11018.5 0
11019.5 0
11020.5 0
11021.5 0
11022.5 0
11023.5 0
11024.5 0
11025.5 0
11026.5 0
11027.5 0
11028.5 0
11029.5 0
11030.5 0
11031.5 0
11032.5 0
11033.5 0
11034.5 0
11035.5 0
11036.5 0
11037.5 0
11038.5 0
11039.5 0
11040.5 0
11041.5 0
11042.5 0
11043.5 0
11044.5 0
11045.5 0
11046.5 0
11047.5 0
11048.5 0
11049.5 0
11050.5 0
11051.5 0
11052.5 0
11053.5 0
11054.5 0
11055.5 0
11056.5 0
11057.5 0
11058.5 0
11059.5 0
11060.5 0
11061.5 0
11062.5 0
11063.5 0
11064.5 0
11065.5 0
11066.5 0
11067.5 0
11068.5 0
11069.5 0
11070.5 0
11071.5 0
11072.5 0
11073.5 0
11074.5 0
11075.5 0
11076.5 0
11077.5 0
11078.5 0
11079.5 0
11080.5 0
11081.5 0
11082.5 0
11083.5 0
11084.5 0
11085.5 0
11086.5 0
11087.5 0
11088.5 0
11089.5 0
11090.5 0
11091.5 0
11092.5 0
11093.5 0
11094.5 0
11095.5 0
11096.5 0
11097.5 0
11098.5 0
11099.5 1
11100.5 0
11101.5 0
11102.5 0
11103.5 0
11104.5 0
11105.5 0
11106.5 0
11107.5 0
11108.5 0
11109.5 0
11110.5 0
11111.5 0
11112.5 0
11113.5 0
11114.5 0
11115.5 0
11116.5 0
11117.5 0
11118.5 0
11119.5 0
11120.5 0
11121.5 0
11122.5 0
11123.5 0
11124.5 0
11125.5 0
11126.5 0
11127.5 0
11128.5 0
11129.5 0
11130.5 0
11131.5 0
11132.5 0
11133.5 0
11134.5 0
11135.5 0
11136.5 0
11137.5 0
11138.5 0
11139.5 0
11140.5 -0.857143
11141.5 0
11142.5 0
11143.5 0
11144.5 0
11145.5 0
11146.5 0
11147.5 0
11148.5 0
11149.5 0
11150.5 0
11151.5 0
11152.5 0
11153.5 0
11154.5 0
11155.5 0
11156.5 0
11157.5 0
11158.5 0
11159.5 0
11160.5 0
11161.5 0
11162.5 0
11163.5 0
11164.5 0
11165.5 0
11166.5 0
11167.5 0
11168.5 0
11169.5 0
11170.5 0
11171.5 0
11172.5 0
11173.5 0
11174.5 0
11175.5 0
11176.5 0
11177.5 0
11178.5 0
11179.5 0
11180.5 0
11181.5 0
11182.5 0
11183.5 0
11184.5 0
11185.5 0
11186.5 0
11187.5 0
11188.5 0
11189.5 0
11190.5 0
11191.5 0
11192.5 0
11193.5 0
11194.5 0
11195.5 0
11196.5 0
11197.5 0
11198.5 0
11199.5 0
11200.5 0
11201.5 0
11202.5 0
11203.5 0
11204.5 0
11205.5 0
11206.5 0
11207.5 0
11208.5 0
11209.5 0
11210.5 0
11211.5 0
11212.5 0
11213.5 0
11214.5 0
11215.5 0
11216.5 0
11217.5 0
11218.5 0
11219.5 0
11220.5 0
11221.5 0
11222.5 0
11223.5 0
11224.5 0
11225.5 0
11226.5 0
11227.5 0
11228.5 0
11229.5 0
11230.5 0
11231.5 0
11232.5 0
11233.5 0
11234.5 0
11235.5 0
11236.5 0
11237.5 0
11238.5 0
11239.5 0
11240.5 0
11241.5 0
11242.5 0
11243.5 0
11244.5 0
11245.5 0
11246.5 0
11247.5 0
11248.5 0
11249.5 0
11250.5 0
11251.5 0
11252.5 0
11253.5 0
11254.5 0
11255.5 0
11256.5 0
11257.5 0
11258.5 0
11259.5 0
11260.5 0
11261.5 0
11262.5 0
11263.5 0
11264.5 0
11265.5 0
11266.5 0
11267.5 0
11268.5 0
11269.5 0
11270.5 0
11271.5 0
11272.5 0
11273.5 0
11274.5 0
11275.5 0
11276.5 0
11277.5 0
11278.5 0
11279.5 0
11280.5 0
11281.5 0
11282.5 0
11283.5 0
11284.5 0
11285.5 0
11286.5 0
11287.5 0
11288.5 0
11289.5 0
11290.5 0
11291.5 0
11292.5 0
11293.5 0
11294.5 0
11295.5 0
11296.5 0
11297.5 0
11298.5 0
11299.5 0
11300.5 0
11301.5 0
11302.5 0
11303.5 0
11304.5 0
11305.5 0
11306.5 0
11307.5 0
11308.5 0
11309.5 0
11310.5 0
11311.5 0
11312.5 0
11313.5 0
11314.5 0
11315.5 0
11316.5 0
11317.5 0
11318.5 0
11319.5 0
11320.5 0
11321.5 0
11322.5 0
11323.5 0
11324.5 0
11325.5 0
11326.5 0
11327.5 0
11328.5 0
11329.5 0
11330.5 0
11331.5 0
11332.5 0
11333.5 0
11334.5 0
11335.5 0
11336.5 0
11337.5 0
11338.5 0
11339.5 0
11340.5 0
11341.5 0
11342.5 0
11343.5 0
11344.5 0
11345.5 0
11346.5 0
11347.5 0
11348.5 0
11349.5 0
11350.5 0
11351.5 0
11352.5 0
11353.5 0
11354.5 0
11355.5 0
11356.5 0
11357.5 0
11358.5 0
11359.5 0
11360.5 0
11361.5 0
11362.5 0
11363.5 0
11364.5 0
11365.5 0
11366.5 0
11367.5 0
11368.5 0
11369.5 0
11370.5 0
11371.5 0
11372.5 0
11373.5 0
11374.5 0
11375.5 0
11376.5 0
11377.5 0
11378.5 0
11379.5 0
11380.5 0
11381.5 0
11382.5 0
11383.5 0
11384.5 0
11385.5 0
11386.5 0
11387.5 0
11388.5 0
11389.5 0
11390.5 0
11391.5 0
11392.5 0
11393.5 0
11394.5 0
11395.5 0
11396.5 0
11397.5 0
11398.5 0
11399.5 0
11400.5 0
11401.5 0
11402.5 0
11403.5 0
11404.5 0
11405.5 0
11406.5 0
11407.5 0
11408.5 0
11409.5 0
11410.5 0
11411.5 0
11412.5 0
11413.5 0
11414.5 0
11415.5 0
11416.5 0
11417.5 0
11418.5 0
11419.5 0
11420.5 0
11421.5 -0.857143
11422.5 0
11423.5 0
11424.5 0
11425.5 0
11426.5 0
11427.5 0
11428.5 0
11429.5 0
11430.5 0
11431.5 0
11432.5 0
11433.5 0
11434.5 0
11435.5 0
11436.5 0
11437.5 0
11438.5 0
11439.5 0
11440.5 1
11441.5 0
11442.5 0
11443.5 0
11444.5 0
11445.5 0
11446.5 0
11447.5 0
11448.5 0
11449.5 0
11450.5 0
11451.5 0
11452.5 0
11453.5 0
11454.5 0
11455.5 0
11456.5 0
11457.5 0
11458.5 0
11459.5 0
11460.5 0
11461.5 0
11462.5 0
11463.5 0
11464.5 0
11465.5 0
11466.5 0
11467.5 0
11468.5 0
11469.5 0
11470.5 0
11471.5 0
11472.5 0
11473.5 0
11474.5 0
11475.5 0
11476.5 0
11477.5 0
11478.5 0
11479.5 0
11480.5 0
11481.5 0
11482.5 0
11483.5 0
11484.5 0
11485.5 0
11486.5 0
11487.5 0
11488.5 0
11489.5 0
11490.5 0
11491.5 0
11492.5 0
11493.5 0
11494.5 0
11495.5 0
11496.5 0
11497.5 0
11498.5 0
11499.5 0
11500.5 0
11501.5 0
11502.5 0
11503.5 0
11504.5 0
11505.5 0
11506.5 0
11507.5 0
11508.5 0
11509.5 0
11510.5 0
11511.5 0
11512.5 0
11513.5 0
11514.5 0
11515.5 0
11516.5 0
11517.5 0
11518.5 0
11519.5 0
11520.5 0
11521.5 0
11522.5 0
11523.5 0
11524.5 0
11525.5 0
11526.5 0
11527.5 0
11528.5 0
11529.5 0
11530.5 0
11531.5 0
11532.5 0
11533.5 0
11534.5 0
11535.5 0
11536.5 0
11537.5 0
11538.5 0
11539.5 0
11540.5 0
11541.5 0
11542.5 -0.857143
11543.5 0
11544.5 0
11545.5 0
11546.5 0
11547.5 0
11548.5 0
11549.5 0
11550.5 0
11551.5 0
11552.5 0
11553.5 0
11554.5 0
11555.5 0
11556.5 0
11557.5 -0.857143
11558.5 0
11559.5 0
11560.5 0
11561.5 0
11562.5 0
11563.5 0
11564.5 0
11565.5 0
11566.5 0
11567.5 0
11568.5 0
11569.5 0
11570.5 0
11571.5 0
11572.5 0
11573.5 0
11574.5 0
11575.5 0
11576.5 0
11577.5 0
11578.5 0
11579.5 0
11580.5 0
11581.5 0
11582.5 0
11583.5 0
11584.5 0
11585.5 0
11586.5 0
11587.5 0
11588.5 0
11589.5 0
11590.5 0
11591.5 0
11592.5 0
11593.5 0
11594.5 0
11595.5 0
11596.5 0
11597.5 0
11598.5 0
11599.5 0
11600.5 0
11601.5 0
11602.5 0
11603.5 0
11604.5 0
11605.5 0
11606.5 0
11607.5 0
11608.5 0
11609.5 0
11610.5 0
11611.5 0
11612.5 0
11613.5 0
11614.5 0
11615.5 0
11616.5 0
11617.5 0
11618.5 0
11619.5 0
11620.5 0
11621.5 0
11622.5 0
11623.5 0
11624.5 0
11625.5 0
11626.5 0
11627.5 0
11628.5 0
11629.5 0
11630.5 0
11631.5 0
11632.5 0
11633.5 0
11634.5 0
11635.5 0
11636.5 0
11637.5 0
11638.5 0
11639.5 0
11640.5 0
11641.5 0
11642.5 0
11643.5 0
11644.5 0
11645.5 0
11646.5 0
11647.5 0
11648.5 0
11649.5 0
11650.5 0
11651.5 0
11652.5 0
11653.5 0
11654.5 0
11655.5 0
11656.5 0
11657.5 0
11658.5 0
11659.5 0
11660.5 0
11661.5 0
11662.5 0
11663.5 0
11664.5 0
11665.5 0
11666.5 0
11667.5 0
11668.5 0
11669.5 0
11670.5 0
11671.5 0
11672.5 0
11673.5 0
11674.5 0
11675.5 0
11676.5 0
11677.5 0
11678.5 0
11679.5 0
11680.5 0
11681.5 0
11682.5 0
11683.5 0
11684.5 0
11685.5 0
11686.5 0
11687.5 0
11688.5 0
11689.5 0
11690.5 0
11691.5 0
11692.5 0
11693.5 0
11694.5 0
11695.5 0
11696.5 0
11697.5 0
11698.5 0
11699.5 0
11700.5 0
11701.5 0
11702.5 0
11703.5 0
11704.5 0
11705.5 0
11706.5 0
11707.5 0
11708.5 0
11709.5 0
11710.5 0
11711.5 0
11712.5 0
11713.5 0
11714.5 0
11715.5 0
11716.5 0
11717.5 0
11718.5 0
11719.5 0
11720.5 0
11721.5 0
11722.5 0
11723.5 0
11724.5 0
11725.5 0
11726.5 0
11727.5 0
11728.5 0
11729.5 0
11730.5 0
11731.5 0
11732.5 0
11733.5 0
11734.5 0
11735.5 0
11736.5 0
11737.5 0
11738.5 0
11739.5 0
11740.5 0
11741.5 0
11742.5 0
11743.5 0
11744.5 0
11745.5 0
11746.5 0
11747.5 0
11748.5 0
11749.5 0
11750.5 0
11751.5 0
11752.5 0
11753.5 0
11754.5 0
11755.5 0
11756.5 0
11757.5 0
11758.5 0
11759.5 0
11760.5 0
11761.5 0
11762.5 0
11763.5 0
11764.5 0
11765.5 0
11766.5 0
11767.5 0
11768.5 0
11769.5 0
11770.5 0
11771.5 0
11772.5 0
11773.5 0
11774.5 0
11775.5 0
11776.5 0
11777.5 0
11778.5 0
11779.5 0
11780.5 0
11781.5 0
11782.5 0
11783.5 0
11784.5 0
11785.5 0
11786.5 0
11787.5 0
11788.5 0
11789.5 0
11790.5 0
11791.5 0
11792.5 0
11793.5 0
11794.5 0
11795.5 0
11796.5 0
11797.5 0
11798.5 0
11799.5 0
11800.5 0
11801.5 0
11802.5 0
11803.5 0
11804.5 0
11805.5 0
11806.5 0
11807.5 0
11808.5 0
11809.5 0
11810.5 0
11811.5 0
11812.5 0
11813.5 0
11814.5 0
11815.5 0
11816.5 0
11817.5 0
11818.5 0
11819.5 0
11820.5 0
11821.5 0
11822.5 0
11823.5 0
11824.5 0
11825.5 0
11826.5 0
11827.5 0
11828.5 0
11829.5 0
11830.5 0
11831.5 0
11832.5 0
11833.5 0
11834.5 0
11835.5 0
11836.5 0
11837.5 0
11838.5 0
11839.5 0
11840.5 0
11841.5 0
11842.5 0
11843.5 0
11844.5 0
11845.5 0
11846.5 0
11847.5 0
11848.5 0
11849.5 0
11850.5 0
11851.5 0
11852.5 0
11853.5 0
11854.5 0
11855.5 0
11856.5 0
11857.5 0
11858.5 0
11859.5 0
11860.5 0
11861.5 0
11862.5 0
11863.5 0
11864.5 0
11865.5 0
11866.5 0
11867.5 0
11868.5 0
11869.5 0
11870.5 0
11871.5 0
11872.5 0
11873.5 0
11874.5 0
11875.5 0
11876.5 0
11877.5 0
11878.5 0
11879.5 0
11880.5 0
11881.5 0
11882.5 0
11883.5 0
11884.5 0
11885.5 0
11886.5 0
11887.5 0
11888.5 0
11889.5 0
11890.5 0
11891.5 0
11892.5 0
11893.5 0
11894.5 0
11895.5 0
11896.5 0
11897.5 0
11898.5 0
11899.5 0
11900.5 0
11901.5 0
11902.5 0
11903.5 0
11904.5 0
11905.5 0
11906.5 0
11907.5 0
11908.5 0
11909.5 0
11910.5 0
11911.5 0
11912.5 0
11913.5 0
11914.5 0
11915.5 0
11916.5 0
11917.5 0
11918.5 0
11919.5 0
11920.5 0
11921.5 0
11922.5 0
11923.5 0
11924.5 0
11925.5 0
11926.5 0
11927.5 0
11928.5 0
11929.5 0
11930.5 0
11931.5 0
11932.5 0
11933.5 0
11934.5 0
11935.5 0
11936.5 0
11937.5 0
11938.5 0
11939.5 0
11940.5 0
11941.5 0
11942.5 0
11943.5 0
11944.5 0
11945.5 0
11946.5 0
11947.5 0
11948.5 0
11949.5 0
11950.5 0
11951.5 0
11952.5 0
11953.5 0
11954.5 0
11955.5 0
11956.5 1
11957.5 0
11958.5 0
11959.5 0
11960.5 0
11961.5 0
11962.5 0
11963.5 0
11964.5 0
11965.5 0
11966.5 0
11967.5 0
11968.5 0
11969.5 0
11970.5 0
11971.5 0
11972.5 0
11973.5 0
11974.5 0
11975.5 0
11976.5 0
11977.5 0
11978.5 0
11979.5 0
11980.5 0
11981.5 0
11982.5 0
11983.5 0
11984.5 0
11985.5 0
11986.5 0
11987.5 0
11988.5 0
11989.5 0
11990.5 0
11991.5 0
11992.5 0
11993.5 0
11994.5 0
11995.5 0
11996.5 0
11997.5 0
11998.5 0
11999.5 0
