# EGG_ProjY_E4888.5(9.5)_B4862.5(3.5)_B4931.0(3.0)
# X axis : Energy (keV) [Y axis]
# Y axis : Counts/1 keV
# N Bins : 12000
# X Min : 0
# X Max : 12000
# X value at the center of the bins
0.5 0
1.5 0
2.5 0
3.5 0
4.5 0
5.5 227.846
6.5 186.846
7.5 74.6154
8.5 84.0769
9.5 109.308
10.5 179.308
11.5 159.231
12.5 108.308
13.5 140.308
14.5 187
15.5 229.846
16.5 229.923
17.5 254.846
18.5 394.154
19.5 501.154
20.5 471.923
21.5 470.615
22.5 592.692
23.5 522.462
24.5 699.538
25.5 786
26.5 898.846
27.5 918.538
28.5 1103.38
29.5 1135.15
30.5 1282.92
31.5 1026.08
32.5 1412.23
33.5 1416.69
34.5 1290.31
35.5 1227.77
36.5 1391
37.5 1420.08
38.5 1508.92
39.5 1547.38
40.5 1523.77
41.5 1592.15
42.5 1564.46
43.5 1550.15
44.5 1501.15
45.5 1588.77
46.5 1579.92
47.5 1680.69
48.5 1659.92
49.5 1536.85
50.5 1501.77
51.5 1467.69
52.5 1652.08
53.5 1626.46
54.5 1576
55.5 1539.77
56.5 1853.62
57.5 1806.69
58.5 2120.23
59.5 2245.54
60.5 2133.23
61.5 1812.15
62.5 1836.69
63.5 1754.15
64.5 1708.23
65.5 1737.15
66.5 1777.08
67.5 1740.46
68.5 2020.23
69.5 1670.62
70.5 1719.38
71.5 1932.77
72.5 1969.69
73.5 2279.77
74.5 2826.23
75.5 3086.54
76.5 3094.92
77.5 3548.92
78.5 2278.23
79.5 1867
80.5 1783.15
81.5 1804.23
82.5 1726.62
83.5 1790.46
84.5 1762.54
85.5 2055.54
86.5 2098.92
87.5 2626.62
88.5 2210.54
89.5 2134.77
90.5 2100.08
91.5 1897.46
92.5 1718.08
93.5 1765.69
94.5 1777.23
95.5 1876.69
96.5 1715.31
97.5 2058.23
98.5 1979.85
99.5 1839.08
100.5 1773.92
101.5 1894.92
102.5 1939.46
103.5 1861.77
104.5 1809.15
105.5 1876.38
106.5 1879.46
107.5 1921.46
108.5 2186.31
109.5 2025.31
110.5 2100.54
111.5 2014.15
112.5 1937.15
113.5 2186.77
114.5 2177.08
115.5 2128.54
116.5 1985.38
117.5 2226.15
118.5 2143.92
119.5 2290.08
120.5 2166.46
121.5 2411.31
122.5 2195.08
123.5 2097.23
124.5 2284.31
125.5 2594.69
126.5 2313.85
127.5 2179.92
128.5 2516.46
129.5 2432.62
130.5 2124
131.5 2246.46
132.5 2330.38
133.5 2301.54
134.5 2344.31
135.5 2419.31
136.5 2403.38
137.5 2348.62
138.5 2157.15
139.5 2240.23
140.5 2328.38
141.5 2198.31
142.5 2274.85
143.5 2399.38
144.5 2411.54
145.5 2630.77
146.5 2493.38
147.5 2438.85
148.5 2400.23
149.5 2581.08
150.5 2418.69
151.5 2569.38
152.5 2441.62
153.5 2567.23
154.5 2401
155.5 2437
156.5 2155.62
157.5 2371.85
158.5 2592.62
159.5 2493.23
160.5 2409.38
161.5 2424.23
162.5 2361.46
163.5 2501
164.5 2357.23
165.5 2351.77
166.5 2608.85
167.5 2261.08
168.5 2414.85
169.5 2456.85
170.5 2493.23
171.5 2460.08
172.5 2790.23
173.5 3077.23
174.5 3261.77
175.5 2983.85
176.5 2836.92
177.5 3022.54
178.5 2954
179.5 3016.77
180.5 3292.46
181.5 3128.77
182.5 3300.69
183.5 3131.46
184.5 3078.54
185.5 2906
186.5 3039.23
187.5 3178.23
188.5 3353
189.5 3056.85
190.5 3003.15
191.5 2914.23
192.5 2993.85
193.5 3110.54
194.5 3006.69
195.5 3272.31
196.5 2897.92
197.5 3088.15
198.5 2865.46
199.5 2910.92
200.5 2777.15
201.5 2688.31
202.5 3037.08
203.5 2739
204.5 2730.62
205.5 2769.08
206.5 2911.85
207.5 2969.38
208.5 3130.31
209.5 3064
210.5 3221.77
211.5 3346.46
212.5 3206
213.5 3164.69
214.5 3043.38
215.5 3162.85
216.5 3386.69
217.5 3375.54
218.5 3056.77
219.5 3232.77
220.5 3219.62
221.5 2966.46
222.5 3095.62
223.5 3109.46
224.5 2878.23
225.5 2829.69
226.5 2861.77
227.5 2869.77
228.5 2709.15
229.5 2881.38
230.5 2847
231.5 2732
232.5 2786.08
233.5 2582.54
234.5 2588.92
235.5 2874.85
236.5 2855.69
237.5 2728.62
238.5 2775.62
239.5 2888.69
240.5 2764.77
241.5 2880.08
242.5 2849.08
243.5 2943.62
244.5 2923.23
245.5 2996.08
246.5 2705.08
247.5 2835
248.5 2686.38
249.5 2930.15
250.5 2946.46
251.5 2734.46
252.5 2599.38
253.5 2661.54
254.5 2759.46
255.5 2715.46
256.5 2720.54
257.5 2677.62
258.5 2625.46
259.5 2600
260.5 2506.08
261.5 2371.69
262.5 2369.77
263.5 2661.85
264.5 2612.54
265.5 2691.08
266.5 2573
267.5 2659.15
268.5 2744.08
269.5 2419.38
270.5 2574.92
271.5 2479.31
272.5 2485.08
273.5 2677.85
274.5 2702.85
275.5 2402.69
276.5 2730.08
277.5 2726.46
278.5 2606.69
279.5 2767.46
280.5 2540.62
281.5 2511.77
282.5 2673.85
283.5 2594.77
284.5 2581
285.5 2716.62
286.5 2534.38
287.5 2504.77
288.5 2383.46
289.5 2084.69
290.5 2471.15
291.5 2331.38
292.5 2322.92
293.5 2308.69
294.5 2360.85
295.5 2172.92
296.5 2365
297.5 2429.08
298.5 2527.85
299.5 2532.31
300.5 2145.69
301.5 2414.08
302.5 2335.46
303.5 2496.54
304.5 2584.62
305.5 2570.62
306.5 2492
307.5 2540.15
308.5 2487
309.5 2433.08
310.5 2580.31
311.5 2554.38
312.5 2467.54
313.5 2383.85
314.5 2418.31
315.5 2355.54
316.5 2579.54
317.5 2491.85
318.5 2494.92
319.5 2491.38
320.5 2377.15
321.5 2616.31
322.5 2438.92
323.5 2471.31
324.5 2550.69
325.5 2341.31
326.5 2348.92
327.5 2233.77
328.5 2335.31
329.5 2201.23
330.5 2087.85
331.5 2052.38
332.5 1809.77
333.5 1908.85
334.5 2079.31
335.5 2047.31
336.5 2134.38
337.5 2321.85
338.5 1987.31
339.5 2023.23
340.5 2218.15
341.5 1961.08
342.5 1936.46
343.5 2012.15
344.5 1921.69
345.5 1883.62
346.5 1949.38
347.5 1879.23
348.5 1925.46
349.5 1767.46
350.5 1923.08
351.5 2053.15
352.5 1930.92
353.5 1873.92
354.5 1937.08
355.5 1877.46
356.5 1801.54
357.5 1677.46
358.5 1808.62
359.5 1753.38
360.5 1560.15
361.5 1806.46
362.5 1646.77
363.5 1820.54
364.5 1789.46
365.5 1757.08
366.5 1819.08
367.5 1870.15
368.5 1735.15
369.5 1950.77
370.5 1969.62
371.5 1708.31
372.5 1340.31
373.5 1679.38
374.5 1729.77
375.5 1441.69
376.5 1729.62
377.5 1575.23
378.5 1732.23
379.5 1700.46
380.5 1670.15
381.5 1717.08
382.5 1605.62
383.5 1460.31
384.5 1611.85
385.5 1465.46
386.5 1473.31
387.5 1643
388.5 1570.46
389.5 1437.54
390.5 1525.85
391.5 1634
392.5 1595.08
393.5 1383.46
394.5 1533.08
395.5 1377.46
396.5 1160.08
397.5 1332.08
398.5 1144
399.5 1209.23
400.5 1210.92
401.5 1220.08
402.5 1659.46
403.5 2396.31
404.5 2669.15
405.5 1789.38
406.5 1416.08
407.5 1374.23
408.5 1434.54
409.5 1467.46
410.5 1301.62
411.5 1323.46
412.5 1251.08
413.5 1276.54
414.5 1149.62
415.5 1107.62
416.5 1167.23
417.5 1187.54
418.5 1080.85
419.5 976.308
420.5 873.769
421.5 789.615
422.5 820.154
423.5 798.846
424.5 1009.77
425.5 1028.54
426.5 1109.85
427.5 1150.31
428.5 1295.54
429.5 1442.46
430.5 1259.15
431.5 1301.38
432.5 1295.38
433.5 1277.92
434.5 1374.69
435.5 1415.46
436.5 1428.77
437.5 1327.23
438.5 1338.08
439.5 1409.85
440.5 1376.85
441.5 1320.62
442.5 1436.46
443.5 1745.54
444.5 2240.08
445.5 1910.62
446.5 1396.38
447.5 1338.23
448.5 1301.08
449.5 1314.54
450.5 1152.69
451.5 1147.69
452.5 1121.15
453.5 980.231
454.5 945.769
455.5 984.462
456.5 1005.31
457.5 1106.46
458.5 1089.38
459.5 1229.08
460.5 1003.15
461.5 1293.15
462.5 1170.69
463.5 1077
464.5 1021.92
465.5 1063.77
466.5 1123.15
467.5 1179.23
468.5 1327.85
469.5 1214.92
470.5 1530.08
471.5 1452.15
472.5 1559.15
473.5 1560.85
474.5 1391.46
475.5 1393.08
476.5 1520.92
477.5 1366.77
478.5 1279.31
479.5 1352.08
480.5 1214.38
481.5 1139.92
482.5 1183.38
483.5 1150.62
484.5 1171.31
485.5 1109.08
486.5 987.615
487.5 1161.62
488.5 976.846
489.5 1001
490.5 1045.31
491.5 999.692
492.5 1145.77
493.5 1293.77
494.5 1318.23
495.5 1592.38
496.5 1580
497.5 1761.85
498.5 1811
499.5 2073.31
500.5 2199.92
501.5 1985.31
502.5 2424.08
503.5 2555.31
504.5 2861.54
505.5 4269.85
506.5 8904.31
507.5 14397.3
508.5 19938.9
509.5 23590.2
510.5 27032.6
511.5 22784.4
512.5 13552.3
513.5 5930.77
514.5 2837.85
515.5 1910.62
516.5 1508.46
517.5 1081.69
518.5 994
519.5 1181.92
520.5 1060.69
521.5 883.385
522.5 713.154
523.5 902.846
524.5 732.308
525.5 790.308
526.5 682.077
527.5 657.462
528.5 695.846
529.5 589
530.5 460.769
531.5 564.769
532.5 504
533.5 585.538
534.5 559.462
535.5 513.769
536.5 595.231
537.5 720.308
538.5 837.154
539.5 766
540.5 805.462
541.5 680.077
542.5 906
543.5 792.077
544.5 867.077
545.5 717
546.5 841.077
547.5 741.692
548.5 817.231
549.5 906.462
550.5 805.308
551.5 770.308
552.5 859
553.5 800.462
554.5 769.462
555.5 873.769
556.5 796
557.5 794.692
558.5 691.846
559.5 867.538
560.5 808.462
561.5 845
562.5 910.923
563.5 785
564.5 959
565.5 849.308
566.5 870.154
567.5 903.538
568.5 900.615
569.5 812.692
570.5 846.154
571.5 840.615
572.5 897.462
573.5 886.231
574.5 881.308
575.5 814.615
576.5 852.462
577.5 809.615
578.5 853.154
579.5 884.615
580.5 755.385
581.5 638.077
582.5 827.231
583.5 821.154
584.5 874.385
585.5 708.769
586.5 671.385
587.5 768.308
588.5 761.231
589.5 791.308
590.5 796.077
591.5 778.769
592.5 696.846
593.5 807.462
594.5 781.846
595.5 829.308
596.5 805.923
597.5 814.538
598.5 834.615
599.5 706.846
600.5 724.308
601.5 879.308
602.5 772.846
603.5 730.538
604.5 778.538
605.5 816.385
606.5 694.615
607.5 814.769
608.5 707.923
609.5 764.462
610.5 727.154
611.5 837.923
612.5 881.923
613.5 866.231
614.5 692.769
615.5 801.846
616.5 730.154
617.5 777.385
618.5 838
619.5 877.077
620.5 871.462
621.5 899.923
622.5 803.923
623.5 852.308
624.5 817.385
625.5 876.154
626.5 998.385
627.5 1098.85
628.5 1436.92
629.5 1167.92
630.5 952.692
631.5 848.154
632.5 877.385
633.5 823.615
634.5 913.923
635.5 918.462
636.5 950.462
637.5 1227.85
638.5 1015.62
639.5 824.385
640.5 751.385
641.5 805.538
642.5 751.154
643.5 826.846
644.5 823.923
645.5 829.615
646.5 760.385
647.5 783.923
648.5 682.846
649.5 742.846
650.5 901.308
651.5 824.923
652.5 787.923
653.5 656.308
654.5 719.462
655.5 837
656.5 719.308
657.5 760.692
658.5 789.923
659.5 657.462
660.5 736.846
661.5 770
662.5 718
663.5 802.846
664.5 919.769
665.5 799.154
666.5 810.308
667.5 640.462
668.5 713.923
669.5 699.769
670.5 784.692
671.5 740.615
672.5 724.769
673.5 739.231
674.5 757.538
675.5 733.923
676.5 764.154
677.5 661.462
678.5 719.308
679.5 730.692
680.5 691.077
681.5 798.769
682.5 806.923
683.5 741.846
684.5 784.462
685.5 818.462
686.5 897.615
687.5 804.846
688.5 746.846
689.5 767.692
690.5 908.615
691.5 896.923
692.5 730.615
693.5 684.308
694.5 793.385
695.5 781.308
696.5 831.615
697.5 863.154
698.5 878.769
699.5 847.308
700.5 697.923
701.5 831.154
702.5 737.846
703.5 725.154
704.5 866.308
705.5 797.769
706.5 825.308
707.5 868.615
708.5 750.385
709.5 883.769
710.5 834.846
711.5 750.462
712.5 664.385
713.5 758.385
714.5 727
715.5 630.154
716.5 777.462
717.5 751.846
718.5 744.385
719.5 620.769
720.5 746.077
721.5 754.385
722.5 792.769
723.5 696.769
724.5 784.231
725.5 911.154
726.5 1068.77
727.5 1306.23
728.5 914.077
729.5 853.615
730.5 816.385
731.5 687.154
732.5 751.308
733.5 772.462
734.5 691.692
735.5 789.077
736.5 851.077
737.5 749
738.5 823
739.5 689.385
740.5 722.231
741.5 805
742.5 778.077
743.5 711.154
744.5 666
745.5 802.308
746.5 779.154
747.5 824.615
748.5 812.692
749.5 830.308
750.5 789.923
751.5 834
752.5 841.385
753.5 730.769
754.5 813.615
755.5 896.231
756.5 868.923
757.5 863.231
758.5 1007
759.5 2426.23
760.5 5747.62
761.5 6047
762.5 2989
763.5 1172.31
764.5 819.846
765.5 797.231
766.5 720.769
767.5 758.077
768.5 827.308
769.5 803.308
770.5 723.385
771.5 719.769
772.5 814.692
773.5 813.231
774.5 733.077
775.5 790
776.5 821.077
777.5 756.231
778.5 890.385
779.5 754.769
780.5 851.077
781.5 801.846
782.5 812.769
783.5 808.231
784.5 764.615
785.5 845.154
786.5 791.077
787.5 960.462
788.5 884.538
789.5 811.231
790.5 782.231
791.5 931.769
792.5 779
793.5 779.769
794.5 828.615
795.5 839.615
796.5 891.769
797.5 830.308
798.5 901.769
799.5 712.846
800.5 799.154
801.5 865.462
802.5 870.615
803.5 804.308
804.5 1267.62
805.5 2517.08
806.5 4852.08
807.5 4492.46
808.5 2243.31
809.5 1025.15
810.5 727.154
811.5 840.692
812.5 661.462
813.5 918.077
814.5 804.154
815.5 742.692
816.5 773.385
817.5 851.846
818.5 757
819.5 874.231
820.5 701.462
821.5 852
822.5 900
823.5 761.538
824.5 848.846
825.5 850.385
826.5 860.769
827.5 832.385
828.5 812.615
829.5 865.231
830.5 861.923
831.5 742.231
832.5 785.923
833.5 972
834.5 805.538
835.5 783.154
836.5 786.538
837.5 757.154
838.5 878.692
839.5 765.615
840.5 739
841.5 806.385
842.5 812.154
843.5 847.154
844.5 966.462
845.5 951.615
846.5 816.308
847.5 883.923
848.5 987.462
849.5 837.462
850.5 882.846
851.5 905.538
852.5 942
853.5 760.154
854.5 826.923
855.5 935.538
856.5 990.154
857.5 897.538
858.5 970.769
859.5 803.538
860.5 881.769
861.5 963.615
862.5 1018.31
863.5 899.385
864.5 811.923
865.5 980.154
866.5 963.077
867.5 1056
868.5 1283.46
869.5 1315.46
870.5 1166.54
871.5 1089.46
872.5 943.077
873.5 891.538
874.5 884.692
875.5 981.077
876.5 1151.23
877.5 1185.54
878.5 1152.31
879.5 1123.38
880.5 885.692
881.5 887.692
882.5 994.846
883.5 887.231
884.5 919.846
885.5 878.385
886.5 1020.77
887.5 1091
888.5 974.154
889.5 947.923
890.5 944.308
891.5 920.462
892.5 913.308
893.5 970.462
894.5 1046.62
895.5 940.923
896.5 1061.92
897.5 1031.46
898.5 1076.15
899.5 1091.62
900.5 1025.31
901.5 1056.46
902.5 1036.23
903.5 990.615
904.5 1069.08
905.5 1116.38
906.5 1100.77
907.5 1066.15
908.5 1107.31
909.5 1228.85
910.5 1151.23
911.5 1203.69
912.5 1165.31
913.5 1129.69
914.5 1026.46
915.5 1149.46
916.5 1085.08
917.5 956.769
918.5 1134.92
919.5 1070.46
920.5 1030.08
921.5 1056.54
922.5 1070.77
923.5 1001.54
924.5 1052.31
925.5 945.538
926.5 931.462
927.5 1008.46
928.5 1012.23
929.5 1052.69
930.5 1098.38
931.5 1029.69
932.5 1009.46
933.5 1127.54
934.5 1040.62
935.5 1138.31
936.5 1049.08
937.5 1091.31
938.5 1128.77
939.5 1118.69
940.5 1062.46
941.5 1150.46
942.5 1162.15
943.5 1121.77
944.5 1154.69
945.5 956.846
946.5 976.385
947.5 998.385
948.5 960.923
949.5 806.308
950.5 877.077
951.5 860.231
952.5 786
953.5 900.154
954.5 843.615
955.5 847.615
956.5 864.769
957.5 801.923
958.5 783.231
959.5 770.615
960.5 786.846
961.5 783.077
962.5 777.923
963.5 732.077
964.5 658.308
965.5 688.769
966.5 718.077
967.5 630.923
968.5 550.769
969.5 713.231
970.5 608.385
971.5 540.615
972.5 621.846
973.5 715.231
974.5 523
975.5 762.692
976.5 640.846
977.5 763.846
978.5 731.538
979.5 670.923
980.5 658.231
981.5 669.615
982.5 627.769
983.5 760.923
984.5 702.615
985.5 684
986.5 726.308
987.5 731.923
988.5 645.769
989.5 678.692
990.5 575.846
991.5 639.692
992.5 582.308
993.5 692.077
994.5 599.154
995.5 574.538
996.5 575.154
997.5 669.154
998.5 855.692
999.5 1496.62
1000.5 3881.92
1001.5 7230.08
1002.5 6581.38
1003.5 2980.15
1004.5 1129.92
1005.5 682.385
1006.5 630.769
1007.5 706.077
1008.5 716.846
1009.5 628.615
1010.5 697.769
1011.5 603.538
1012.5 605
1013.5 595.462
1014.5 643.077
1015.5 574.769
1016.5 651.923
1017.5 594.769
1018.5 704.538
1019.5 689.385
1020.5 546.154
1021.5 597.538
1022.5 533.769
1023.5 600.692
1024.5 737.692
1025.5 663.308
1026.5 593.385
1027.5 541.846
1028.5 471.077
1029.5 447.692
1030.5 467
1031.5 510.231
1032.5 482.923
1033.5 332.308
1034.5 372.538
1035.5 438.769
1036.5 349.308
1037.5 362.077
1038.5 332.462
1039.5 408.308
1040.5 374.154
1041.5 465.615
1042.5 447.846
1043.5 373.846
1044.5 332.692
1045.5 417.615
1046.5 404.538
1047.5 372.462
1048.5 371.846
1049.5 408.769
1050.5 512
1051.5 503.615
1052.5 358.462
1053.5 431.923
1054.5 436.692
1055.5 471.385
1056.5 429.615
1057.5 416
1058.5 487.923
1059.5 405.385
1060.5 369.615
1061.5 357.846
1062.5 375.692
1063.5 334.692
1064.5 348.231
1065.5 345.308
1066.5 335
1067.5 372.692
1068.5 376
1069.5 278.385
1070.5 433.308
1071.5 760.538
1072.5 1774.62
1073.5 3717.69
1074.5 4712.54
1075.5 2766.46
1076.5 728
1077.5 471.615
1078.5 403.538
1079.5 356.231
1080.5 349.308
1081.5 341.077
1082.5 366.692
1083.5 373.923
1084.5 308.615
1085.5 366.154
1086.5 373.692
1087.5 361.615
1088.5 335.846
1089.5 375.308
1090.5 390.308
1091.5 307.846
1092.5 384.077
1093.5 373.385
1094.5 337.769
1095.5 352.308
1096.5 275.385
1097.5 355.462
1098.5 353.077
1099.5 346.923
1100.5 310.615
1101.5 350.385
1102.5 359.308
1103.5 407.462
1104.5 329.538
1105.5 347.692
1106.5 337.923
1107.5 440.308
1108.5 338.231
1109.5 423.538
1110.5 383.769
1111.5 496
1112.5 403.231
1113.5 409.077
1114.5 348.385
1115.5 360.692
1116.5 495.923
1117.5 374.846
1118.5 442.385
1119.5 384.615
1120.5 455.615
1121.5 541.615
1122.5 1282.08
1123.5 4227.92
1124.5 13574.6
1125.5 32126.5
1126.5 35915.6
1127.5 16567.6
1128.5 3815.31
1129.5 928.231
1130.5 413.231
1131.5 365.308
1132.5 291.462
1133.5 301.231
1134.5 182
1135.5 262.231
1136.5 237.846
1137.5 279.462
1138.5 291.923
1139.5 276.077
1140.5 284.846
1141.5 340.923
1142.5 276.692
1143.5 300
1144.5 224.615
1145.5 311.231
1146.5 328.846
1147.5 320.846
1148.5 266.385
1149.5 360.846
1150.5 253.538
1151.5 351.154
1152.5 663.923
1153.5 1872.23
1154.5 6354.85
1155.5 19261.6
1156.5 42812.5
1157.5 43083.3
1158.5 17554.7
1159.5 3807.85
1160.5 887.769
1161.5 332.846
1162.5 220.769
1163.5 153.769
1164.5 200.231
1165.5 155.308
1166.5 146.769
1167.5 127.692
1168.5 94.5385
1169.5 122.231
1170.5 95.2308
1171.5 122.923
1172.5 65.0769
1173.5 124.462
1174.5 124.769
1175.5 155.846
1176.5 120.462
1177.5 121.154
1178.5 115.462
1179.5 166.692
1180.5 171.615
1181.5 154.154
1182.5 136.154
1183.5 176.769
1184.5 189.077
1185.5 138
1186.5 163.385
1187.5 133.846
1188.5 125.769
1189.5 101.846
1190.5 113.462
1191.5 152.308
1192.5 122.923
1193.5 116.538
1194.5 100.615
1195.5 156.769
1196.5 100.154
1197.5 111.385
1198.5 195.385
1199.5 118.308
1200.5 185.769
1201.5 156.692
1202.5 161.385
1203.5 114.538
1204.5 138.308
1205.5 145.231
1206.5 122.846
1207.5 170.538
1208.5 117
1209.5 157.308
1210.5 159.077
1211.5 171.538
1212.5 182.462
1213.5 122.077
1214.5 148.308
1215.5 170.846
1216.5 184.846
1217.5 134.231
1218.5 184
1219.5 98.3846
1220.5 224.769
1221.5 212.846
1222.5 209.692
1223.5 178
1224.5 209.692
1225.5 191.231
1226.5 191
1227.5 154.385
1228.5 151.077
1229.5 114.154
1230.5 176.538
1231.5 223.385
1232.5 208.231
1233.5 274.077
1234.5 252.231
1235.5 225.846
1236.5 209.615
1237.5 220.692
1238.5 150.462
1239.5 131
1240.5 117.769
1241.5 131.846
1242.5 116.308
1243.5 164.692
1244.5 151.615
1245.5 157.154
1246.5 164.308
1247.5 110.846
1248.5 169.231
1249.5 135.462
1250.5 147.769
1251.5 157.154
1252.5 121.154
1253.5 122.692
1254.5 133.308
1255.5 224.154
1256.5 187.769
1257.5 157.846
1258.5 135.231
1259.5 112.769
1260.5 148.077
1261.5 183.462
1262.5 156.769
1263.5 122.308
1264.5 184.462
1265.5 145.385
1266.5 123.462
1267.5 167.154
1268.5 225.154
1269.5 168.154
1270.5 194.615
1271.5 147
1272.5 146.385
1273.5 117.462
1274.5 185.462
1275.5 175.077
1276.5 178.923
1277.5 137.385
1278.5 109.692
1279.5 148.923
1280.5 136.231
1281.5 144.462
1282.5 101.769
1283.5 177.769
1284.5 109.615
1285.5 148.615
1286.5 149.308
1287.5 127.923
1288.5 153.692
1289.5 138.846
1290.5 208.385
1291.5 105.385
1292.5 158
1293.5 138.385
1294.5 159.231
1295.5 95.6923
1296.5 163
1297.5 110.231
1298.5 182.308
1299.5 138.692
1300.5 174.308
1301.5 109.846
1302.5 121.385
1303.5 191.154
1304.5 146.231
1305.5 141.692
1306.5 162.615
1307.5 80.6923
1308.5 199.615
1309.5 147.615
1310.5 151.231
1311.5 127.154
1312.5 105.154
1313.5 87
1314.5 188.923
1315.5 148.385
1316.5 213.231
1317.5 170.077
1318.5 100.923
1319.5 104
1320.5 133.923
1321.5 78.5385
1322.5 124.846
1323.5 209.538
1324.5 225.923
1325.5 157.385
1326.5 188.769
1327.5 186.769
1328.5 224.231
1329.5 196.385
1330.5 148.846
1331.5 137.692
1332.5 210.077
1333.5 249.692
1334.5 274.231
1335.5 316.538
1336.5 185.154
1337.5 200.462
1338.5 173.846
1339.5 166.077
1340.5 150.077
1341.5 127.846
1342.5 187.846
1343.5 150.692
1344.5 94.6154
1345.5 182.077
1346.5 121.231
1347.5 175.846
1348.5 199.308
1349.5 94.4615
1350.5 126.615
1351.5 158.385
1352.5 184
1353.5 212.692
1354.5 134.615
1355.5 141.308
1356.5 102.615
1357.5 140.923
1358.5 190.077
1359.5 150
1360.5 171.769
1361.5 169
1362.5 173.154
1363.5 135.846
1364.5 78.4615
1365.5 180.231
1366.5 166.846
1367.5 161.692
1368.5 114.846
1369.5 158.538
1370.5 116.462
1371.5 127.154
1372.5 203.462
1373.5 174.615
1374.5 186.385
1375.5 220.923
1376.5 163.692
1377.5 149.154
1378.5 157.846
1379.5 198.846
1380.5 171.538
1381.5 101.846
1382.5 109.692
1383.5 201.538
1384.5 182.231
1385.5 179.077
1386.5 192.231
1387.5 159.692
1388.5 152.308
1389.5 101.692
1390.5 115
1391.5 156.769
1392.5 131.308
1393.5 234.769
1394.5 224
1395.5 214.385
1396.5 184.231
1397.5 191.077
1398.5 159
1399.5 159.231
1400.5 145.692
1401.5 194.154
1402.5 211.923
1403.5 184
1404.5 184.538
1405.5 200.308
1406.5 162.077
1407.5 188.923
1408.5 148.846
1409.5 225.692
1410.5 147.615
1411.5 183.462
1412.5 236.538
1413.5 156
1414.5 170.538
1415.5 184.769
1416.5 301.692
1417.5 426.462
1418.5 408.538
1419.5 279.077
1420.5 215.077
1421.5 128.692
1422.5 182.385
1423.5 162.308
1424.5 158.615
1425.5 181.538
1426.5 237.692
1427.5 304.846
1428.5 504
1429.5 327.692
1430.5 288.077
1431.5 194.846
1432.5 181.154
1433.5 193.462
1434.5 144.769
1435.5 168.462
1436.5 267.462
1437.5 200.769
1438.5 174.231
1439.5 127.077
1440.5 111.769
1441.5 125.077
1442.5 129.769
1443.5 142.923
1444.5 181.077
1445.5 180.077
1446.5 125.231
1447.5 166.462
1448.5 174.154
1449.5 139.769
1450.5 169.769
1451.5 103.462
1452.5 85.0769
1453.5 146.077
1454.5 120.308
1455.5 106.692
1456.5 105.846
1457.5 109.615
1458.5 113.462
1459.5 148.846
1460.5 129.538
1461.5 114.769
1462.5 100.231
1463.5 136.769
1464.5 122.385
1465.5 163.308
1466.5 149.923
1467.5 112.308
1468.5 105.154
1469.5 76.6154
1470.5 71.5385
1471.5 105.154
1472.5 104.769
1473.5 160.154
1474.5 130.692
1475.5 117.308
1476.5 178.077
1477.5 150.308
1478.5 122.692
1479.5 127.385
1480.5 155.846
1481.5 75.2308
1482.5 111.923
1483.5 99.1539
1484.5 114.923
1485.5 121.462
1486.5 95.3077
1487.5 154
1488.5 125.923
1489.5 108.615
1490.5 129.462
1491.5 104.154
1492.5 128.231
1493.5 155.308
1494.5 123.462
1495.5 155
1496.5 197.385
1497.5 412.538
1498.5 610.923
1499.5 862
1500.5 476.231
1501.5 255
1502.5 154.538
1503.5 163.846
1504.5 119
1505.5 90.7692
1506.5 110.385
1507.5 144.923
1508.5 101.769
1509.5 198.154
1510.5 157.769
1511.5 159.385
1512.5 145
1513.5 124.538
1514.5 138
1515.5 140.615
1516.5 194.231
1517.5 187.846
1518.5 216.462
1519.5 120.077
1520.5 99.9231
1521.5 131.154
1522.5 196.308
1523.5 76.8462
1524.5 117.385
1525.5 150.231
1526.5 123.231
1527.5 205.308
1528.5 140
1529.5 185.462
1530.5 85.6154
1531.5 108.308
1532.5 136.154
1533.5 128.923
1534.5 142
1535.5 151.538
1536.5 164.154
1537.5 166.615
1538.5 135.077
1539.5 246.308
1540.5 113.308
1541.5 170.077
1542.5 108.077
1543.5 133.154
1544.5 168.077
1545.5 122.231
1546.5 138.692
1547.5 102.923
1548.5 90.9231
1549.5 120.692
1550.5 99.7692
1551.5 90.3077
1552.5 113.615
1553.5 139.692
1554.5 134.692
1555.5 150.846
1556.5 129.462
1557.5 64.7692
1558.5 128.308
1559.5 86.6923
1560.5 137.385
1561.5 129.615
1562.5 197.077
1563.5 102.154
1564.5 147
1565.5 106.923
1566.5 117.231
1567.5 111.308
1568.5 101.769
1569.5 114.231
1570.5 148.769
1571.5 183.385
1572.5 109.692
1573.5 151.077
1574.5 148.692
1575.5 182.769
1576.5 144.615
1577.5 152.231
1578.5 168.462
1579.5 114.846
1580.5 149.462
1581.5 156.692
1582.5 134.769
1583.5 157.231
1584.5 168.308
1585.5 135.923
1586.5 120.692
1587.5 74.4615
1588.5 101.154
1589.5 152
1590.5 194.308
1591.5 126.769
1592.5 129.538
1593.5 122.077
1594.5 123.308
1595.5 158.846
1596.5 152.923
1597.5 137.231
1598.5 103.923
1599.5 133.231
1600.5 114.154
1601.5 192
1602.5 134.692
1603.5 119
1604.5 125.692
1605.5 140
1606.5 165.692
1607.5 146
1608.5 95.9231
1609.5 138.846
1610.5 74.1539
1611.5 73.5385
1612.5 169.846
1613.5 86.9231
1614.5 116.231
1615.5 131.154
1616.5 170.769
1617.5 170.538
1618.5 161.231
1619.5 119.769
1620.5 127.385
1621.5 138.308
1622.5 143.615
1623.5 120.692
1624.5 157.769
1625.5 156.538
1626.5 154.231
1627.5 123
1628.5 117.231
1629.5 120.231
1630.5 222.462
1631.5 194.231
1632.5 197.692
1633.5 164.692
1634.5 207
1635.5 216.846
1636.5 229.615
1637.5 332.385
1638.5 825.462
1639.5 1932.31
1640.5 3553.62
1641.5 3603.77
1642.5 1754.77
1643.5 588.385
1644.5 270
1645.5 152.846
1646.5 123.615
1647.5 215.615
1648.5 297.231
1649.5 212.846
1650.5 163.692
1651.5 173.615
1652.5 130.692
1653.5 141.462
1654.5 146.231
1655.5 101.385
1656.5 159.231
1657.5 234.077
1658.5 238.462
1659.5 318.077
1660.5 181.154
1661.5 81.6923
1662.5 125.077
1663.5 127.308
1664.5 92.6154
1665.5 179.154
1666.5 199.462
1667.5 156.308
1668.5 89
1669.5 174.846
1670.5 89.5385
1671.5 95.3846
1672.5 124.154
1673.5 110.923
1674.5 95.2308
1675.5 118.231
1676.5 83.5385
1677.5 122.385
1678.5 116.615
1679.5 126.462
1680.5 112.077
1681.5 75.8462
1682.5 101.385
1683.5 90
1684.5 118.538
1685.5 117.077
1686.5 138.308
1687.5 172.538
1688.5 93.6923
1689.5 90.3077
1690.5 86.2308
1691.5 102.077
1692.5 128
1693.5 61.0769
1694.5 111.846
1695.5 115.462
1696.5 113.462
1697.5 184.154
1698.5 176
1699.5 157.923
1700.5 129
1701.5 90.9231
1702.5 164.923
1703.5 145
1704.5 116.308
1705.5 164
1706.5 137.154
1707.5 177.462
1708.5 157.538
1709.5 112.462
1710.5 120.769
1711.5 149.462
1712.5 68.4615
1713.5 115.615
1714.5 138.154
1715.5 94.5385
1716.5 112
1717.5 85.6154
1718.5 119.846
1719.5 114.385
1720.5 104.231
1721.5 133.923
1722.5 87.5385
1723.5 178.462
1724.5 180.538
1725.5 174.692
1726.5 113.538
1727.5 167.308
1728.5 123.538
1729.5 89.1539
1730.5 79.5385
1731.5 110.615
1732.5 66.3846
1733.5 113.385
1734.5 102.308
1735.5 135.077
1736.5 56.3077
1737.5 59.0769
1738.5 108.077
1739.5 113
1740.5 108.077
1741.5 131.615
1742.5 188.615
1743.5 180.462
1744.5 171
1745.5 157.615
1746.5 54.5385
1747.5 79.3846
1748.5 121.615
1749.5 57.2308
1750.5 124.462
1751.5 117.231
1752.5 90.6923
1753.5 152.846
1754.5 68.5385
1755.5 127.462
1756.5 63.3077
1757.5 128.615
1758.5 60.1538
1759.5 117.538
1760.5 133.231
1761.5 195.308
1762.5 211.692
1763.5 167.462
1764.5 72.6154
1765.5 96.0769
1766.5 112.538
1767.5 116.385
1768.5 77
1769.5 96.3077
1770.5 60.2308
1771.5 115.538
1772.5 -3.15384
1773.5 63.6923
1774.5 103.154
1775.5 111.231
1776.5 107.692
1777.5 118.308
1778.5 113
1779.5 91.1539
1780.5 98.2308
1781.5 104.385
1782.5 68.3846
1783.5 95.0769
1784.5 105.308
1785.5 50.4615
1786.5 101.385
1787.5 66.2308
1788.5 34.0769
1789.5 58.2308
1790.5 19.3077
1791.5 76
1792.5 108.538
1793.5 114.231
1794.5 111.538
1795.5 89
1796.5 77.2308
1797.5 90.3077
1798.5 109.615
1799.5 73.1538
1800.5 86.6923
1801.5 62.2308
1802.5 87.6154
1803.5 100.846
1804.5 119.692
1805.5 199.923
1806.5 388.538
1807.5 849.308
1808.5 1381.23
1809.5 1233.85
1810.5 785.077
1811.5 351.231
1812.5 233.615
1813.5 141.385
1814.5 121.231
1815.5 78.6923
1816.5 123.385
1817.5 276.615
1818.5 487.538
1819.5 564.538
1820.5 358.846
1821.5 143.538
1822.5 111.615
1823.5 107.308
1824.5 94
1825.5 104.769
1826.5 101.923
1827.5 74.9231
1828.5 121.462
1829.5 94.6154
1830.5 89.0769
1831.5 59.7692
1832.5 86.0769
1833.5 59.8462
1834.5 110
1835.5 69
1836.5 108.846
1837.5 95
1838.5 67.3077
1839.5 85.4615
1840.5 111.231
1841.5 77.1538
1842.5 73.3077
1843.5 72.4615
1844.5 101.846
1845.5 105
1846.5 72
1847.5 50.8462
1848.5 97
1849.5 104.923
1850.5 107.462
1851.5 33.1539
1852.5 59.9231
1853.5 131.308
1854.5 75.7692
1855.5 64.5385
1856.5 101.077
1857.5 59.6923
1858.5 67.3077
1859.5 72.3846
1860.5 55.6923
1861.5 116.385
1862.5 122.231
1863.5 103.462
1864.5 127.154
1865.5 141.538
1866.5 47.9231
1867.5 96.2308
1868.5 134.769
1869.5 184.385
1870.5 430.846
1871.5 973.769
1872.5 1324.15
1873.5 1009.38
1874.5 526.385
1875.5 207.308
1876.5 114.615
1877.5 118.769
1878.5 84.9231
1879.5 113.308
1880.5 117.154
1881.5 88.6923
1882.5 137.923
1883.5 249.231
1884.5 575.769
1885.5 1264.15
1886.5 2333.62
1887.5 2472.77
1888.5 1402.77
1889.5 490.462
1890.5 190.462
1891.5 122.615
1892.5 109.077
1893.5 58.6154
1894.5 80.6923
1895.5 39.1538
1896.5 91.7692
1897.5 75.3846
1898.5 93.2308
1899.5 104.538
1900.5 148.923
1901.5 88.1539
1902.5 41.2308
1903.5 75.5385
1904.5 67.8462
1905.5 109.231
1906.5 84.7692
1907.5 91.3077
1908.5 113.846
1909.5 54.6923
1910.5 118.231
1911.5 119.846
1912.5 116.846
1913.5 101.385
1914.5 102.923
1915.5 71
1916.5 77
1917.5 100.154
1918.5 88.4615
1919.5 69
1920.5 127.154
1921.5 131.077
1922.5 177.692
1923.5 199.462
1924.5 168.923
1925.5 142
1926.5 104.077
1927.5 105.923
1928.5 119.231
1929.5 84.4615
1930.5 141.462
1931.5 121.462
1932.5 118.154
1933.5 127.615
1934.5 140.846
1935.5 149.615
1936.5 125.538
1937.5 100.692
1938.5 89.8462
1939.5 118.538
1940.5 148.154
1941.5 148.462
1942.5 92.7692
1943.5 138.769
1944.5 158.462
1945.5 96.3846
1946.5 72.9231
1947.5 47.2308
1948.5 115.308
1949.5 118.385
1950.5 164.231
1951.5 101.385
1952.5 56.5385
1953.5 76.3846
1954.5 77.3846
1955.5 121.692
1956.5 117.385
1957.5 96.5385
1958.5 97.2308
1959.5 73.6154
1960.5 64.7692
1961.5 99.6154
1962.5 50.4615
1963.5 41.1539
1964.5 90.4615
1965.5 66.8462
1966.5 85.0769
1967.5 80.3846
1968.5 83.2308
1969.5 49.5385
1970.5 72.2308
1971.5 68.5385
1972.5 79
1973.5 61.9231
1974.5 62.0769
1975.5 50.9231
1976.5 63.8462
1977.5 69.7692
1978.5 68.8462
1979.5 67.4615
1980.5 82.1538
1981.5 64.2308
1982.5 92.9231
1983.5 98.7692
1984.5 101.462
1985.5 72.7692
1986.5 68.6154
1987.5 94.9231
1988.5 58.2308
1989.5 25.6923
1990.5 84.7692
1991.5 84.3846
1992.5 89.5385
1993.5 37.0769
1994.5 82.1539
1995.5 73.8462
1996.5 88.9231
1997.5 94.6154
1998.5 75.8462
1999.5 74
2000.5 66.6923
2001.5 71.0769
2002.5 62.5385
2003.5 94.2308
2004.5 60.0769
2005.5 91.3077
2006.5 70
2007.5 87
2008.5 62.4615
2009.5 62.2308
2010.5 62.9231
2011.5 94.5385
2012.5 72.2308
2013.5 80.3077
2014.5 66.3846
2015.5 87.7692
2016.5 119.462
2017.5 79
2018.5 67.9231
2019.5 89.4615
2020.5 82.3077
2021.5 90.9231
2022.5 76.2308
2023.5 84.2308
2024.5 108.231
2025.5 108.692
2026.5 51.6154
2027.5 81.1538
2028.5 79.9231
2029.5 94.2308
2030.5 132.385
2031.5 96.3846
2032.5 102.923
2033.5 103.154
2034.5 96.8462
2035.5 114.308
2036.5 88.1538
2037.5 103.231
2038.5 73.0769
2039.5 106.846
2040.5 49.1538
2041.5 63.3846
2042.5 46.1538
2043.5 23.7692
2044.5 11.4615
2045.5 -13.5385
2046.5 13.4615
2047.5 52.9231
2048.5 55.3846
2049.5 102.462
2050.5 59.9231
2051.5 87.4615
2052.5 46.6923
2053.5 79.3077
2054.5 72.9231
2055.5 80.8462
2056.5 28.5385
2057.5 39.4615
2058.5 85.6154
2059.5 60.3846
2060.5 95.3077
2061.5 55.5385
2062.5 39
2063.5 89.1538
2064.5 126.231
2065.5 87
2066.5 125.462
2067.5 81.0769
2068.5 61.4615
2069.5 69.8462
2070.5 192.154
2071.5 196
2072.5 153.846
2073.5 134.692
2074.5 128.077
2075.5 85
2076.5 33.6154
2077.5 103
2078.5 70.8462
2079.5 72.6923
2080.5 92.8462
2081.5 89.3846
2082.5 52.4615
2083.5 60.9231
2084.5 26.8462
2085.5 110.692
2086.5 143.077
2087.5 106
2088.5 81.9231
2089.5 75.0769
2090.5 37.1538
2091.5 90.4615
2092.5 59.7692
2093.5 48.8462
2094.5 80.6923
2095.5 65.3846
2096.5 66.4615
2097.5 60.9231
2098.5 47.1539
2099.5 43.9231
2100.5 79.0769
2101.5 90.9231
2102.5 88.7692
2103.5 78.8462
2104.5 123
2105.5 61.5385
2106.5 57.0769
2107.5 116.308
2108.5 73.3077
2109.5 67.9231
2110.5 77.7692
2111.5 63.8462
2112.5 87.9231
2113.5 62.3077
2114.5 80.6154
2115.5 96.6923
2116.5 85.4615
2117.5 74.2308
2118.5 55.3077
2119.5 59.0769
2120.5 91.2308
2121.5 92.6923
2122.5 81.2308
2123.5 69.6923
2124.5 81.4615
2125.5 87
2126.5 75.8462
2127.5 93.1538
2128.5 62.1538
2129.5 68.6923
2130.5 56.1538
2131.5 69.3077
2132.5 79.4615
2133.5 63.9231
2134.5 91.1538
2135.5 130.692
2136.5 101.385
2137.5 72.1538
2138.5 90.6923
2139.5 109.538
2140.5 70.0769
2141.5 132.154
2142.5 63.5385
2143.5 184.538
2144.5 106.077
2145.5 104.308
2146.5 58.3846
2147.5 106.462
2148.5 334.692
2149.5 444.462
2150.5 573.538
2151.5 464.923
2152.5 230.231
2153.5 150.692
2154.5 78.8462
2155.5 86.7692
2156.5 76.2308
2157.5 61
2158.5 53.5385
2159.5 60.7692
2160.5 82.6154
2161.5 82.4615
2162.5 73.6154
2163.5 140.154
2164.5 67.8462
2165.5 118.385
2166.5 87.0769
2167.5 66.0769
2168.5 62
2169.5 72.4615
2170.5 72
2171.5 82.0769
2172.5 109.462
2173.5 118.923
2174.5 133
2175.5 132.769
2176.5 131.077
2177.5 112
2178.5 89.9231
2179.5 133.385
2180.5 93
2181.5 98.0769
2182.5 87.5385
2183.5 94.1538
2184.5 151.308
2185.5 241.615
2186.5 236.154
2187.5 168.385
2188.5 118.385
2189.5 82.4615
2190.5 71.7692
2191.5 54.6154
2192.5 45.4615
2193.5 8.53847
2194.5 34.9231
2195.5 57.7692
2196.5 72.3077
2197.5 176.692
2198.5 297.923
2199.5 462.615
2200.5 534.077
2201.5 303.231
2202.5 144.462
2203.5 69
2204.5 82
2205.5 107.615
2206.5 108.769
2207.5 49.0769
2208.5 84.3077
2209.5 94.0769
2210.5 56.4615
2211.5 65.5385
2212.5 47
2213.5 59.4615
2214.5 55.8462
2215.5 76.9231
2216.5 79.0769
2217.5 63.8462
2218.5 51.3077
2219.5 71.7692
2220.5 112.462
2221.5 139.615
2222.5 195.615
2223.5 127.308
2224.5 137.615
2225.5 56.7692
2226.5 94.5385
2227.5 91.1538
2228.5 102.231
2229.5 75.0769
2230.5 72.6923
2231.5 77
2232.5 71.2308
2233.5 60.5385
2234.5 95.3077
2235.5 113.846
2236.5 73.0769
2237.5 111.385
2238.5 87.2308
2239.5 61.5385
2240.5 74.3077
2241.5 52.3077
2242.5 58.7692
2243.5 47.1538
2244.5 67.0769
2245.5 113.692
2246.5 41.6154
2247.5 71.1538
2248.5 109
2249.5 98.3077
2250.5 96.4615
2251.5 93.6154
2252.5 84.5385
2253.5 103.538
2254.5 65.4615
2255.5 69.3846
2256.5 45.7692
2257.5 44.4615
2258.5 30.3846
2259.5 75.7692
2260.5 52.6923
2261.5 63.9231
2262.5 85.7692
2263.5 85.3077
2264.5 96.3846
2265.5 56.8462
2266.5 37.6923
2267.5 54.4615
2268.5 90
2269.5 106.615
2270.5 88.3846
2271.5 55.3846
2272.5 60.8462
2273.5 94.3846
2274.5 52.6923
2275.5 67.7692
2276.5 76
2277.5 77.3846
2278.5 79.2308
2279.5 91.6154
2280.5 150.615
2281.5 115.077
2282.5 150.077
2283.5 141.154
2284.5 105.231
2285.5 64.5385
2286.5 96.2308
2287.5 94.5385
2288.5 76.3846
2289.5 63.5385
2290.5 59
2291.5 76.0769
2292.5 35.9231
2293.5 39.5385
2294.5 81.7692
2295.5 92.3077
2296.5 98.1538
2297.5 104.692
2298.5 21.4615
2299.5 105.077
2300.5 99.3846
2301.5 39.7692
2302.5 85.3077
2303.5 85.2308
2304.5 60
2305.5 50.3077
2306.5 79.6154
2307.5 90.6923
2308.5 81.3846
2309.5 86.2308
2310.5 58.3077
2311.5 62.6154
2312.5 30.2308
2313.5 71.6154
2314.5 80.1538
2315.5 80.7692
2316.5 71.3077
2317.5 49.7692
2318.5 63.2308
2319.5 45.6154
2320.5 56.2308
2321.5 64.5385
2322.5 72.5385
2323.5 62.1538
2324.5 99.7692
2325.5 56.2308
2326.5 43.7692
2327.5 83.6154
2328.5 73
2329.5 100.769
2330.5 116.923
2331.5 93.4615
2332.5 78.4615
2333.5 106
2334.5 46.2308
2335.5 83.3077
2336.5 61.9231
2337.5 79.1538
2338.5 44.3077
2339.5 93.6154
2340.5 55.6923
2341.5 46.9231
2342.5 62.5385
2343.5 52
2344.5 101.154
2345.5 47
2346.5 46.2308
2347.5 69.6923
2348.5 66.4615
2349.5 64.6154
2350.5 48.2308
2351.5 81.0769
2352.5 49.3077
2353.5 36.9231
2354.5 39.5385
2355.5 -3.46153
2356.5 -42.3846
2357.5 -8
2358.5 65.3846
2359.5 65.9231
2360.5 72.1538
2361.5 62.7692
2362.5 85.1538
2363.5 75.6923
2364.5 72.5385
2365.5 66.4615
2366.5 71.3077
2367.5 90.3846
2368.5 44.4615
2369.5 55.8462
2370.5 64.7692
2371.5 87.9231
2372.5 214.923
2373.5 405
2374.5 889.692
2375.5 1175.77
2376.5 1131.08
2377.5 649.231
2378.5 312.615
2379.5 119.385
2380.5 92.2308
2381.5 64.3846
2382.5 64.7692
2383.5 40.3077
2384.5 52.5385
2385.5 89.0769
2386.5 74.6923
2387.5 71.2308
2388.5 43.0769
2389.5 73.2308
2390.5 44.6154
2391.5 73.2308
2392.5 67.4615
2393.5 46.2308
2394.5 71.2308
2395.5 76.4615
2396.5 62.5385
2397.5 46.6154
2398.5 47.6154
2399.5 83.3077
2400.5 77
2401.5 61.7692
2402.5 81.3846
2403.5 80.1538
2404.5 93.4615
2405.5 89.9231
2406.5 49.6923
2407.5 54.2308
2408.5 39.2308
2409.5 68.2308
2410.5 74.4615
2411.5 81.0769
2412.5 64.4615
2413.5 52.5385
2414.5 60.8462
2415.5 72.6923
2416.5 81.3077
2417.5 93.0769
2418.5 78.4615
2419.5 52.3077
2420.5 23.6923
2421.5 41.8462
2422.5 86.6923
2423.5 98.3846
2424.5 130.154
2425.5 158.462
2426.5 250.538
2427.5 269.538
2428.5 317.923
2429.5 208.385
2430.5 148.385
2431.5 109.538
2432.5 105.923
2433.5 89.0769
2434.5 190.846
2435.5 126.769
2436.5 136.385
2437.5 113.462
2438.5 84.4615
2439.5 96.7692
2440.5 107.846
2441.5 83.6923
2442.5 109.692
2443.5 177.692
2444.5 162
2445.5 144.769
2446.5 310
2447.5 466.462
2448.5 525.615
2449.5 411.615
2450.5 173.538
2451.5 117.308
2452.5 80.6154
2453.5 93.3077
2454.5 37.0769
2455.5 79.6923
2456.5 89.7692
2457.5 96.3077
2458.5 86.9231
2459.5 74.0769
2460.5 79.9231
2461.5 109.462
2462.5 170
2463.5 216.692
2464.5 173.846
2465.5 139.462
2466.5 131.538
2467.5 63
2468.5 48.8462
2469.5 87.3077
2470.5 63.4615
2471.5 53.3846
2472.5 84.7692
2473.5 57.3846
2474.5 66.2308
2475.5 79.3846
2476.5 81.3846
2477.5 56
2478.5 84.6923
2479.5 80.3846
2480.5 82.5385
2481.5 76.5385
2482.5 82.3077
2483.5 81.1538
2484.5 77.3077
2485.5 55.8462
2486.5 43.3846
2487.5 58.4615
2488.5 48.5385
2489.5 72.5385
2490.5 74.2308
2491.5 43.3846
2492.5 72
2493.5 40.6154
2494.5 58.5385
2495.5 50.3846
2496.5 57.5385
2497.5 47.5385
2498.5 41.1538
2499.5 77.0769
2500.5 60
2501.5 71.7692
2502.5 109.308
2503.5 25.9231
2504.5 75.0769
2505.5 61.6923
2506.5 92.7692
2507.5 55.2308
2508.5 37
2509.5 88.6154
2510.5 35.3846
2511.5 79.6923
2512.5 84.5385
2513.5 84.0769
2514.5 75.6154
2515.5 59.6923
2516.5 74.1539
2517.5 105.077
2518.5 85.6923
2519.5 153.923
2520.5 104.538
2521.5 73.0769
2522.5 87.6154
2523.5 61.6154
2524.5 94.6923
2525.5 135.462
2526.5 217.692
2527.5 342.846
2528.5 362.385
2529.5 300.692
2530.5 195.769
2531.5 162.769
2532.5 160.692
2533.5 186.154
2534.5 164.615
2535.5 158.385
2536.5 96.3846
2537.5 88.6154
2538.5 121.769
2539.5 128.692
2540.5 141.923
2541.5 116.462
2542.5 64.9231
2543.5 70.5385
2544.5 72
2545.5 88.6923
2546.5 47.0769
2547.5 40.6154
2548.5 46.3846
2549.5 39.0769
2550.5 39.6923
2551.5 51
2552.5 59.6923
2553.5 50.5385
2554.5 83.9231
2555.5 57.1538
2556.5 77.0769
2557.5 45.2308
2558.5 53.9231
2559.5 79.3846
2560.5 92.3077
2561.5 67.8462
2562.5 76.8462
2563.5 74.0769
2564.5 85.2308
2565.5 103.385
2566.5 62.3846
2567.5 63.1538
2568.5 77.7692
2569.5 71.5385
2570.5 46.4615
2571.5 84.4615
2572.5 45.7692
2573.5 39.3077
2574.5 100.615
2575.5 65.9231
2576.5 74.0769
2577.5 70.6923
2578.5 70.6923
2579.5 27.7692
2580.5 92.2308
2581.5 68.1538
2582.5 55.6154
2583.5 52.3846
2584.5 65.3077
2585.5 26.6923
2586.5 51.1538
2587.5 101.077
2588.5 74.6154
2589.5 79.0769
2590.5 19.6154
2591.5 38.7692
2592.5 25.6923
2593.5 52.0769
2594.5 65
2595.5 60.9231
2596.5 79.6154
2597.5 70.2308
2598.5 67.3077
2599.5 66.6154
2600.5 77.3846
2601.5 65.2308
2602.5 62.7692
2603.5 50.3846
2604.5 54.7692
2605.5 64.6154
2606.5 45.7692
2607.5 61.4615
2608.5 47.3077
2609.5 67.7692
2610.5 95.5385
2611.5 78.8462
2612.5 66.4615
2613.5 70.1538
2614.5 55.8462
2615.5 60
2616.5 111.231
2617.5 117.538
2618.5 191.615
2619.5 246.769
2620.5 162.385
2621.5 136.615
2622.5 53
2623.5 38.9231
2624.5 61.2308
2625.5 88.8462
2626.5 68.0769
2627.5 62.9231
2628.5 66.8462
2629.5 70
2630.5 78.3846
2631.5 69.6154
2632.5 47.4615
2633.5 65.4615
2634.5 49.6923
2635.5 88.6923
2636.5 68.8462
2637.5 59.8462
2638.5 111.385
2639.5 81.6923
2640.5 88.8462
2641.5 49.2308
2642.5 92.1538
2643.5 103.615
2644.5 78
2645.5 66.1538
2646.5 73
2647.5 76.6923
2648.5 56.5385
2649.5 60.3077
2650.5 67.3846
2651.5 77.7692
2652.5 16.6154
2653.5 31.1538
2654.5 89.4615
2655.5 116.231
2656.5 120.846
2657.5 114.769
2658.5 56
2659.5 59.6923
2660.5 50
2661.5 91.7692
2662.5 48.6923
2663.5 109.692
2664.5 53.5385
2665.5 93.2308
2666.5 50.7692
2667.5 91.7692
2668.5 82.5385
2669.5 88.6154
2670.5 61.7692
2671.5 79.4615
2672.5 111.077
2673.5 68.5385
2674.5 97.5385
2675.5 113.923
2676.5 112.846
2677.5 54.1538
2678.5 76.8462
2679.5 112.308
2680.5 116.923
2681.5 141.615
2682.5 114
2683.5 175
2684.5 287.692
2685.5 373.769
2686.5 512.538
2687.5 765.769
2688.5 1123.23
2689.5 1160.77
2690.5 756
2691.5 307.077
2692.5 147.769
2693.5 126.077
2694.5 69.6154
2695.5 79
2696.5 79.7692
2697.5 88.1538
2698.5 50.6154
2699.5 71.2308
2700.5 70
2701.5 53.3077
2702.5 67.9231
2703.5 63.8462
2704.5 86.0769
2705.5 64.1538
2706.5 49.6923
2707.5 67
2708.5 63.3846
2709.5 61.3846
2710.5 59.6154
2711.5 67.2308
2712.5 84.7692
2713.5 43.9231
2714.5 96.3846
2715.5 86.8462
2716.5 89.6923
2717.5 104.769
2718.5 72.3846
2719.5 99.3077
2720.5 124.923
2721.5 116.769
2722.5 118.846
2723.5 141.154
2724.5 110.308
2725.5 82.5385
2726.5 74.5385
2727.5 63.6923
2728.5 53.2308
2729.5 69.7692
2730.5 50.1539
2731.5 66.0769
2732.5 80.6154
2733.5 105.154
2734.5 94.7692
2735.5 94.2308
2736.5 89
2737.5 80.1538
2738.5 24.3077
2739.5 62.3077
2740.5 51.8462
2741.5 89.0769
2742.5 94.9231
2743.5 105.846
2744.5 49.2308
2745.5 99.1538
2746.5 88.3846
2747.5 80.1538
2748.5 78.9231
2749.5 55.7692
2750.5 63.3846
2751.5 63.1538
2752.5 75.9231
2753.5 67.8462
2754.5 80.1538
2755.5 82
2756.5 56.9231
2757.5 55.8462
2758.5 53.2308
2759.5 63.6154
2760.5 62.7692
2761.5 92.2308
2762.5 74.3846
2763.5 86.6154
2764.5 73.6923
2765.5 49.2308
2766.5 74.8462
2767.5 91
2768.5 48.6154
2769.5 81.3077
2770.5 53.1538
2771.5 64.1538
2772.5 53.6923
2773.5 45.1538
2774.5 52.1538
2775.5 85.2308
2776.5 58.3077
2777.5 75.6923
2778.5 51.7692
2779.5 79.3846
2780.5 88.3846
2781.5 47.6154
2782.5 51.2308
2783.5 70
2784.5 35.9231
2785.5 78.7692
2786.5 42.8462
2787.5 58.4615
2788.5 67.1538
2789.5 65.8462
2790.5 20.7692
2791.5 67.8462
2792.5 80.3846
2793.5 39.7692
2794.5 65.1538
2795.5 60.6923
2796.5 58.8462
2797.5 63.1538
2798.5 55.9231
2799.5 50.8462
2800.5 77.1538
2801.5 59.4615
2802.5 93
2803.5 60.1538
2804.5 76.3846
2805.5 61.3077
2806.5 54.3077
2807.5 51
2808.5 26.7692
2809.5 48.3077
2810.5 44.6154
2811.5 76.2308
2812.5 65.3846
2813.5 46.3077
2814.5 31.3077
2815.5 77.4615
2816.5 81.8462
2817.5 62.3077
2818.5 98.8462
2819.5 62.7692
2820.5 46.1538
2821.5 50
2822.5 64.8462
2823.5 87.6154
2824.5 57.8462
2825.5 65.3077
2826.5 67
2827.5 83.3077
2828.5 45.4615
2829.5 52.4615
2830.5 71.0769
2831.5 48.1538
2832.5 62.4615
2833.5 55.3846
2834.5 58.3077
2835.5 54.6154
2836.5 64.6923
2837.5 42.8462
2838.5 44.6154
2839.5 67.0769
2840.5 46.2308
2841.5 63.2308
2842.5 73
2843.5 54
2844.5 50.3846
2845.5 38.5385
2846.5 83.9231
2847.5 61.7692
2848.5 51.1539
2849.5 32.6923
2850.5 33.6154
2851.5 101.077
2852.5 58.8462
2853.5 53.3846
2854.5 77.2308
2855.5 39.1538
2856.5 93.8462
2857.5 23.3846
2858.5 44.6154
2859.5 20.6923
2860.5 20.0769
2861.5 57.2308
2862.5 48.3077
2863.5 59
2864.5 51.6923
2865.5 47.9231
2866.5 59.3077
2867.5 60.4615
2868.5 67.6923
2869.5 53.8462
2870.5 50.4615
2871.5 45.9231
2872.5 40.6154
2873.5 45.7692
2874.5 61.2308
2875.5 83.7692
2876.5 29.6923
2877.5 66.4615
2878.5 88.6154
2879.5 86.7692
2880.5 74
2881.5 106.769
2882.5 90.4615
2883.5 138.462
2884.5 94.4615
2885.5 81.3077
2886.5 89.0769
2887.5 68.4615
2888.5 72.2308
2889.5 127.923
2890.5 94.5385
2891.5 156.846
2892.5 64
2893.5 80.5385
2894.5 51.7692
2895.5 -28.4615
2896.5 -6
2897.5 -20.3077
2898.5 32.8462
2899.5 36.8462
2900.5 32.5385
2901.5 43.4615
2902.5 58
2903.5 69.6154
2904.5 91
2905.5 91.3846
2906.5 63.4615
2907.5 55.9231
2908.5 57.6154
2909.5 35.2308
2910.5 31.6154
2911.5 53.3846
2912.5 48.0769
2913.5 38.3846
2914.5 46.3846
2915.5 33.3846
2916.5 68.2308
2917.5 82.7692
2918.5 77.6154
2919.5 58.2308
2920.5 77.2308
2921.5 63.9231
2922.5 60.0769
2923.5 89.5385
2924.5 89.7692
2925.5 74.3077
2926.5 78.8462
2927.5 73.2308
2928.5 60.6154
2929.5 80.1538
2930.5 50.1538
2931.5 80
2932.5 87.5385
2933.5 126.769
2934.5 142.538
2935.5 304.154
2936.5 472.538
2937.5 662.231
2938.5 803.308
2939.5 687.923
2940.5 480.769
2941.5 287.231
2942.5 220.615
2943.5 303.154
2944.5 418.538
2945.5 669
2946.5 1086.85
2947.5 989.538
2948.5 808.462
2949.5 508.923
2950.5 299.077
2951.5 279.385
2952.5 401.538
2953.5 566.154
2954.5 524.615
2955.5 404.077
2956.5 187.615
2957.5 95.1538
2958.5 84.0769
2959.5 49.3846
2960.5 54
2961.5 54.3846
2962.5 75
2963.5 54.6154
2964.5 84.3846
2965.5 48.6923
2966.5 89.3077
2967.5 65.2308
2968.5 34.4615
2969.5 39.5385
2970.5 69.5385
2971.5 44.6154
2972.5 56.4615
2973.5 75
2974.5 69.6154
2975.5 55.5385
2976.5 73.7692
2977.5 52.2308
2978.5 50.9231
2979.5 27.5385
2980.5 59.8462
2981.5 85.3077
2982.5 69.4615
2983.5 66.6923
2984.5 46.6923
2985.5 55.0769
2986.5 47.5385
2987.5 39.0769
2988.5 67.6154
2989.5 68.7692
2990.5 65.2308
2991.5 31.7692
2992.5 62
2993.5 38.7692
2994.5 58.9231
2995.5 29.0769
2996.5 71.3846
2997.5 63.6154
2998.5 70.1538
2999.5 63.0769
3000.5 55.6154
3001.5 73.7692
3002.5 91.4615
3003.5 99.1538
3004.5 152.385
3005.5 192.154
3006.5 180.692
3007.5 116.769
3008.5 88.5385
3009.5 55.7692
3010.5 68.0769
3011.5 79.3077
3012.5 76.9231
3013.5 63.2308
3014.5 61.7692
3015.5 66.1538
3016.5 40.3077
3017.5 34.8462
3018.5 75.7692
3019.5 78.6154
3020.5 25.0769
3021.5 58.3077
3022.5 76.3077
3023.5 36.6154
3024.5 53.3077
3025.5 54.8462
3026.5 41.3077
3027.5 36.6923
3028.5 8.07692
3029.5 49
3030.5 74.9231
3031.5 90.3077
3032.5 60.2308
3033.5 75.7692
3034.5 78.7692
3035.5 55.0769
3036.5 54.2308
3037.5 102.154
3038.5 120.154
3039.5 139
3040.5 105.308
3041.5 46.0769
3042.5 55.3846
3043.5 29.6923
3044.5 61.5385
3045.5 79.8462
3046.5 44.0769
3047.5 66.0769
3048.5 55.8462
3049.5 50.4615
3050.5 52.0769
3051.5 65.7692
3052.5 43.6923
3053.5 41.3846
3054.5 50.1538
3055.5 71
3056.5 57.6154
3057.5 32.6154
3058.5 72.0769
3059.5 51.3846
3060.5 66.4615
3061.5 34.9231
3062.5 77.8462
3063.5 66.2308
3064.5 63.4615
3065.5 50.6923
3066.5 55.1538
3067.5 61.2308
3068.5 55.3846
3069.5 68.4615
3070.5 49.9231
3071.5 60.0769
3072.5 94.1538
3073.5 75.2308
3074.5 74.9231
3075.5 142.231
3076.5 123.692
3077.5 143.308
3078.5 107.769
3079.5 83.7692
3080.5 55.8462
3081.5 53.9231
3082.5 72.1538
3083.5 66.0769
3084.5 42.1538
3085.5 67.9231
3086.5 64.8462
3087.5 43.2308
3088.5 51.2308
3089.5 43.6923
3090.5 54.1538
3091.5 77
3092.5 49.7692
3093.5 62
3094.5 39.5385
3095.5 30
3096.5 9.46154
3097.5 2.38462
3098.5 49.4615
3099.5 31.1538
3100.5 21.5385
3101.5 10.0769
3102.5 57.5385
3103.5 38.3846
3104.5 44.5385
3105.5 75.7692
3106.5 25.2308
3107.5 77.6923
3108.5 67.3077
3109.5 82.3846
3110.5 68.6154
3111.5 60
3112.5 82.5385
3113.5 26.2308
3114.5 62.7692
3115.5 37.7692
3116.5 49.1538
3117.5 54.2308
3118.5 96.1538
3119.5 40.2308
3120.5 27.5385
3121.5 62.5385
3122.5 53.1538
3123.5 72
3124.5 45.5385
3125.5 57.3846
3126.5 44.5385
3127.5 74.6923
3128.5 60.3846
3129.5 59.4615
3130.5 75.1538
3131.5 45.6154
3132.5 58.2308
3133.5 48.7692
3134.5 69.2308
3135.5 69.8462
3136.5 59.5385
3137.5 56.6154
3138.5 59.4615
3139.5 62
3140.5 51.2308
3141.5 83.4615
3142.5 84.2308
3143.5 57.4615
3144.5 38.5385
3145.5 55.1538
3146.5 12.8462
3147.5 76.6923
3148.5 54.1538
3149.5 88.2308
3150.5 71.2308
3151.5 52.6923
3152.5 41.0769
3153.5 74.1538
3154.5 51.3846
3155.5 97.6923
3156.5 97.4615
3157.5 97.1538
3158.5 124.846
3159.5 82.3846
3160.5 75.6154
3161.5 58.4615
3162.5 40.5385
3163.5 68.3077
3164.5 63.5385
3165.5 43.3077
3166.5 67.3846
3167.5 78.6923
3168.5 64.8462
3169.5 66.2308
3170.5 50.4615
3171.5 65.9231
3172.5 88.5385
3173.5 93.6923
3174.5 56
3175.5 25.1538
3176.5 96.4615
3177.5 71.1538
3178.5 75.7692
3179.5 95.9231
3180.5 83
3181.5 93.3077
3182.5 66.5385
3183.5 112.308
3184.5 95.3846
3185.5 116.308
3186.5 182.154
3187.5 239.538
3188.5 173.077
3189.5 104.154
3190.5 124.231
3191.5 128.692
3192.5 282.923
3193.5 556
3194.5 894
3195.5 1223.23
3196.5 1232.31
3197.5 727.692
3198.5 365.154
3199.5 187.923
3200.5 159
3201.5 96.3077
3202.5 67.9231
3203.5 82.0769
3204.5 91
3205.5 122.615
3206.5 129.923
3207.5 79.3846
3208.5 94
3209.5 59.3846
3210.5 88.0769
3211.5 69.5385
3212.5 62.5385
3213.5 64.9231
3214.5 64
3215.5 64.6154
3216.5 59.0769
3217.5 59.9231
3218.5 44.4615
3219.5 8.23077
3220.5 52.1538
3221.5 58.0769
3222.5 35.0769
3223.5 57.0769
3224.5 28.8462
3225.5 75.8462
3226.5 20.3077
3227.5 70.5385
3228.5 28.3077
3229.5 57.4615
3230.5 51.6923
3231.5 52.5385
3232.5 35.6154
3233.5 60.8462
3234.5 63.9231
3235.5 39.6154
3236.5 55
3237.5 74.2308
3238.5 52.4615
3239.5 65.3846
3240.5 86.7692
3241.5 119.308
3242.5 91.4615
3243.5 56.8462
3244.5 78.3077
3245.5 56.1538
3246.5 57.3846
3247.5 67
3248.5 28.0769
3249.5 50.3077
3250.5 47.8462
3251.5 39.9231
3252.5 32.2308
3253.5 34.8462
3254.5 48.3846
3255.5 41.9231
3256.5 14.6923
3257.5 57.0769
3258.5 54.6154
3259.5 65.8462
3260.5 36.3077
3261.5 58.6923
3262.5 73.3846
3263.5 40.9231
3264.5 112.615
3265.5 46.2308
3266.5 74.6154
3267.5 75.9231
3268.5 48
3269.5 43.6923
3270.5 49.5385
3271.5 48.1538
3272.5 34.8462
3273.5 28
3274.5 38
3275.5 49.9231
3276.5 42.2308
3277.5 39.6154
3278.5 37.6154
3279.5 49.3077
3280.5 61.2308
3281.5 40.6154
3282.5 46.1538
3283.5 12.3077
3284.5 43.4615
3285.5 40.5385
3286.5 53.8462
3287.5 39.3077
3288.5 25.0769
3289.5 37.6154
3290.5 40.0769
3291.5 53.1538
3292.5 44.6923
3293.5 34.6923
3294.5 53.2308
3295.5 48.6923
3296.5 53.5385
3297.5 4.15385
3298.5 47.3077
3299.5 39.6923
3300.5 66.3077
3301.5 58.5385
3302.5 49.3846
3303.5 64.9231
3304.5 14.5385
3305.5 37
3306.5 56
3307.5 46.5385
3308.5 40.7692
3309.5 44
3310.5 21.3077
3311.5 33.2308
3312.5 30.0769
3313.5 70.6154
3314.5 44.1538
3315.5 45.1538
3316.5 21.9231
3317.5 39.2308
3318.5 25.4615
3319.5 20.6154
3320.5 26.7692
3321.5 30.6154
3322.5 27.6154
3323.5 20.9231
3324.5 38.6154
3325.5 15.1538
3326.5 31.8462
3327.5 33.2308
3328.5 25.8462
3329.5 56
3330.5 20
3331.5 57.6923
3332.5 54.3077
3333.5 36.1538
3334.5 40.6923
3335.5 35.3846
3336.5 45.3077
3337.5 39.3077
3338.5 26.6923
3339.5 34.6154
3340.5 53.1538
3341.5 34.6154
3342.5 33.6154
3343.5 21
3344.5 51.6923
3345.5 32.3846
3346.5 41.4615
3347.5 15.2308
3348.5 41.9231
3349.5 44.8462
3350.5 22.3846
3351.5 11.5385
3352.5 23.2308
3353.5 25.0769
3354.5 36.0769
3355.5 33.0769
3356.5 22.1538
3357.5 48.5385
3358.5 34.1538
3359.5 18.2308
3360.5 32.6923
3361.5 27.6923
3362.5 51.0769
3363.5 5.30769
3364.5 14.1538
3365.5 16.9231
3366.5 43.3077
3367.5 9.07692
3368.5 31.6154
3369.5 46.3077
3370.5 26
3371.5 35.4615
3372.5 41.9231
3373.5 4.38462
3374.5 36.3077
3375.5 9.23077
3376.5 22.6923
3377.5 16.3846
3378.5 25.7692
3379.5 24.1538
3380.5 26.8462
3381.5 46.8462
3382.5 4.53846
3383.5 20.5385
3384.5 27.1538
3385.5 13.5385
3386.5 6.53846
3387.5 -8.07692
3388.5 33.8462
3389.5 29.6923
3390.5 25.7692
3391.5 18.7692
3392.5 30.2308
3393.5 25.6154
3394.5 33.8462
3395.5 60.8462
3396.5 41.7692
3397.5 35.5385
3398.5 12.8462
3399.5 6.92308
3400.5 12.7692
3401.5 8.76923
3402.5 43.5385
3403.5 20.3846
3404.5 18.6154
3405.5 2.61539
3406.5 44.2308
3407.5 19.0769
3408.5 -6.15384
3409.5 16.6154
3410.5 2.69231
3411.5 -3.07692
3412.5 17.3846
3413.5 30.0769
3414.5 12.8462
3415.5 23.9231
3416.5 23.4615
3417.5 33.9231
3418.5 54.2308
3419.5 37
3420.5 34.3077
3421.5 36
3422.5 24.1538
3423.5 21.4615
3424.5 37.3077
3425.5 44.2308
3426.5 22.2308
3427.5 78.6923
3428.5 24
3429.5 15.1538
3430.5 20
3431.5 5
3432.5 34.1538
3433.5 21.6923
3434.5 26.3077
3435.5 40.0769
3436.5 21
3437.5 7.46154
3438.5 39.6923
3439.5 32.6923
3440.5 33.1538
3441.5 30
3442.5 65.1538
3443.5 91
3444.5 217.923
3445.5 422.385
3446.5 805
3447.5 1467.54
3448.5 2622.92
3449.5 3567.08
3450.5 3812.15
3451.5 2590.77
3452.5 1255.69
3453.5 448.692
3454.5 158.846
3455.5 89.3077
3456.5 54.6923
3457.5 29.3846
3458.5 43.6154
3459.5 20.5385
3460.5 -5.30769
3461.5 13.7692
3462.5 3.30769
3463.5 -2.38461
3464.5 -10.9231
3465.5 10.0769
3466.5 8.46154
3467.5 -11.0769
3468.5 16.1538
3469.5 2
3470.5 15.0769
3471.5 10.0769
3472.5 10.6923
3473.5 -6.23077
3474.5 -4.69231
3475.5 11.3077
3476.5 10.5385
3477.5 -0.615384
3478.5 8.84615
3479.5 13.4615
3480.5 6
3481.5 -10.3846
3482.5 7.23077
3483.5 2.84615
3484.5 13.8462
3485.5 9.61539
3486.5 18.6154
3487.5 8.15385
3488.5 2.23077
3489.5 4.46154
3490.5 -46.6923
3491.5 -36.7692
3492.5 71.9231
3493.5 1.3077
3494.5 -5.15384
3495.5 -1.38461
3496.5 39.0769
3497.5 12.9231
3498.5 2.92308
3499.5 -11.6154
3500.5 -0.615384
3501.5 13.1538
3502.5 8.61539
3503.5 3.53846
3504.5 15.8462
3505.5 13.6154
3506.5 -3.61538
3507.5 -5.76923
3508.5 7.07692
3509.5 32
3510.5 16.8462
3511.5 -2.92308
3512.5 6.07692
3513.5 4.61539
3514.5 7.61539
3515.5 15.4615
3516.5 -3.76923
3517.5 12
3518.5 -3.46154
3519.5 25.6154
3520.5 22.3077
3521.5 17.6154
3522.5 7.76923
3523.5 -0.461538
3524.5 8.38462
3525.5 6
3526.5 2.30769
3527.5 18.6154
3528.5 11.6923
3529.5 13.5385
3530.5 11.5385
3531.5 13
3532.5 -0.692305
3533.5 10
3534.5 -13.6923
3535.5 -3.07692
3536.5 -58.0769
3537.5 -141.615
3538.5 -137.154
3539.5 -154.385
3540.5 -83.5385
3541.5 -35.9231
3542.5 -12.2308
3543.5 8.38462
3544.5 26.0769
3545.5 10.5385
3546.5 7.15256e-07
3547.5 18.4615
3548.5 15
3549.5 2.46154
3550.5 28.6923
3551.5 32.3077
3552.5 36.9231
3553.5 45.8462
3554.5 55.4615
3555.5 44.5385
3556.5 36.1538
3557.5 18.6154
3558.5 21
3559.5 17.6923
3560.5 12.6923
3561.5 14.9231
3562.5 11.6923
3563.5 13.3846
3564.5 19.5385
3565.5 7.15385
3566.5 6.30769
3567.5 30.6923
3568.5 5
3569.5 24.0769
3570.5 11.3077
3571.5 -0.384615
3572.5 24.2308
3573.5 5.92308
3574.5 24.3846
3575.5 -3.53846
3576.5 13.2308
3577.5 9
3578.5 17.0769
3579.5 33.1538
3580.5 31.6923
3581.5 22.3077
3582.5 38.7692
3583.5 27.3846
3584.5 23.9231
3585.5 33.1538
3586.5 23.9231
3587.5 30.5385
3588.5 29.5385
3589.5 24.3077
3590.5 8.92308
3591.5 19
3592.5 23.5385
3593.5 23.2308
3594.5 15.6154
3595.5 26.0769
3596.5 -7.46154
3597.5 3.76923
3598.5 16.3846
3599.5 21.7692
3600.5 -9.30769
3601.5 6.07692
3602.5 13.5385
3603.5 23.1538
3604.5 5.15385
3605.5 23
3606.5 15.1538
3607.5 5.61539
3608.5 -8.92308
3609.5 20.5385
3610.5 -5.38461
3611.5 7.69231
3612.5 1.76923
3613.5 7.15256e-07
3614.5 23.2308
3615.5 -18.9231
3616.5 21.4615
3617.5 18.2308
3618.5 10.0769
3619.5 0.307694
3620.5 -0.615383
3621.5 17.7692
3622.5 3.38462
3623.5 -2.84615
3624.5 3.23077
3625.5 6.07692
3626.5 -4.53846
3627.5 -1.84615
3628.5 6
3629.5 14.1538
3630.5 -6.07692
3631.5 21.8462
3632.5 16.8462
3633.5 16
3634.5 22.7692
3635.5 8.46154
3636.5 11.9231
3637.5 17.4615
3638.5 4.30769
3639.5 15.7692
3640.5 -4.07692
3641.5 5.38462
3642.5 -3.46154
3643.5 32.2308
3644.5 36
3645.5 14
3646.5 0.46154
3647.5 16
3648.5 -3.15384
3649.5 -0.384614
3650.5 14.9231
3651.5 -3.07692
3652.5 18.9231
3653.5 3.84616
3654.5 20.3077
3655.5 4.23077
3656.5 27.9231
3657.5 23.6923
3658.5 38.3077
3659.5 21.1538
3660.5 38.9231
3661.5 21.6923
3662.5 23.0769
3663.5 43.3077
3664.5 20.3846
3665.5 5.84615
3666.5 -7.92308
3667.5 28.0769
3668.5 1.07692
3669.5 29.2308
3670.5 17.9231
3671.5 10.3077
3672.5 11.3846
3673.5 4.46154
3674.5 19.4615
3675.5 15.8462
3676.5 4.23077
3677.5 18.5385
3678.5 21.9231
3679.5 28.3846
3680.5 1.92308
3681.5 21.1538
3682.5 21.2308
3683.5 11.3077
3684.5 4.23077
3685.5 23.8462
3686.5 5.69231
3687.5 20.1538
3688.5 11.3846
3689.5 22.0769
3690.5 -6.46154
3691.5 15.3077
3692.5 26.2308
3693.5 4.84615
3694.5 23
3695.5 8.07692
3696.5 26.6154
3697.5 28.2308
3698.5 13.8462
3699.5 23.5385
3700.5 28.4615
3701.5 38.6154
3702.5 12.3077
3703.5 32.6154
3704.5 30.0769
3705.5 34.7692
3706.5 14.0769
3707.5 -3.23077
3708.5 35.4615
3709.5 9.61539
3710.5 15.5385
3711.5 -13
3712.5 19.8462
3713.5 -9.69231
3714.5 7.76923
3715.5 14.3077
3716.5 20.2308
3717.5 0.769232
3718.5 20.9231
3719.5 31
3720.5 30.1538
3721.5 8.61539
3722.5 18.7692
3723.5 8.46154
3724.5 19.0769
3725.5 4.07692
3726.5 10
3727.5 21.3846
3728.5 6
3729.5 -0.923076
3730.5 13.5385
3731.5 -13.4615
3732.5 8.46154
3733.5 9.61539
3734.5 34.4615
3735.5 4.23077
3736.5 -3.07692
3737.5 24.6923
3738.5 13.6154
3739.5 28.4615
3740.5 17.6923
3741.5 -0.538461
3742.5 1.61539
3743.5 17.3077
3744.5 30.4615
3745.5 19.2308
3746.5 20.0769
3747.5 43.2308
3748.5 32.8462
3749.5 24.1538
3750.5 29.5385
3751.5 -4.76923
3752.5 14.6154
3753.5 3.92308
3754.5 22.6923
3755.5 23.3077
3756.5 25.3846
3757.5 20.3846
3758.5 23
3759.5 26.6923
3760.5 7.23077
3761.5 19.0769
3762.5 21
3763.5 30
3764.5 6.69231
3765.5 24
3766.5 12.6923
3767.5 3.38462
3768.5 13.6923
3769.5 -2.07692
3770.5 17.7692
3771.5 16.4615
3772.5 6.53846
3773.5 8.38462
3774.5 6.92308
3775.5 10.4615
3776.5 3.07692
3777.5 18.3846
3778.5 25.6923
3779.5 13.5385
3780.5 -3.38461
3781.5 15.4615
3782.5 18.2308
3783.5 25.2308
3784.5 1.53846
3785.5 23.3846
3786.5 21.3846
3787.5 44.8462
3788.5 -6.61538
3789.5 24.1538
3790.5 6.38462
3791.5 10.9231
3792.5 11.3077
3793.5 22.4615
3794.5 -15.3846
3795.5 4.92308
3796.5 25.6154
3797.5 0.384616
3798.5 1.15385
3799.5 28.5385
3800.5 18.1538
3801.5 7.23077
3802.5 10.5385
3803.5 24.1538
3804.5 16.9231
3805.5 2.53846
3806.5 5.30769
3807.5 14.3077
3808.5 6.38462
3809.5 5
3810.5 31.9231
3811.5 6.92308
3812.5 25.4615
3813.5 7.69231
3814.5 3.46154
3815.5 0.923078
3816.5 21
3817.5 7.23077
3818.5 20.0769
3819.5 16.6154
3820.5 7.61539
3821.5 2.92308
3822.5 24.0769
3823.5 8.84615
3824.5 10.4615
3825.5 18.3077
3826.5 9.23077
3827.5 17.3077
3828.5 22.3846
3829.5 16.6154
3830.5 19.3846
3831.5 3.30769
3832.5 6.69231
3833.5 3.92308
3834.5 19.7692
3835.5 25
3836.5 4.69231
3837.5 -6.92308
3838.5 37.3846
3839.5 3.53846
3840.5 12.7692
3841.5 19
3842.5 21.0769
3843.5 13.7692
3844.5 5.46154
3845.5 7.53846
3846.5 10.9231
3847.5 24.4615
3848.5 17.6923
3849.5 18.1538
3850.5 15
3851.5 14.6923
3852.5 18.6154
3853.5 1.23077
3854.5 2.07692
3855.5 1.07692
3856.5 -12.9231
3857.5 3.07692
3858.5 11.5385
3859.5 28.3077
3860.5 -11.6154
3861.5 -17.8462
3862.5 3.15385
3863.5 40.8462
3864.5 9.38462
3865.5 26.3846
3866.5 13.8462
3867.5 -0.999999
3868.5 29.8462
3869.5 3.69231
3870.5 19.7692
3871.5 23.4615
3872.5 16.0769
3873.5 2.46154
3874.5 7.61539
3875.5 5.84615
3876.5 21.0769
3877.5 5.07692
3878.5 14.5385
3879.5 4.84615
3880.5 9
3881.5 8
3882.5 11.3077
3883.5 8.30769
3884.5 -8.15385
3885.5 0.615385
3886.5 -0.76923
3887.5 18.2308
3888.5 7.23077
3889.5 17.0769
3890.5 14.7692
3891.5 3.92308
3892.5 17.3077
3893.5 12.2308
3894.5 18
3895.5 28.0769
3896.5 8.69231
3897.5 19.4615
3898.5 -3.07692
3899.5 14.4615
3900.5 8.38462
3901.5 13.3846
3902.5 -1.38461
3903.5 8.61539
3904.5 9.15385
3905.5 2.69231
3906.5 1.84615
3907.5 -18.3846
3908.5 14.7692
3909.5 8.15385
3910.5 -11.9231
3911.5 4.69231
3912.5 12.6923
3913.5 6.53846
3914.5 17.5385
3915.5 -16.3846
3916.5 21.1538
3917.5 -2.61538
3918.5 -7.07692
3919.5 -8.46154
3920.5 -42
3921.5 -42.9231
3922.5 -45.6923
3923.5 -33.6154
3924.5 -26.8462
3925.5 14.8462
3926.5 31.3846
3927.5 6.69231
3928.5 -9.30769
3929.5 -6.46154
3930.5 10.6154
3931.5 -0.153846
3932.5 27.5385
3933.5 10.8462
3934.5 2.23077
3935.5 2.23077
3936.5 6.61539
3937.5 24.5385
3938.5 10.0769
3939.5 18.0769
3940.5 13.2308
3941.5 5.23077
3942.5 8.46154
3943.5 10.4615
3944.5 10.1538
3945.5 14.0769
3946.5 11.5385
3947.5 12.1538
3948.5 5.69231
3949.5 19.6923
3950.5 14.7692
3951.5 22.4615
3952.5 60.6154
3953.5 98.1538
3954.5 177.769
3955.5 353.615
3956.5 447.769
3957.5 491.385
3958.5 448.231
3959.5 363.692
3960.5 182.462
3961.5 83.5385
3962.5 30.8462
3963.5 14.1538
3964.5 1.69231
3965.5 -1.38461
3966.5 22.7692
3967.5 16.1538
3968.5 -2.46154
3969.5 16.3077
3970.5 11
3971.5 18.3846
3972.5 2.15385
3973.5 6.07693
3974.5 -16.8462
3975.5 1.76923
3976.5 1.38462
3977.5 -4.38461
3978.5 -28.4615
3979.5 -42.5385
3980.5 -34.2308
3981.5 -21.6923
3982.5 2.30769
3983.5 -4.61538
3984.5 4.61539
3985.5 -1.61538
3986.5 6.23077
3987.5 -4.53846
3988.5 -8.15385
3989.5 11.5385
3990.5 6.61539
3991.5 12.0769
3992.5 13
3993.5 15.6154
3994.5 0.23077
3995.5 -2.23077
3996.5 11.1538
3997.5 -11.0769
3998.5 7.15385
3999.5 -2.84615
4000.5 9.76923
4001.5 4.15385
4002.5 9.84615
4003.5 -2
4004.5 14.0769
4005.5 16.4615
4006.5 12.3077
4007.5 -7.30769
4008.5 -6.30769
4009.5 -8.23077
4010.5 6.15385
4011.5 6
4012.5 -4.84615
4013.5 -8.30769
4014.5 0.538462
4015.5 5.07692
4016.5 3.53846
4017.5 5.92308
4018.5 -4.38461
4019.5 -10.3077
4020.5 24.3846
4021.5 -5.84615
4022.5 6.46154
4023.5 4.53846
4024.5 11.0769
4025.5 19.4615
4026.5 -0.76923
4027.5 9.92308
4028.5 12.9231
4029.5 10.3846
4030.5 7.53846
4031.5 3.30769
4032.5 9.69231
4033.5 6.84615
4034.5 9.38462
4035.5 -2.07692
4036.5 4.23077
4037.5 5.61539
4038.5 -0.76923
4039.5 8.61539
4040.5 -4.61538
4041.5 -5.38461
4042.5 7.53846
4043.5 3.07692
4044.5 6.15385
4045.5 16.9231
4046.5 9.07692
4047.5 -12.1538
4048.5 13.5385
4049.5 11
4050.5 7.38462
4051.5 -0.692307
4052.5 13.3846
4053.5 5.53846
4054.5 11.0769
4055.5 16
4056.5 17.8462
4057.5 18
4058.5 12.1538
4059.5 21.2308
4060.5 39.7692
4061.5 50.3077
4062.5 52.3077
4063.5 107.462
4064.5 88.3077
4065.5 81.7692
4066.5 84.7692
4067.5 60.8462
4068.5 4.84615
4069.5 22.8462
4070.5 1.30769
4071.5 17.0769
4072.5 23.1538
4073.5 7.69231
4074.5 8
4075.5 22.5385
4076.5 10.3077
4077.5 7.15256e-07
4078.5 8.84615
4079.5 8.92308
4080.5 -8.76923
4081.5 19.0769
4082.5 -1.61538
4083.5 10
4084.5 -2.30769
4085.5 13.0769
4086.5 9.53846
4087.5 14.6154
4088.5 9.46154
4089.5 2.53846
4090.5 -1.38461
4091.5 15
4092.5 4.23077
4093.5 12.9231
4094.5 -8.23077
4095.5 0.923077
4096.5 13.8462
4097.5 6.07692
4098.5 2
4099.5 18.9231
4100.5 6.07692
4101.5 11.9231
4102.5 5.76923
4103.5 13.3077
4104.5 11.9231
4105.5 11.3846
4106.5 5.69231
4107.5 17.1538
4108.5 20.1538
4109.5 7.92308
4110.5 9.92308
4111.5 19.6923
4112.5 6.76923
4113.5 7.07692
4114.5 -7.61538
4115.5 14.1538
4116.5 16.5385
4117.5 5.61539
4118.5 10.8462
4119.5 -3.84615
4120.5 8.61539
4121.5 22.4615
4122.5 3.92308
4123.5 13.6154
4124.5 13.9231
4125.5 10.1538
4126.5 8.69231
4127.5 11.1538
4128.5 4.84615
4129.5 15.1538
4130.5 10.3077
4131.5 6
4132.5 -8.92308
4133.5 9.61539
4134.5 14.0769
4135.5 -2.23077
4136.5 -7.76923
4137.5 18.6923
4138.5 1
4139.5 4
4140.5 5.76923
4141.5 -8.53846
4142.5 -15.6923
4143.5 17.1538
4144.5 -3.53846
4145.5 8.23077
4146.5 16.3077
4147.5 -10.6923
4148.5 4.53846
4149.5 2.07692
4150.5 5.07692
4151.5 20.2308
4152.5 11.1538
4153.5 7.07692
4154.5 4.53846
4155.5 12.9231
4156.5 9
4157.5 -0.461538
4158.5 20.7692
4159.5 12.3846
4160.5 -7.07692
4161.5 7.07692
4162.5 18.5385
4163.5 6.61539
4164.5 11.1538
4165.5 10.3846
4166.5 24.3077
4167.5 24.7692
4168.5 38.9231
4169.5 44.8462
4170.5 33.3077
4171.5 21.2308
4172.5 8.53846
4173.5 8.15385
4174.5 8.15385
4175.5 8.61539
4176.5 -3.84615
4177.5 9.30769
4178.5 -3.61538
4179.5 16.3846
4180.5 1
4181.5 -1.92308
4182.5 12
4183.5 0.846154
4184.5 -12.4615
4185.5 8.30769
4186.5 8.07692
4187.5 13.0769
4188.5 8.07692
4189.5 10.7692
4190.5 14.4615
4191.5 1.69231
4192.5 5.92308
4193.5 4.07692
4194.5 4.92308
4195.5 3.53846
4196.5 -2.30769
4197.5 20.9231
4198.5 1.38462
4199.5 -3.69231
4200.5 14.2308
4201.5 4.69231
4202.5 16
4203.5 20.9231
4204.5 2.69231
4205.5 15.3846
4206.5 9.61539
4207.5 4.76923
4208.5 10.3077
4209.5 22.5385
4210.5 0.769231
4211.5 6.69231
4212.5 20.3846
4213.5 16.7692
4214.5 3
4215.5 27.5385
4216.5 1.76923
4217.5 11
4218.5 -2.61538
4219.5 4.76923
4220.5 10.8462
4221.5 16.3077
4222.5 15.9231
4223.5 0.153847
4224.5 14.8462
4225.5 15.0769
4226.5 2.15385
4227.5 -3.76923
4228.5 15.5385
4229.5 7.15385
4230.5 8.46154
4231.5 1.61539
4232.5 12.9231
4233.5 17.7692
4234.5 3.07692
4235.5 11.4615
4236.5 19.3846
4237.5 4.61539
4238.5 19.3077
4239.5 11.3077
4240.5 10.9231
4241.5 12.4615
4242.5 12.9231
4243.5 15.8462
4244.5 12.4615
4245.5 1.53846
4246.5 4
4247.5 9.46154
4248.5 18.3077
4249.5 3
4250.5 3.61539
4251.5 14.3846
4252.5 -1.30769
4253.5 8.53846
4254.5 7.38462
4255.5 6.53846
4256.5 1.07692
4257.5 -1.38461
4258.5 14
4259.5 12.5385
4260.5 0.615385
4261.5 9.92308
4262.5 13.4615
4263.5 -15
4264.5 10.2308
4265.5 -5.76923
4266.5 16
4267.5 20.8462
4268.5 26
4269.5 17.3846
4270.5 -1.84615
4271.5 -2.30769
4272.5 -7.76923
4273.5 13.3077
4274.5 3.46154
4275.5 18.3077
4276.5 12
4277.5 6.38462
4278.5 5.92308
4279.5 20.4615
4280.5 9
4281.5 5.15385
4282.5 9.07692
4283.5 22.1538
4284.5 22.8462
4285.5 11.4615
4286.5 8
4287.5 14.3846
4288.5 8.76923
4289.5 18.9231
4290.5 3.46154
4291.5 1.23077
4292.5 -7.76923
4293.5 12.5385
4294.5 26.3846
4295.5 21.6154
4296.5 -1.46154
4297.5 16.0769
4298.5 6.76923
4299.5 6
4300.5 6.53846
4301.5 9.76923
4302.5 -10.8462
4303.5 5.07692
4304.5 6.61539
4305.5 -1.30769
4306.5 6.61539
4307.5 17.3077
4308.5 12.4615
4309.5 14.2308
4310.5 6.53846
4311.5 17.3846
4312.5 16
4313.5 -0.384615
4314.5 6.15385
4315.5 22.9231
4316.5 28.6923
4317.5 11.2308
4318.5 14.2308
4319.5 6.84615
4320.5 19
4321.5 17
4322.5 14.3846
4323.5 2.07692
4324.5 17.5385
4325.5 6.38462
4326.5 9
4327.5 11.8462
4328.5 13.8462
4329.5 11
4330.5 11.9231
4331.5 0.153847
4332.5 16.6923
4333.5 19.3077
4334.5 7.46154
4335.5 11.3846
4336.5 13.3846
4337.5 8.38462
4338.5 21.7692
4339.5 13.4615
4340.5 -6.76923
4341.5 7.61539
4342.5 12.1538
4343.5 -0.230769
4344.5 4
4345.5 2.84615
4346.5 13.6923
4347.5 15.9231
4348.5 4
4349.5 5.61539
4350.5 8.15385
4351.5 5.46154
4352.5 16.4615
4353.5 9.69231
4354.5 6.92308
4355.5 11.9231
4356.5 2.61539
4357.5 2.53846
4358.5 16.3846
4359.5 6.69231
4360.5 -5.84615
4361.5 9.07692
4362.5 14
4363.5 10
4364.5 0.538462
4365.5 4.46154
4366.5 19.8462
4367.5 8.53846
4368.5 -2.38461
4369.5 18.0769
4370.5 19.3077
4371.5 4.07692
4372.5 4.07692
4373.5 10.4615
4374.5 -2.30769
4375.5 12.5385
4376.5 11.0769
4377.5 15.5385
4378.5 12.1538
4379.5 7.92308
4380.5 11.9231
4381.5 23.4615
4382.5 -2.38461
4383.5 18.2308
4384.5 1.84615
4385.5 7.61539
4386.5 4.76923
4387.5 -3.38461
4388.5 6.30769
4389.5 6.53846
4390.5 11.6923
4391.5 -1.15384
4392.5 11.8462
4393.5 10.4615
4394.5 6.46154
4395.5 9.84615
4396.5 -6.84615
4397.5 5.15385
4398.5 10.9231
4399.5 2.92308
4400.5 9.53846
4401.5 1.84615
4402.5 0.538462
4403.5 12.7692
4404.5 6.46154
4405.5 14.7692
4406.5 25.2308
4407.5 17.7692
4408.5 8.38462
4409.5 16.2308
4410.5 9.07692
4411.5 15.7692
4412.5 9.76923
4413.5 10.8462
4414.5 2.92308
4415.5 8.92308
4416.5 11.8462
4417.5 4.92308
4418.5 4
4419.5 13.3846
4420.5 6
4421.5 5.46154
4422.5 4.38462
4423.5 8.46154
4424.5 6.23077
4425.5 11.3077
4426.5 13.8462
4427.5 6.23077
4428.5 8.76923
4429.5 6.84615
4430.5 3
4431.5 -0.0769224
4432.5 -2.15385
4433.5 7.46154
4434.5 2.07692
4435.5 -0.153844
4436.5 13.6154
4437.5 0.692309
4438.5 6.38462
4439.5 25.1538
4440.5 20.8462
4441.5 -2.53846
4442.5 -1.30769
4443.5 12.7692
4444.5 -1.46154
4445.5 11.7692
4446.5 8.38462
4447.5 13.3077
4448.5 12.3077
4449.5 20.1538
4450.5 16.2308
4451.5 10.2308
4452.5 8.30769
4453.5 5.46154
4454.5 12.3846
4455.5 10.0769
4456.5 7.53846
4457.5 17.4615
4458.5 3.07692
4459.5 9
4460.5 3.92308
4461.5 17.9231
4462.5 -2
4463.5 8.84615
4464.5 -5.46154
4465.5 5.92308
4466.5 2.38462
4467.5 11.1538
4468.5 -1
4469.5 2.46154
4470.5 3.46154
4471.5 0.461539
4472.5 9.76923
4473.5 5.38462
4474.5 8.30769
4475.5 9.38462
4476.5 2.92308
4477.5 6.84615
4478.5 3.57628e-07
4479.5 6.15385
4480.5 2.84615
4481.5 10.7692
4482.5 -1.23077
4483.5 6.76923
4484.5 2.30769
4485.5 1.84615
4486.5 0.461539
4487.5 -0.0769228
4488.5 0.307693
4489.5 6.76923
4490.5 -3.46154
4491.5 -1.92308
4492.5 10.7692
4493.5 -0.461538
4494.5 15.5385
4495.5 6.53846
4496.5 -4.15385
4497.5 1.84615
4498.5 -3
4499.5 -2.61538
4500.5 5.46154
4501.5 3.15385
4502.5 -10.8462
4503.5 0.615385
4504.5 -5.92308
4505.5 7.92308
4506.5 10.8462
4507.5 -9.84615
4508.5 3
4509.5 3.53846
4510.5 8.84615
4511.5 -7.92308
4512.5 11.3846
4513.5 9.30769
4514.5 0.307693
4515.5 -2.53846
4516.5 -0.230769
4517.5 4.30769
4518.5 14.2308
4519.5 2.76923
4520.5 7.92308
4521.5 6.76923
4522.5 0.384616
4523.5 0.384616
4524.5 3.84615
4525.5 -5.07692
4526.5 3.84615
4527.5 6.76923
4528.5 6.76923
4529.5 5.84615
4530.5 -7.76923
4531.5 3.30769
4532.5 4.69231
4533.5 5.38462
4534.5 0.846154
4535.5 11.2308
4536.5 -3.53846
4537.5 -6.38461
4538.5 3.23077
4539.5 10.9231
4540.5 -7.61538
4541.5 6.23077
4542.5 10.1538
4543.5 0.384616
4544.5 7.23077
4545.5 4.23077
4546.5 11.6923
4547.5 0.384616
4548.5 0.846154
4549.5 8.69231
4550.5 7.76923
4551.5 4.92308
4552.5 11.2308
4553.5 10.3077
4554.5 12
4555.5 6.92308
4556.5 19.8462
4557.5 -1.38461
4558.5 3.57628e-07
4559.5 1.38462
4560.5 0.769231
4561.5 9.53846
4562.5 17.1538
4563.5 13.6923
4564.5 14.6923
4565.5 6.30769
4566.5 2.46154
4567.5 18.7692
4568.5 33.3077
4569.5 37.3077
4570.5 58.3846
4571.5 83.6154
4572.5 141.077
4573.5 194.077
4574.5 237.077
4575.5 316.538
4576.5 344.462
4577.5 338.538
4578.5 197.538
4579.5 92.2308
4580.5 51.7692
4581.5 26.3077
4582.5 16.4615
4583.5 5.76923
4584.5 6.84615
4585.5 14.1538
4586.5 -7
4587.5 0.846154
4588.5 -7.38461
4589.5 5.30769
4590.5 4.69231
4591.5 -1.69231
4592.5 -9.92308
4593.5 -0.769231
4594.5 -13.4615
4595.5 -0.0769228
4596.5 -1.92308
4597.5 3.38462
4598.5 1.53846
4599.5 -21.6923
4600.5 1.38462
4601.5 2.30769
4602.5 -5
4603.5 -14.6923
4604.5 -5.92308
4605.5 10.4615
4606.5 0.923077
4607.5 -1.61538
4608.5 14.2308
4609.5 8.76923
4610.5 10.1538
4611.5 -0.538461
4612.5 3
4613.5 8.53846
4614.5 0.461539
4615.5 -3
4616.5 3.53846
4617.5 27.3846
4618.5 -13.1538
4619.5 39.0769
4620.5 -3.76923
4621.5 -18.6923
4622.5 4.84616
4623.5 -12.8462
4624.5 -12.8462
4625.5 2.53846
4626.5 15.6154
4627.5 -6.53846
4628.5 -3.30769
4629.5 -3.46154
4630.5 15.3077
4631.5 -0.0769228
4632.5 1.76923
4633.5 -0.692307
4634.5 6.15385
4635.5 3.76923
4636.5 6.76923
4637.5 -10
4638.5 9.23077
4639.5 0.230769
4640.5 5.30769
4641.5 12.6923
4642.5 7.84615
4643.5 1.84615
4644.5 7.76923
4645.5 4.38462
4646.5 6.30769
4647.5 5
4648.5 20.3077
4649.5 35.6923
4650.5 19.4615
4651.5 9
4652.5 7
4653.5 -0.76923
4654.5 -8.38461
4655.5 2.23077
4656.5 3.15385
4657.5 7.76923
4658.5 2.23077
4659.5 5.61538
4660.5 -3.69231
4661.5 -2.76923
4662.5 -1.30769
4663.5 5.69231
4664.5 -0.307692
4665.5 -5.69231
4666.5 -5.23077
4667.5 7.23077
4668.5 -4.69231
4669.5 4.15385
4670.5 3.23077
4671.5 8.61538
4672.5 -1.23077
4673.5 13.2308
4674.5 -0.769231
4675.5 5.15385
4676.5 5.76923
4677.5 2.23077
4678.5 5.69231
4679.5 3.69231
4680.5 1.15385
4681.5 -5.07692
4682.5 5.30769
4683.5 -6.76923
4684.5 -7
4685.5 -7.46154
4686.5 3.46154
4687.5 3.07692
4688.5 8.07692
4689.5 -5.38461
4690.5 4.30769
4691.5 1.23077
4692.5 -2.69231
4693.5 8.15385
4694.5 3.69231
4695.5 16
4696.5 4.15385
4697.5 3.15385
4698.5 5.15385
4699.5 6.61538
4700.5 -0.230769
4701.5 -0.230769
4702.5 6.61538
4703.5 4.69231
4704.5 4.69231
4705.5 4.15385
4706.5 1.23077
4707.5 6.15385
4708.5 6.30769
4709.5 3.23077
4710.5 3.30769
4711.5 8.15385
4712.5 14.0769
4713.5 7.15385
4714.5 4.69231
4715.5 -0.153846
4716.5 6.15385
4717.5 9.69231
4718.5 4.76923
4719.5 -5.15385
4720.5 1.30769
4721.5 5.69231
4722.5 4.61538
4723.5 7.61538
4724.5 -1.15385
4725.5 4.23077
4726.5 1.23077
4727.5 1.07692
4728.5 8.69231
4729.5 -6.07692
4730.5 -1.69231
4731.5 -0.615384
4732.5 2.46154
4733.5 -4.30769
4734.5 -2
4735.5 -3.46154
4736.5 -3.07692
4737.5 5.30769
4738.5 3.84615
4739.5 11.6923
4740.5 10.0769
4741.5 0.769231
4742.5 6.15385
4743.5 7.61538
4744.5 -3.23077
4745.5 4.69231
4746.5 -0.692307
4747.5 3.23077
4748.5 6.53846
4749.5 6.61538
4750.5 1.23077
4751.5 1.23077
4752.5 6.61538
4753.5 -2.61538
4754.5 3.76923
4755.5 7.07692
4756.5 5.15385
4757.5 1.69231
4758.5 3.15385
4759.5 13.1538
4760.5 4.53846
4761.5 1.23077
4762.5 -1.30769
4763.5 7.15385
4764.5 4.53846
4765.5 8.61538
4766.5 5.61538
4767.5 0.692308
4768.5 -2.15385
4769.5 0.769231
4770.5 -6.92308
4771.5 3
4772.5 1.46154
4773.5 -1.30769
4774.5 3.92308
4775.5 10.9231
4776.5 12.1538
4777.5 -6.76923
4778.5 -4.76923
4779.5 -2
4780.5 -8.30769
4781.5 5.30769
4782.5 -4.15385
4783.5 -1.76923
4784.5 7.23077
4785.5 0.230769
4786.5 5.61538
4787.5 6.15385
4788.5 0.769231
4789.5 0.692308
4790.5 4.07692
4791.5 1.15385
4792.5 -4.69231
4793.5 -1.61538
4794.5 5.15385
4795.5 6.15385
4796.5 5.23077
4797.5 -0.769231
4798.5 6.15385
4799.5 7.07692
4800.5 2.23077
4801.5 7.23077
4802.5 -0.615384
4803.5 13.3846
4804.5 -0.76923
4805.5 20.1538
4806.5 9.07692
4807.5 12.2308
4808.5 5.38462
4809.5 -2.23077
4810.5 -0.461538
4811.5 -3.23077
4812.5 12.2308
4813.5 -3.15385
4814.5 -6.53846
4815.5 9.23077
4816.5 8.15385
4817.5 5.84615
4818.5 5.69231
4819.5 -2.23077
4820.5 8.07692
4821.5 6.15385
4822.5 2.15385
4823.5 -1.30769
4824.5 -1.30769
4825.5 4.15385
4826.5 9.61538
4827.5 0.692308
4828.5 0.307693
4829.5 0.769231
4830.5 -2.15385
4831.5 10.0769
4832.5 4.23077
4833.5 18.6154
4834.5 5.23077
4835.5 1.69231
4836.5 5.61538
4837.5 6.53846
4838.5 2.07692
4839.5 1.30769
4840.5 14.1538
4841.5 1.23077
4842.5 -2.76923
4843.5 0.769231
4844.5 7.15385
4845.5 4.76923
4846.5 3.69231
4847.5 7.23077
4848.5 -11.0769
4849.5 -2.15385
4850.5 -1.15385
4851.5 7.76923
4852.5 2.84615
4853.5 10.7692
4854.5 3.84615
4855.5 1
4856.5 3.38462
4857.5 -4.46154
4858.5 7.84615
4859.5 4.23077
4860.5 6.07692
4861.5 9.53846
4862.5 13.0769
4863.5 -3.07692
4864.5 2.30769
4865.5 1.07692
4866.5 6.69231
4867.5 5.76923
4868.5 5.61538
4869.5 8.69231
4870.5 7.23077
4871.5 3.69231
4872.5 -6.92308
4873.5 3.15385
4874.5 -7.61538
4875.5 1.23077
4876.5 8.69231
4877.5 13.2308
4878.5 -1.07692
4879.5 3.69231
4880.5 5.61538
4881.5 1.84615
4882.5 -3.15385
4883.5 7.15385
4884.5 10.1538
4885.5 -0.692307
4886.5 -2.15385
4887.5 6.84615
4888.5 -1.07692
4889.5 -3.53846
4890.5 21.6154
4891.5 4.23077
4892.5 -2.15385
4893.5 3.69231
4894.5 -1.76923
4895.5 4.15385
4896.5 0.692308
4897.5 7.07692
4898.5 -1.30769
4899.5 5.61538
4900.5 3.23077
4901.5 5.76923
4902.5 -8.38461
4903.5 -5.53846
4904.5 4.15385
4905.5 3.69231
4906.5 7.84615
4907.5 -0.538461
4908.5 1.76923
4909.5 4.61538
4910.5 0.692308
4911.5 3.61538
4912.5 1.23077
4913.5 0.230769
4914.5 -1.76923
4915.5 -4.30769
4916.5 5.61538
4917.5 7.15385
4918.5 1.23077
4919.5 -0.230769
4920.5 3.69231
4921.5 3.69231
4922.5 2.53846
4923.5 2.23077
4924.5 -2.15385
4925.5 3.61538
4926.5 0.230769
4927.5 2.15385
4928.5 1.15385
4929.5 0.230769
4930.5 5.53846
4931.5 1.15385
4932.5 6.07692
4933.5 2.53846
4934.5 8.61538
4935.5 0.615385
4936.5 4.61538
4937.5 2.07692
4938.5 4.53846
4939.5 8.07692
4940.5 5.53846
4941.5 3.15385
4942.5 1.69231
4943.5 9.15385
4944.5 15.5385
4945.5 5.23077
4946.5 -0.692307
4947.5 4.61538
4948.5 7.69231
4949.5 4.53846
4950.5 -2.84615
4951.5 4.61538
4952.5 -1.76923
4953.5 2.07692
4954.5 0.230769
4955.5 -1.23077
4956.5 5.15385
4957.5 1.61538
4958.5 -12.6154
4959.5 -0.307692
4960.5 0.615385
4961.5 3.15385
4962.5 -0.230769
4963.5 3.61538
4964.5 -6.69231
4965.5 -6.07692
4966.5 10.1538
4967.5 9.76923
4968.5 -0.153846
4969.5 10.5385
4970.5 4.61538
4971.5 0.230769
4972.5 0.692308
4973.5 0.769231
4974.5 7.61538
4975.5 8.53846
4976.5 3.15385
4977.5 9
4978.5 4.07692
4979.5 6.69231
4980.5 -4.69231
4981.5 -0.692307
4982.5 14.1538
4983.5 2.23077
4984.5 3.69231
4985.5 3.15385
4986.5 7.53846
4987.5 3.61538
4988.5 3.07692
4989.5 -2.30769
4990.5 2.61538
4991.5 3.23077
4992.5 4.07692
4993.5 1.15385
4994.5 -6.23077
4995.5 6.15385
4996.5 -1.30769
4997.5 -0.769231
4998.5 -2.23077
4999.5 7.07692
5000.5 2.15385
5001.5 -6.61538
5002.5 4.30769
5003.5 -4.69231
5004.5 0.307693
5005.5 3.23077
5006.5 -0.307692
5007.5 9.69231
5008.5 1.76923
5009.5 8.61538
5010.5 3.61538
5011.5 0.615385
5012.5 3.07692
5013.5 7.61538
5014.5 3.61538
5015.5 1.61538
5016.5 -2.30769
5017.5 5.61538
5018.5 3.15385
5019.5 -3.23077
5020.5 -10
5021.5 1.69231
5022.5 -5.15385
5023.5 -4.07692
5024.5 -8
5025.5 1.76923
5026.5 1.69231
5027.5 0.307693
5028.5 -1.69231
5029.5 2.15385
5030.5 -3.30769
5031.5 -5.69231
5032.5 -1.30769
5033.5 5.61538
5034.5 1.23077
5035.5 1.61538
5036.5 -2.23077
5037.5 -5.69231
5038.5 -23.2308
5039.5 -13.4615
5040.5 -3.15385
5041.5 -18.3077
5042.5 -8.07692
5043.5 -5.61538
5044.5 4.53846
5045.5 -0.307692
5046.5 1.15385
5047.5 0.153846
5048.5 9
5049.5 3.15385
5050.5 7
5051.5 8
5052.5 0.153846
5053.5 -2.23077
5054.5 -2.69231
5055.5 7.15385
5056.5 -0.307692
5057.5 -9.15385
5058.5 3.53846
5059.5 4.07692
5060.5 0.615385
5061.5 2.15385
5062.5 -2.84615
5063.5 3.15385
5064.5 3.23077
5065.5 2.23077
5066.5 -4.23077
5067.5 -3.07692
5068.5 13.1538
5069.5 12.0769
5070.5 11.1538
5071.5 7.53846
5072.5 7.07692
5073.5 3.15385
5074.5 1.61538
5075.5 7.69231
5076.5 4.76923
5077.5 19.6154
5078.5 29.6154
5079.5 38.3077
5080.5 63.6923
5081.5 87.8462
5082.5 135.385
5083.5 137.308
5084.5 105.769
5085.5 65.6923
5086.5 40.6154
5087.5 10.3077
5088.5 10.0769
5089.5 6.30769
5090.5 17.6923
5091.5 17.0769
5092.5 15.6154
5093.5 3.69231
5094.5 -0.307692
5095.5 5.07692
5096.5 4.53846
5097.5 3.53846
5098.5 1.15385
5099.5 7.07692
5100.5 -6.61538
5101.5 -9.15385
5102.5 -10.5385
5103.5 -13.5385
5104.5 -26.6154
5105.5 -19.3846
5106.5 -14.4615
5107.5 -5.23077
5108.5 2.61538
5109.5 -1.84615
5110.5 -10.5385
5111.5 -10.6154
5112.5 -8.53846
5113.5 -25.2308
5114.5 -13.8462
5115.5 -31.5385
5116.5 -15.9231
5117.5 -24
5118.5 -10.9231
5119.5 -7.15385
5120.5 -12.6154
5121.5 2.61538
5122.5 0.615385
5123.5 -0.384615
5124.5 2.61538
5125.5 6.53846
5126.5 0.615385
5127.5 2.07692
5128.5 -1.84615
5129.5 -4.30769
5130.5 -3.76923
5131.5 4
5132.5 3.07692
5133.5 -0.846154
5134.5 5.61538
5135.5 -2.30769
5136.5 2.61538
5137.5 -0.307692
5138.5 5.07692
5139.5 3.07692
5140.5 3
5141.5 2.53846
5142.5 -3.30769
5143.5 4.53846
5144.5 0.153846
5145.5 2.53846
5146.5 3.07692
5147.5 -2.30769
5148.5 4.53846
5149.5 -2.76923
5150.5 2.61538
5151.5 4.07692
5152.5 5.53846
5153.5 -0.384615
5154.5 2.53846
5155.5 0.0769231
5156.5 0.615385
5157.5 5.69231
5158.5 0.769231
5159.5 0.692308
5160.5 0.692308
5161.5 4.61538
5162.5 -0.384615
5163.5 -0.307692
5164.5 3.69231
5165.5 2.15385
5166.5 0.153846
5167.5 2.15385
5168.5 2.15385
5169.5 -0.846154
5170.5 -3.84615
5171.5 3.61538
5172.5 2.07692
5173.5 -1.30769
5174.5 6
5175.5 -6.76923
5176.5 1.15385
5177.5 1.61538
5178.5 2.07692
5179.5 -0.384615
5180.5 2.07692
5181.5 0.615385
5182.5 4
5183.5 -5.30769
5184.5 4
5185.5 -2.30769
5186.5 8.53846
5187.5 2.07692
5188.5 -0.384615
5189.5 9.53846
5190.5 -0.384615
5191.5 1.53846
5192.5 -1.38462
5193.5 1.61538
5194.5 3.07692
5195.5 5.69231
5196.5 0.153846
5197.5 1.53846
5198.5 7.07692
5199.5 3.53846
5200.5 -0.846154
5201.5 -3.84615
5202.5 3.15385
5203.5 8.53846
5204.5 6
5205.5 0.153846
5206.5 2.07692
5207.5 2.61538
5208.5 1.15385
5209.5 -0.461538
5210.5 8.07692
5211.5 4.07692
5212.5 0.0769231
5213.5 -0.461538
5214.5 -3.84615
5215.5 7.07692
5216.5 4.53846
5217.5 4.15385
5218.5 6.53846
5219.5 2.07692
5220.5 4.53846
5221.5 3.15385
5222.5 4
5223.5 -0.769231
5224.5 6
5225.5 4.07692
5226.5 6.53846
5227.5 2.61538
5228.5 -2.76923
5229.5 0.0769231
5230.5 3.53846
5231.5 6
5232.5 5.07692
5233.5 -1.84615
5234.5 1.53846
5235.5 1.07692
5236.5 1.61538
5237.5 6.15385
5238.5 0.615385
5239.5 3.07692
5240.5 0.153846
5241.5 -9.69231
5242.5 5.07692
5243.5 0.153846
5244.5 -4.76923
5245.5 -13.4615
5246.5 -3.76923
5247.5 5.53846
5248.5 0.615385
5249.5 4.53846
5250.5 -0.384615
5251.5 3.61538
5252.5 2.07692
5253.5 -0.846154
5254.5 8.07692
5255.5 1.07692
5256.5 0.538462
5257.5 3.53846
5258.5 1.53846
5259.5 5.07692
5260.5 0.153846
5261.5 3.61538
5262.5 -1.23077
5263.5 -4.76923
5264.5 6.61538
5265.5 3.07692
5266.5 3.15385
5267.5 3.07692
5268.5 -1.76923
5269.5 5.15385
5270.5 4.61538
5271.5 -4.30769
5272.5 6.53846
5273.5 8
5274.5 2.53846
5275.5 3.07692
5276.5 4.07692
5277.5 0.153846
5278.5 0.615385
5279.5 -6.69231
5280.5 9
5281.5 1.53846
5282.5 2.53846
5283.5 -1.46154
5284.5 1.07692
5285.5 0.153846
5286.5 2.53846
5287.5 5
5288.5 6.53846
5289.5 3.61538
5290.5 -3.84615
5291.5 -4.30769
5292.5 1.07692
5293.5 -1.30769
5294.5 0.230769
5295.5 2.61538
5296.5 5.69231
5297.5 -6.61538
5298.5 -5.61538
5299.5 2.61538
5300.5 9.53846
5301.5 2.15385
5302.5 2.61538
5303.5 0.153846
5304.5 3.61538
5305.5 1.61538
5306.5 -2.76923
5307.5 4.07692
5308.5 1.07692
5309.5 5
5310.5 5.07692
5311.5 2.61538
5312.5 7.53846
5313.5 -1.30769
5314.5 2.61538
5315.5 3.61538
5316.5 -3.30769
5317.5 1.61538
5318.5 5.53846
5319.5 -4.76923
5320.5 5
5321.5 -2.84615
5322.5 -1.84615
5323.5 1.61538
5324.5 7.07692
5325.5 -4.76923
5326.5 -1.38462
5327.5 0.153846
5328.5 -0.923077
5329.5 3.53846
5330.5 6.53846
5331.5 -3.76923
5332.5 0.153846
5333.5 -7.76923
5334.5 -5.76923
5335.5 -4.84615
5336.5 3
5337.5 -0.846154
5338.5 3.07692
5339.5 4.53846
5340.5 5.07692
5341.5 -2.30769
5342.5 0.615385
5343.5 3.53846
5344.5 -1.84615
5345.5 2.53846
5346.5 3.15385
5347.5 6.15385
5348.5 1.15385
5349.5 0.615385
5350.5 -0.307692
5351.5 -3.76923
5352.5 -1.69231
5353.5 7.23077
5354.5 6.23077
5355.5 -2.69231
5356.5 -2.15385
5357.5 -9.07692
5358.5 1.15385
5359.5 -1.38462
5360.5 5
5361.5 2.61538
5362.5 2.07692
5363.5 1.07692
5364.5 4.61538
5365.5 1.53846
5366.5 1.15385
5367.5 4.07692
5368.5 4
5369.5 1.53846
5370.5 -2.30769
5371.5 -5.30769
5372.5 6.53846
5373.5 2.07692
5374.5 -6.30769
5375.5 2
5376.5 1.61538
5377.5 -0.384615
5378.5 1.07692
5379.5 -0.384615
5380.5 3
5381.5 2.61538
5382.5 -1.38462
5383.5 1.07692
5384.5 2.53846
5385.5 -4.23077
5386.5 1.53846
5387.5 -8.23077
5388.5 9.69231
5389.5 8.61538
5390.5 -3.15385
5391.5 2.69231
5392.5 8.15385
5393.5 15
5394.5 6.69231
5395.5 -0.615384
5396.5 7.76923
5397.5 12.6154
5398.5 -2.07692
5399.5 0.769231
5400.5 3.07692
5401.5 0.615385
5402.5 5
5403.5 0.615385
5404.5 2.15385
5405.5 4.07692
5406.5 1.15385
5407.5 1.53846
5408.5 4
5409.5 0.0769231
5410.5 2.07692
5411.5 6
5412.5 1.07692
5413.5 -1.92308
5414.5 -1.38462
5415.5 6.53846
5416.5 1.07692
5417.5 0.615385
5418.5 0.538462
5419.5 2.07692
5420.5 -0.384615
5421.5 2.07692
5422.5 -1.84615
5423.5 -5.30769
5424.5 -1.92308
5425.5 -1.38462
5426.5 0.153846
5427.5 -7.23077
5428.5 2.53846
5429.5 1.07692
5430.5 1
5431.5 1.07692
5432.5 1.07692
5433.5 3.53846
5434.5 0.615385
5435.5 0.0769231
5436.5 3.07692
5437.5 -1.38462
5438.5 3.53846
5439.5 0.538462
5440.5 2
5441.5 4
5442.5 0.538462
5443.5 2.53846
5444.5 4.07692
5445.5 -0.923077
5446.5 -2.84615
5447.5 -2.30769
5448.5 1.07692
5449.5 2.53846
5450.5 -3.84615
5451.5 1.07692
5452.5 -2.38462
5453.5 0.0769231
5454.5 5.07692
5455.5 -3.30769
5456.5 4.07692
5457.5 -3.30769
5458.5 4.61538
5459.5 6
5460.5 10.5385
5461.5 0.538462
5462.5 3.53846
5463.5 2.53846
5464.5 -3.30769
5465.5 2
5466.5 1.15385
5467.5 -0.846154
5468.5 1.07692
5469.5 3.53846
5470.5 5.53846
5471.5 -1.38462
5472.5 3
5473.5 -0.846154
5474.5 -0.384615
5475.5 0.538462
5476.5 -0.923077
5477.5 -4.84615
5478.5 2.15385
5479.5 4
5480.5 6
5481.5 0.538462
5482.5 0.0769231
5483.5 1.15385
5484.5 -3.30769
5485.5 2.53846
5486.5 2.53846
5487.5 11.5385
5488.5 2.07692
5489.5 1.15385
5490.5 5.53846
5491.5 11.5385
5492.5 4.07692
5493.5 -1.92308
5494.5 -0.923077
5495.5 5.07692
5496.5 1.61538
5497.5 4
5498.5 -0.384615
5499.5 0.538462
5500.5 -4.84615
5501.5 3
5502.5 2.07692
5503.5 -0.384615
5504.5 -0.384615
5505.5 -3.38462
5506.5 3.53846
5507.5 -0.461538
5508.5 -2.30769
5509.5 -2.84615
5510.5 6.07692
5511.5 0.615385
5512.5 5.07692
5513.5 3.69231
5514.5 -0.307692
5515.5 8.07692
5516.5 4.15385
5517.5 0.153846
5518.5 4.53846
5519.5 -0.846154
5520.5 -3.30769
5521.5 5.07692
5522.5 4.53846
5523.5 1.15385
5524.5 4.07692
5525.5 1.15385
5526.5 4.07692
5527.5 1.61538
5528.5 2.07692
5529.5 2.07692
5530.5 1.61538
5531.5 4.53846
5532.5 0.769231
5533.5 -0.615384
5534.5 -11.8462
5535.5 4.46154
5536.5 7.84615
5537.5 -8.30769
5538.5 4.46154
5539.5 2.92308
5540.5 4.61538
5541.5 1.61538
5542.5 -1.92308
5543.5 -0.384615
5544.5 3.07692
5545.5 3.15385
5546.5 1.61538
5547.5 -0.384615
5548.5 1.53846
5549.5 5
5550.5 -0.461538
5551.5 -2.38462
5552.5 1.61538
5553.5 -3.38462
5554.5 -7.23077
5555.5 1.15385
5556.5 0.153846
5557.5 1.61538
5558.5 -4.30769
5559.5 -2.84615
5560.5 -1.30769
5561.5 -0.307692
5562.5 -5.30769
5563.5 5.53846
5564.5 1.61538
5565.5 -2.38462
5566.5 0.538462
5567.5 3.53846
5568.5 0.538462
5569.5 -0.384615
5570.5 4.53846
5571.5 2.53846
5572.5 -0.461538
5573.5 2.53846
5574.5 -1.38462
5575.5 1.07692
5576.5 -4.30769
5577.5 0.538462
5578.5 0.0769231
5579.5 2.53846
5580.5 3.53846
5581.5 4.15385
5582.5 4.53846
5583.5 -1.84615
5584.5 5.61538
5585.5 -4.30769
5586.5 4.07692
5587.5 0.0769231
5588.5 3.69231
5589.5 4.61538
5590.5 0.153846
5591.5 16.2308
5592.5 4.23077
5593.5 -4.15385
5594.5 7.69231
5595.5 -5.23077
5596.5 -5.30769
5597.5 1.53846
5598.5 2.07692
5599.5 -3.84615
5600.5 5.07692
5601.5 1.07692
5602.5 -0.307692
5603.5 1.53846
5604.5 0.153846
5605.5 2.53846
5606.5 0.0769231
5607.5 3
5608.5 4.07692
5609.5 2
5610.5 2.07692
5611.5 -0.923077
5612.5 2.07692
5613.5 -2.30769
5614.5 6.53846
5615.5 3.61538
5616.5 3.69231
5617.5 6
5618.5 3.07692
5619.5 -1.92308
5620.5 0.538462
5621.5 3.07692
5622.5 3
5623.5 -0.384615
5624.5 -1.84615
5625.5 -0.461538
5626.5 2.07692
5627.5 0.0769231
5628.5 2.53846
5629.5 -2.30769
5630.5 -2.30769
5631.5 -1.38462
5632.5 1.53846
5633.5 -3.30769
5634.5 1
5635.5 2
5636.5 1.07692
5637.5 0.615385
5638.5 1.07692
5639.5 0.538462
5640.5 -1.38462
5641.5 4.53846
5642.5 1.53846
5643.5 4
5644.5 0.538462
5645.5 -0.923077
5646.5 5
5647.5 2.53846
5648.5 0.615385
5649.5 0.615385
5650.5 -1.92308
5651.5 -2.92308
5652.5 9
5653.5 4
5654.5 0.0769231
5655.5 2.53846
5656.5 2.53846
5657.5 -0.461538
5658.5 -5.30769
5659.5 -1.38462
5660.5 -0.923077
5661.5 3
5662.5 0.538462
5663.5 3.53846
5664.5 2
5665.5 2
5666.5 4.53846
5667.5 1.53846
5668.5 0.0769231
5669.5 3
5670.5 -3.38462
5671.5 0.615385
5672.5 -0.384615
5673.5 3.07692
5674.5 4
5675.5 4.53846
5676.5 2.53846
5677.5 1.53846
5678.5 4.53846
5679.5 1.53846
5680.5 1.53846
5681.5 -3.84615
5682.5 3
5683.5 2
5684.5 0
5685.5 -0.461538
5686.5 1.07692
5687.5 2.07692
5688.5 0.0769231
5689.5 2.07692
5690.5 -0.923077
5691.5 -0.384615
5692.5 0.0769231
5693.5 3
5694.5 2.15385
5695.5 -1.92308
5696.5 4
5697.5 1.07692
5698.5 2.53846
5699.5 -3.38462
5700.5 -0.923077
5701.5 -2.92308
5702.5 -1.38462
5703.5 3.53846
5704.5 0.0769231
5705.5 0
5706.5 6
5707.5 1.15385
5708.5 -2.38462
5709.5 -3.38462
5710.5 3.07692
5711.5 0.538462
5712.5 4.53846
5713.5 -3.38462
5714.5 1.07692
5715.5 3.07692
5716.5 1.07692
5717.5 -0.461538
5718.5 3.15385
5719.5 0.615385
5720.5 -1.46154
5721.5 1.15385
5722.5 5
5723.5 2.07692
5724.5 1.53846
5725.5 -2.84615
5726.5 -1.92308
5727.5 2.53846
5728.5 1.53846
5729.5 3.07692
5730.5 6.07692
5731.5 2.07692
5732.5 2.53846
5733.5 6
5734.5 4
5735.5 5.53846
5736.5 0.538462
5737.5 -0.384615
5738.5 3
5739.5 -0.923077
5740.5 -4.30769
5741.5 4.07692
5742.5 3
5743.5 1.53846
5744.5 0.538462
5745.5 0.0769231
5746.5 -0.384615
5747.5 3.53846
5748.5 6.07692
5749.5 1.53846
5750.5 -1.84615
5751.5 -1.69231
5752.5 -9.61538
5753.5 3.15385
5754.5 -15.4615
5755.5 -15.9231
5756.5 -14.4615
5757.5 -1.76923
5758.5 -1.76923
5759.5 -6.76923
5760.5 2.61538
5761.5 1.07692
5762.5 0.538462
5763.5 1.07692
5764.5 0.0769231
5765.5 -5.84615
5766.5 0.0769231
5767.5 4
5768.5 -1.84615
5769.5 2
5770.5 -1.92308
5771.5 1.07692
5772.5 0.538462
5773.5 4.53846
5774.5 2.53846
5775.5 4
5776.5 3.53846
5777.5 3
5778.5 -0.846154
5779.5 0.0769231
5780.5 3.53846
5781.5 2
5782.5 1.07692
5783.5 1.53846
5784.5 4
5785.5 -4.38462
5786.5 -0.384615
5787.5 -2.38462
5788.5 1.61538
5789.5 2.07692
5790.5 2
5791.5 -1.30769
5792.5 1.53846
5793.5 -2.38462
5794.5 4
5795.5 -0.923077
5796.5 2.53846
5797.5 1.15385
5798.5 2
5799.5 -1.92308
5800.5 3.07692
5801.5 6
5802.5 0
5803.5 4.53846
5804.5 0.0769231
5805.5 -4.38462
5806.5 -2.84615
5807.5 3
5808.5 -7.30769
5809.5 1
5810.5 -1.46154
5811.5 1.07692
5812.5 -0.384615
5813.5 2
5814.5 3
5815.5 2
5816.5 -0.846154
5817.5 0.0769231
5818.5 3.07692
5819.5 4.07692
5820.5 0.0769231
5821.5 1.53846
5822.5 1.53846
5823.5 -0.923077
5824.5 0.615385
5825.5 2
5826.5 -3.30769
5827.5 2.07692
5828.5 0.615385
5829.5 -0.846154
5830.5 6
5831.5 4.53846
5832.5 2
5833.5 3.69231
5834.5 0.538462
5835.5 2.07692
5836.5 1.07692
5837.5 5.53846
5838.5 2.53846
5839.5 -0.307692
5840.5 1.15385
5841.5 -3.38462
5842.5 -0.923077
5843.5 -1.92308
5844.5 2.07692
5845.5 -2.38462
5846.5 5
5847.5 3
5848.5 2.53846
5849.5 -1.46154
5850.5 1.53846
5851.5 1
5852.5 1.07692
5853.5 2
5854.5 2.53846
5855.5 5.07692
5856.5 -0.923077
5857.5 -0.923077
5858.5 3
5859.5 1
5860.5 2
5861.5 2.53846
5862.5 -0.461538
5863.5 0.0769231
5864.5 0
5865.5 -0.461538
5866.5 -1.46154
5867.5 2
5868.5 5
5869.5 -0.923077
5870.5 0
5871.5 0.538462
5872.5 0.538462
5873.5 2
5874.5 0.0769231
5875.5 -0.923077
5876.5 2
5877.5 3
5878.5 -4.84615
5879.5 -0.461538
5880.5 1.53846
5881.5 4
5882.5 3
5883.5 0.538462
5884.5 1
5885.5 2.53846
5886.5 0.0769231
5887.5 -0.461538
5888.5 -1.92308
5889.5 1.53846
5890.5 -0.923077
5891.5 5
5892.5 2.07692
5893.5 -0.923077
5894.5 -3.84615
5895.5 1.07692
5896.5 4.61538
5897.5 -9.61538
5898.5 -3.53846
5899.5 6.38462
5900.5 -2.07692
5901.5 7.76923
5902.5 1.38462
5903.5 4.61538
5904.5 4.53846
5905.5 -4.76923
5906.5 0.0769231
5907.5 -0.923077
5908.5 8.53846
5909.5 6.61538
5910.5 6
5911.5 5.53846
5912.5 2.53846
5913.5 1.53846
5914.5 -1.92308
5915.5 0
5916.5 0
5917.5 1
5918.5 6
5919.5 0.0769231
5920.5 3
5921.5 2
5922.5 1
5923.5 -1.92308
5924.5 2
5925.5 2
5926.5 2
5927.5 1.53846
5928.5 0
5929.5 0.0769231
5930.5 0
5931.5 -0.461538
5932.5 -0.461538
5933.5 1.53846
5934.5 5
5935.5 1
5936.5 -0.461538
5937.5 -1.84615
5938.5 -2.92308
5939.5 0
5940.5 1
5941.5 2
5942.5 4.53846
5943.5 0.538462
5944.5 -1.46154
5945.5 -6.30769
5946.5 -0.461538
5947.5 2
5948.5 3
5949.5 0.0769231
5950.5 -2.38462
5951.5 1
5952.5 4.53846
5953.5 5
5954.5 2
5955.5 1.53846
5956.5 0.538462
5957.5 1.53846
5958.5 -0.384615
5959.5 1.53846
5960.5 -0.461538
5961.5 2
5962.5 0.538462
5963.5 6
5964.5 2.53846
5965.5 -1.38462
5966.5 2.07692
5967.5 -3.84615
5968.5 1.07692
5969.5 6.53846
5970.5 11
5971.5 -0.461538
5972.5 2.53846
5973.5 3.53846
5974.5 -0.461538
5975.5 6
5976.5 0.0769231
5977.5 -1.92308
5978.5 1.07692
5979.5 -0.461538
5980.5 2
5981.5 -2.38462
5982.5 3
5983.5 -0.923077
5984.5 4
5985.5 2.53846
5986.5 2
5987.5 1
5988.5 -0.923077
5989.5 1
5990.5 -0.461538
5991.5 2.07692
5992.5 -2.84615
5993.5 2
5994.5 0.538462
5995.5 3
5996.5 2.61538
5997.5 -3.38462
5998.5 2.15385
5999.5 11.5385
6000.5 -0.846154
6001.5 5.61538
6002.5 7.61538
6003.5 6.15385
6004.5 3.07692
6005.5 0.538462
6006.5 0
6007.5 4
6008.5 0
6009.5 -0.384615
6010.5 0.0769231
6011.5 -7.30769
6012.5 5
6013.5 -4.30769
6014.5 3
6015.5 -2.38462
6016.5 4
6017.5 -1.92308
6018.5 7
6019.5 0.0769231
6020.5 -1.92308
6021.5 2
6022.5 0.538462
6023.5 -1.92308
6024.5 -1.92308
6025.5 0.0769231
6026.5 -0.461538
6027.5 -0.461538
6028.5 1
6029.5 3.53846
6030.5 -2.38462
6031.5 2.53846
6032.5 2.07692
6033.5 -0.846154
6034.5 -4.30769
6035.5 1.61538
6036.5 0.615385
6037.5 1.07692
6038.5 2.07692
6039.5 -3.38462
6040.5 -2.38462
6041.5 1.53846
6042.5 -4.38462
6043.5 2.53846
6044.5 2
6045.5 -1.92308
6046.5 1
6047.5 1
6048.5 3
6049.5 2
6050.5 2
6051.5 2.53846
6052.5 3
6053.5 2
6054.5 2
6055.5 0.0769231
6056.5 0.538462
6057.5 -4.38462
6058.5 2
6059.5 0.538462
6060.5 4
6061.5 1.53846
6062.5 0
6063.5 -0.384615
6064.5 2
6065.5 -1.92308
6066.5 -2.38462
6067.5 -0.461538
6068.5 -4.84615
6069.5 0.538462
6070.5 -0.461538
6071.5 -1.46154
6072.5 -1.46154
6073.5 0.538462
6074.5 3
6075.5 -0.461538
6076.5 0
6077.5 0.0769231
6078.5 2
6079.5 -1.92308
6080.5 1.07692
6081.5 1
6082.5 -1.46154
6083.5 -5.30769
6084.5 -1.38462
6085.5 1.53846
6086.5 1
6087.5 1
6088.5 3.53846
6089.5 -1.46154
6090.5 -1.92308
6091.5 1
6092.5 -4.84615
6093.5 0.0769231
6094.5 2.53846
6095.5 0
6096.5 3.53846
6097.5 -2.92308
6098.5 0.538462
6099.5 0
6100.5 -1.46154
6101.5 1.53846
6102.5 0.0769231
6103.5 -0.846154
6104.5 -3.38462
6105.5 2.07692
6106.5 2.53846
6107.5 -1.92308
6108.5 0.538462
6109.5 1
6110.5 5.53846
6111.5 5.53846
6112.5 5
6113.5 0.538462
6114.5 0.0769231
6115.5 -3.84615
6116.5 4.53846
6117.5 1
6118.5 1.53846
6119.5 2.53846
6120.5 1.53846
6121.5 8.15385
6122.5 4.07692
6123.5 3.69231
6124.5 2.53846
6125.5 7.61538
6126.5 -2.15385
6127.5 2.07692
6128.5 4.53846
6129.5 -1.38462
6130.5 -1.46154
6131.5 1
6132.5 -1.46154
6133.5 2.07692
6134.5 -3.38462
6135.5 1.07692
6136.5 2.53846
6137.5 -0.461538
6138.5 0.538462
6139.5 -0.461538
6140.5 -1.46154
6141.5 0
6142.5 -2.92308
6143.5 1
6144.5 4
6145.5 -2.92308
6146.5 2.53846
6147.5 3
6148.5 1.53846
6149.5 -1.46154
6150.5 0.538462
6151.5 0
6152.5 2
6153.5 1
6154.5 1
6155.5 1
6156.5 2
6157.5 1
6158.5 1.53846
6159.5 3
6160.5 0
6161.5 -0.461538
6162.5 -0.461538
6163.5 0
6164.5 2
6165.5 1
6166.5 -0.923077
6167.5 2
6168.5 3
6169.5 -1.92308
6170.5 -0.461538
6171.5 -4.38462
6172.5 1
6173.5 -0.461538
6174.5 1
6175.5 1
6176.5 0
6177.5 -1.92308
6178.5 2
6179.5 1.53846
6180.5 -1.46154
6181.5 2
6182.5 2.53846
6183.5 2
6184.5 1
6185.5 5
6186.5 0.538462
6187.5 -3.38462
6188.5 -2.92308
6189.5 1.53846
6190.5 3
6191.5 -1.92308
6192.5 3
6193.5 0.538462
6194.5 1.53846
6195.5 1
6196.5 4
6197.5 -0.461538
6198.5 1
6199.5 2
6200.5 -1.46154
6201.5 4
6202.5 1
6203.5 1
6204.5 -1.92308
6205.5 -1.92308
6206.5 1.53846
6207.5 -4.38462
6208.5 3
6209.5 2.53846
6210.5 -1.92308
6211.5 -1.38462
6212.5 0.538462
6213.5 -0.461538
6214.5 -0.461538
6215.5 2.53846
6216.5 3
6217.5 2
6218.5 2
6219.5 0.538462
6220.5 -1.92308
6221.5 4
6222.5 1.53846
6223.5 0.0769231
6224.5 -1.38462
6225.5 3.53846
6226.5 5
6227.5 -3.30769
6228.5 5
6229.5 -2.92308
6230.5 1.53846
6231.5 -0.384615
6232.5 1
6233.5 0
6234.5 1
6235.5 0.538462
6236.5 1.53846
6237.5 -0.461538
6238.5 5
6239.5 1.53846
6240.5 1
6241.5 2
6242.5 1
6243.5 3
6244.5 1
6245.5 2
6246.5 1.53846
6247.5 2.07692
6248.5 -1.92308
6249.5 3
6250.5 -1.92308
6251.5 2
6252.5 2.53846
6253.5 3
6254.5 -0.461538
6255.5 -5.30769
6256.5 0.538462
6257.5 -2.92308
6258.5 6.53846
6259.5 5
6260.5 -0.461538
6261.5 1.53846
6262.5 0
6263.5 3.53846
6264.5 1
6265.5 -0.461538
6266.5 -2.92308
6267.5 -1.92308
6268.5 0
6269.5 -2.92308
6270.5 0.538462
6271.5 0
6272.5 0.538462
6273.5 2
6274.5 4
6275.5 5
6276.5 1.53846
6277.5 0
6278.5 3
6279.5 -0.461538
6280.5 2
6281.5 -1.46154
6282.5 0
6283.5 -0.461538
6284.5 -1.46154
6285.5 2
6286.5 2
6287.5 -0.923077
6288.5 -0.461538
6289.5 0.538462
6290.5 3
6291.5 1.07692
6292.5 1
6293.5 2.53846
6294.5 3
6295.5 -0.461538
6296.5 -0.461538
6297.5 -0.461538
6298.5 0
6299.5 0.538462
6300.5 3
6301.5 -1.46154
6302.5 0.538462
6303.5 0.538462
6304.5 2
6305.5 -0.461538
6306.5 2
6307.5 2.53846
6308.5 3
6309.5 -3.38462
6310.5 1
6311.5 -1.92308
6312.5 0.538462
6313.5 0.538462
6314.5 0.538462
6315.5 1
6316.5 -2.92308
6317.5 -1.92308
6318.5 -0.384615
6319.5 -3.38462
6320.5 -0.461538
6321.5 1.53846
6322.5 -4.84615
6323.5 0.0769231
6324.5 3
6325.5 1.53846
6326.5 3
6327.5 -1.92308
6328.5 0.0769231
6329.5 0.538462
6330.5 1
6331.5 0
6332.5 1.07692
6333.5 3
6334.5 0
6335.5 -0.461538
6336.5 1
6337.5 -2.92308
6338.5 -2.92308
6339.5 0.538462
6340.5 0
6341.5 -0.461538
6342.5 0
6343.5 2
6344.5 2
6345.5 1
6346.5 3.53846
6347.5 -0.461538
6348.5 -2.38462
6349.5 1
6350.5 2
6351.5 0.538462
6352.5 2
6353.5 2
6354.5 0.538462
6355.5 2
6356.5 -1.92308
6357.5 -0.461538
6358.5 1.53846
6359.5 0
6360.5 -1.46154
6361.5 -1.46154
6362.5 0
6363.5 -1.46154
6364.5 2
6365.5 4
6366.5 4
6367.5 -0.923077
6368.5 1.53846
6369.5 -0.923077
6370.5 0.0769231
6371.5 2
6372.5 -0.461538
6373.5 1
6374.5 1
6375.5 1
6376.5 1
6377.5 1
6378.5 -1.46154
6379.5 0
6380.5 1
6381.5 0.0769231
6382.5 0.538462
6383.5 0.538462
6384.5 0
6385.5 -3.38462
6386.5 -1.46154
6387.5 0.538462
6388.5 -0.461538
6389.5 3
6390.5 -0.461538
6391.5 1
6392.5 1
6393.5 0.538462
6394.5 0
6395.5 0.0769231
6396.5 -0.461538
6397.5 3
6398.5 0.538462
6399.5 -1.46154
6400.5 2
6401.5 -1.46154
6402.5 0.538462
6403.5 -0.461538
6404.5 0
6405.5 3
6406.5 0.538462
6407.5 3
6408.5 1.53846
6409.5 1
6410.5 3
6411.5 1.53846
6412.5 -1.92308
6413.5 1.07692
6414.5 1.53846
6415.5 -4.38462
6416.5 1
6417.5 -3.38462
6418.5 6.53846
6419.5 4.61538
6420.5 -5.76923
6421.5 -1.46154
6422.5 1
6423.5 -0.923077
6424.5 4
6425.5 0
6426.5 -1.92308
6427.5 -0.461538
6428.5 0
6429.5 2
6430.5 3
6431.5 -1.46154
6432.5 0.538462
6433.5 0
6434.5 -0.461538
6435.5 -0.923077
6436.5 0.538462
6437.5 2
6438.5 5
6439.5 -1.92308
6440.5 6
6441.5 1.07692
6442.5 -0.846154
6443.5 1
6444.5 0.538462
6445.5 -0.461538
6446.5 1
6447.5 0
6448.5 -1.46154
6449.5 1
6450.5 2
6451.5 -0.461538
6452.5 -0.461538
6453.5 1
6454.5 -0.923077
6455.5 2
6456.5 -1.46154
6457.5 0
6458.5 1
6459.5 0
6460.5 0
6461.5 1
6462.5 1
6463.5 -0.461538
6464.5 -1.46154
6465.5 -1.92308
6466.5 -0.461538
6467.5 4
6468.5 -1.46154
6469.5 1
6470.5 -0.461538
6471.5 0
6472.5 1
6473.5 4
6474.5 1.53846
6475.5 2
6476.5 4.07692
6477.5 2.07692
6478.5 2.53846
6479.5 2.53846
6480.5 4.15385
6481.5 -2.30769
6482.5 4
6483.5 0.538462
6484.5 -2.92308
6485.5 0
6486.5 0.538462
6487.5 -0.923077
6488.5 1
6489.5 1.53846
6490.5 1
6491.5 -1.46154
6492.5 1
6493.5 0
6494.5 1.53846
6495.5 0.538462
6496.5 1
6497.5 0
6498.5 -0.461538
6499.5 -1.92308
6500.5 0.538462
6501.5 2
6502.5 2
6503.5 -2.92308
6504.5 -0.461538
6505.5 1.53846
6506.5 -1.46154
6507.5 1
6508.5 -1.46154
6509.5 3
6510.5 -2.92308
6511.5 -1.46154
6512.5 0
6513.5 2
6514.5 -0.461538
6515.5 1.53846
6516.5 0.538462
6517.5 2.53846
6518.5 1
6519.5 2.53846
6520.5 -1.46154
6521.5 -0.923077
6522.5 -0.923077
6523.5 0.0769231
6524.5 -1.46154
6525.5 1
6526.5 1.53846
6527.5 -0.461538
6528.5 -0.461538
6529.5 -0.461538
6530.5 -2.92308
6531.5 1
6532.5 -0.461538
6533.5 -1.46154
6534.5 1
6535.5 1
6536.5 1
6537.5 2
6538.5 2
6539.5 -2.92308
6540.5 4
6541.5 2.53846
6542.5 7
6543.5 1.07692
6544.5 2.53846
6545.5 -3.38462
6546.5 -1.84615
6547.5 5
6548.5 0.0769231
6549.5 2.53846
6550.5 -1.92308
6551.5 1
6552.5 3
6553.5 -1.92308
6554.5 1
6555.5 1
6556.5 -0.461538
6557.5 -1.46154
6558.5 -1.46154
6559.5 0
6560.5 0
6561.5 0
6562.5 2
6563.5 2
6564.5 -0.461538
6565.5 4
6566.5 -1.46154
6567.5 1.53846
6568.5 2
6569.5 0
6570.5 1
6571.5 1.53846
6572.5 1.53846
6573.5 -1.46154
6574.5 1
6575.5 0
6576.5 -0.461538
6577.5 0.538462
6578.5 3
6579.5 1
6580.5 -1.46154
6581.5 0
6582.5 2
6583.5 -1.92308
6584.5 -0.461538
6585.5 3
6586.5 1
6587.5 -0.461538
6588.5 -1.46154
6589.5 0
6590.5 0.538462
6591.5 0
6592.5 0
6593.5 -1.46154
6594.5 1
6595.5 -1.46154
6596.5 -1.46154
6597.5 2
6598.5 0.538462
6599.5 -1.46154
6600.5 -0.923077
6601.5 2.53846
6602.5 0.538462
6603.5 -0.461538
6604.5 1
6605.5 1
6606.5 1
6607.5 2
6608.5 2
6609.5 2
6610.5 -0.461538
6611.5 -0.461538
6612.5 -1.46154
6613.5 0
6614.5 -1.46154
6615.5 0
6616.5 1
6617.5 1
6618.5 0
6619.5 3
6620.5 -0.461538
6621.5 0.0769231
6622.5 0.0769231
6623.5 1
6624.5 1
6625.5 0.538462
6626.5 0.538462
6627.5 1
6628.5 -2.92308
6629.5 1
6630.5 -1.46154
6631.5 -0.923077
6632.5 0
6633.5 0
6634.5 0
6635.5 -1.46154
6636.5 1
6637.5 0
6638.5 -0.461538
6639.5 -1.46154
6640.5 -1.46154
6641.5 0
6642.5 0
6643.5 1
6644.5 1
6645.5 -0.461538
6646.5 -1.92308
6647.5 0
6648.5 3
6649.5 0
6650.5 -1.46154
6651.5 3.53846
6652.5 1.53846
6653.5 0
6654.5 0
6655.5 0
6656.5 1.53846
6657.5 -1.92308
6658.5 0.0769231
6659.5 -0.461538
6660.5 -0.461538
6661.5 -1.46154
6662.5 -1.92308
6663.5 2
6664.5 -1.46154
6665.5 0
6666.5 -1.46154
6667.5 0
6668.5 0
6669.5 0.538462
6670.5 -1.46154
6671.5 3
6672.5 -1.92308
6673.5 2
6674.5 0
6675.5 -1.46154
6676.5 0
6677.5 1
6678.5 0.538462
6679.5 2
6680.5 1.53846
6681.5 -2.92308
6682.5 0
6683.5 3
6684.5 1
6685.5 -1.46154
6686.5 -0.461538
6687.5 0
6688.5 -3.38462
6689.5 0.538462
6690.5 -1.46154
6691.5 1
6692.5 0.538462
6693.5 -0.461538
6694.5 -2.38462
6695.5 -2.92308
6696.5 0.0769231
6697.5 2
6698.5 -4.38462
6699.5 -1.92308
6700.5 -0.923077
6701.5 1
6702.5 -0.461538
6703.5 2
6704.5 -2.38462
6705.5 0
6706.5 -1.46154
6707.5 -1.92308
6708.5 0
6709.5 1
6710.5 0
6711.5 0
6712.5 3
6713.5 2
6714.5 2
6715.5 -0.461538
6716.5 -1.92308
6717.5 2
6718.5 0
6719.5 0
6720.5 1.53846
6721.5 -0.461538
6722.5 -1.46154
6723.5 -2.38462
6724.5 0
6725.5 -0.461538
6726.5 1
6727.5 2
6728.5 0.0769231
6729.5 1
6730.5 1
6731.5 1
6732.5 -0.461538
6733.5 0
6734.5 1
6735.5 0
6736.5 1
6737.5 2
6738.5 4
6739.5 3
6740.5 2
6741.5 0
6742.5 0
6743.5 1
6744.5 0.538462
6745.5 1
6746.5 3
6747.5 3
6748.5 3
6749.5 3.53846
6750.5 -1.46154
6751.5 0.538462
6752.5 3
6753.5 1
6754.5 -1.38462
6755.5 1
6756.5 3
6757.5 -0.461538
6758.5 1
6759.5 -1.46154
6760.5 0.538462
6761.5 -0.461538
6762.5 0
6763.5 -0.461538
6764.5 2
6765.5 1
6766.5 1
6767.5 1
6768.5 0.538462
6769.5 5
6770.5 0.538462
6771.5 0.0769231
6772.5 -0.384615
6773.5 -4.84615
6774.5 -0.461538
6775.5 1.53846
6776.5 2
6777.5 0.538462
6778.5 1
6779.5 1.53846
6780.5 -1.46154
6781.5 1
6782.5 1
6783.5 0.538462
6784.5 2
6785.5 0.538462
6786.5 -0.461538
6787.5 0
6788.5 1
6789.5 -0.461538
6790.5 0
6791.5 1
6792.5 0
6793.5 0
6794.5 3
6795.5 1.53846
6796.5 2
6797.5 0
6798.5 3
6799.5 1
6800.5 1
6801.5 -0.461538
6802.5 1
6803.5 1
6804.5 0
6805.5 2
6806.5 -0.461538
6807.5 0
6808.5 -0.461538
6809.5 1
6810.5 0
6811.5 0.538462
6812.5 -1.46154
6813.5 1
6814.5 1
6815.5 1
6816.5 -0.461538
6817.5 -1.46154
6818.5 1
6819.5 1
6820.5 0.538462
6821.5 -3.38462
6822.5 -0.461538
6823.5 3
6824.5 -1.92308
6825.5 0
6826.5 0.538462
6827.5 -0.923077
6828.5 -1.92308
6829.5 1
6830.5 1
6831.5 -1.46154
6832.5 -1.46154
6833.5 2
6834.5 0
6835.5 -1.46154
6836.5 0
6837.5 1.07692
6838.5 0.0769231
6839.5 -1.92308
6840.5 -1.46154
6841.5 0
6842.5 -0.461538
6843.5 5
6844.5 0
6845.5 1
6846.5 1.53846
6847.5 -0.461538
6848.5 -0.461538
6849.5 0.538462
6850.5 3
6851.5 -1.46154
6852.5 1
6853.5 -0.461538
6854.5 3
6855.5 -1.46154
6856.5 0
6857.5 0.0769231
6858.5 -1.46154
6859.5 -1.46154
6860.5 2
6861.5 -1.46154
6862.5 -1.46154
6863.5 2
6864.5 1
6865.5 0
6866.5 -2.92308
6867.5 0.538462
6868.5 0
6869.5 1
6870.5 -1.46154
6871.5 -0.461538
6872.5 0
6873.5 2
6874.5 1
6875.5 0
6876.5 1
6877.5 1
6878.5 0
6879.5 -1.46154
6880.5 2
6881.5 2
6882.5 0
6883.5 1
6884.5 -0.461538
6885.5 0
6886.5 1
6887.5 -1.46154
6888.5 0
6889.5 0.538462
6890.5 -2.92308
6891.5 0
6892.5 2
6893.5 1
6894.5 0
6895.5 2
6896.5 -1.46154
6897.5 2
6898.5 -1.46154
6899.5 -0.461538
6900.5 1
6901.5 2
6902.5 2.07692
6903.5 5
6904.5 1.07692
6905.5 -1.46154
6906.5 4
6907.5 -0.923077
6908.5 -0.461538
6909.5 -1.46154
6910.5 0
6911.5 -2.92308
6912.5 2
6913.5 -1.92308
6914.5 0
6915.5 -0.461538
6916.5 3
6917.5 1
6918.5 1
6919.5 -2.92308
6920.5 0
6921.5 -0.923077
6922.5 2
6923.5 0
6924.5 1.53846
6925.5 0
6926.5 1
6927.5 2
6928.5 0.538462
6929.5 0
6930.5 0.538462
6931.5 -1.38462
6932.5 1
6933.5 2
6934.5 -1.92308
6935.5 0.538462
6936.5 3.53846
6937.5 1
6938.5 0
6939.5 1.53846
6940.5 1
6941.5 -4.38462
6942.5 1
6943.5 -2.92308
6944.5 -0.461538
6945.5 1
6946.5 1
6947.5 0
6948.5 0
6949.5 2
6950.5 0.538462
6951.5 -1.46154
6952.5 2
6953.5 1
6954.5 1
6955.5 0
6956.5 -0.461538
6957.5 2
6958.5 2
6959.5 2
6960.5 -1.46154
6961.5 0
6962.5 -1.46154
6963.5 1
6964.5 1
6965.5 1
6966.5 1
6967.5 0
6968.5 1
6969.5 0
6970.5 3
6971.5 3
6972.5 -1.46154
6973.5 -0.461538
6974.5 1.53846
6975.5 -1.46154
6976.5 -0.461538
6977.5 1
6978.5 1
6979.5 -3.38462
6980.5 -0.461538
6981.5 -1.46154
6982.5 0.538462
6983.5 3
6984.5 -0.461538
6985.5 -1.46154
6986.5 1
6987.5 2
6988.5 -1.46154
6989.5 1
6990.5 -2.92308
6991.5 1
6992.5 2
6993.5 0
6994.5 -0.461538
6995.5 -0.461538
6996.5 1
6997.5 0
6998.5 -1.46154
6999.5 0
7000.5 0
7001.5 0
7002.5 0.538462
7003.5 -1.46154
7004.5 -1.46154
7005.5 0
7006.5 -0.461538
7007.5 2
7008.5 1
7009.5 2
7010.5 1
7011.5 3
7012.5 -1.46154
7013.5 0.538462
7014.5 1.53846
7015.5 1
7016.5 1
7017.5 0
7018.5 2
7019.5 0
7020.5 0
7021.5 3
7022.5 -0.461538
7023.5 0
7024.5 1
7025.5 0.538462
7026.5 -1.92308
7027.5 0
7028.5 -1.46154
7029.5 1
7030.5 -1.46154
7031.5 -1.92308
7032.5 0.538462
7033.5 -1.46154
7034.5 0.0769231
7035.5 -0.461538
7036.5 -2.92308
7037.5 -0.461538
7038.5 0
7039.5 0
7040.5 0
7041.5 2
7042.5 0
7043.5 -1.46154
7044.5 -1.92308
7045.5 -0.461538
7046.5 -1.46154
7047.5 0
7048.5 2
7049.5 1
7050.5 -1.92308
7051.5 -0.461538
7052.5 0
7053.5 2
7054.5 0
7055.5 1
7056.5 0
7057.5 -0.461538
7058.5 0
7059.5 2
7060.5 0.538462
7061.5 -2.92308
7062.5 1
7063.5 -1.46154
7064.5 -1.92308
7065.5 2
7066.5 -1.46154
7067.5 -0.461538
7068.5 1
7069.5 0
7070.5 0
7071.5 0.538462
7072.5 -0.461538
7073.5 -1.92308
7074.5 -0.461538
7075.5 -0.461538
7076.5 1
7077.5 0
7078.5 -1.46154
7079.5 2
7080.5 1
7081.5 0
7082.5 2
7083.5 1
7084.5 1
7085.5 0
7086.5 1.53846
7087.5 -2.92308
7088.5 1
7089.5 1
7090.5 1
7091.5 3
7092.5 0
7093.5 1
7094.5 2
7095.5 -1.46154
7096.5 0
7097.5 0
7098.5 0
7099.5 0
7100.5 1.53846
7101.5 0
7102.5 -0.461538
7103.5 -1.46154
7104.5 1
7105.5 0
7106.5 1
7107.5 1
7108.5 1
7109.5 2
7110.5 1
7111.5 -1.46154
7112.5 0.538462
7113.5 1
7114.5 1
7115.5 2
7116.5 1.53846
7117.5 2
7118.5 -1.46154
7119.5 -2.92308
7120.5 0.538462
7121.5 0
7122.5 0.538462
7123.5 1
7124.5 0
7125.5 0
7126.5 0
7127.5 -2.92308
7128.5 0
7129.5 1
7130.5 1
7131.5 0
7132.5 2
7133.5 -0.461538
7134.5 2
7135.5 0
7136.5 -1.46154
7137.5 -0.461538
7138.5 0
7139.5 0
7140.5 2
7141.5 -1.46154
7142.5 -2.92308
7143.5 -0.461538
7144.5 -3.38462
7145.5 0
7146.5 3
7147.5 -2.38462
7148.5 1
7149.5 -0.461538
7150.5 0
7151.5 1
7152.5 0
7153.5 1
7154.5 0
7155.5 -0.461538
7156.5 -1.46154
7157.5 1
7158.5 0
7159.5 0.538462
7160.5 0
7161.5 0
7162.5 -0.923077
7163.5 2
7164.5 1
7165.5 0
7166.5 1
7167.5 0
7168.5 1
7169.5 0
7170.5 1
7171.5 0
7172.5 1
7173.5 0
7174.5 2
7175.5 -1.46154
7176.5 0
7177.5 -1.46154
7178.5 1
7179.5 0
7180.5 2
7181.5 0
7182.5 0
7183.5 1
7184.5 0
7185.5 1
7186.5 1
7187.5 1
7188.5 1
7189.5 2
7190.5 -0.461538
7191.5 0
7192.5 -2.92308
7193.5 1
7194.5 -1.46154
7195.5 -0.461538
7196.5 -2.92308
7197.5 2
7198.5 -1.46154
7199.5 1
7200.5 0
7201.5 1
7202.5 2
7203.5 -0.461538
7204.5 3
7205.5 -0.923077
7206.5 -4.38462
7207.5 3
7208.5 0.538462
7209.5 -3.38462
7210.5 -1.38462
7211.5 1
7212.5 0.538462
7213.5 -1.46154
7214.5 0
7215.5 1.53846
7216.5 1.07692
7217.5 -1.46154
7218.5 2
7219.5 1
7220.5 0
7221.5 -1.46154
7222.5 1
7223.5 0
7224.5 2
7225.5 -1.46154
7226.5 1
7227.5 0
7228.5 1
7229.5 1
7230.5 2
7231.5 1
7232.5 2
7233.5 1
7234.5 0
7235.5 0
7236.5 -2.38462
7237.5 -0.923077
7238.5 4
7239.5 -1.92308
7240.5 0
7241.5 2
7242.5 0
7243.5 1
7244.5 1
7245.5 0
7246.5 3
7247.5 1
7248.5 0.538462
7249.5 -0.923077
7250.5 1
7251.5 0.538462
7252.5 0
7253.5 -0.461538
7254.5 0.538462
7255.5 2
7256.5 1
7257.5 3.53846
7258.5 2
7259.5 3
7260.5 -1.92308
7261.5 -1.46154
7262.5 2
7263.5 4
7264.5 4
7265.5 1
7266.5 -0.461538
7267.5 1
7268.5 -1.46154
7269.5 0
7270.5 -1.46154
7271.5 -1.46154
7272.5 0
7273.5 -1.46154
7274.5 0
7275.5 -1.46154
7276.5 0
7277.5 -1.46154
7278.5 -0.923077
7279.5 2
7280.5 -1.46154
7281.5 -1.46154
7282.5 3
7283.5 3
7284.5 1
7285.5 2
7286.5 0
7287.5 2
7288.5 0.538462
7289.5 0
7290.5 1
7291.5 1
7292.5 1
7293.5 0.538462
7294.5 -1.46154
7295.5 -1.46154
7296.5 2
7297.5 0.538462
7298.5 1
7299.5 -1.46154
7300.5 0
7301.5 -0.461538
7302.5 1
7303.5 0
7304.5 1
7305.5 1
7306.5 2
7307.5 0
7308.5 0
7309.5 -2.92308
7310.5 0
7311.5 0
7312.5 2
7313.5 -2.38462
7314.5 1
7315.5 0
7316.5 1
7317.5 -1.46154
7318.5 0
7319.5 1
7320.5 -0.461538
7321.5 2
7322.5 2
7323.5 0
7324.5 -1.46154
7325.5 2
7326.5 0
7327.5 0
7328.5 0.538462
7329.5 -2.92308
7330.5 0
7331.5 0
7332.5 0
7333.5 0
7334.5 1
7335.5 0
7336.5 0
7337.5 0
7338.5 2
7339.5 0
7340.5 0
7341.5 0
7342.5 -1.46154
7343.5 -0.461538
7344.5 1
7345.5 0
7346.5 0
7347.5 1
7348.5 0.538462
7349.5 0
7350.5 0
7351.5 2
7352.5 3
7353.5 2
7354.5 2
7355.5 1
7356.5 0
7357.5 -1.46154
7358.5 1
7359.5 0
7360.5 -0.461538
7361.5 0
7362.5 0
7363.5 -1.46154
7364.5 -0.461538
7365.5 2
7366.5 0
7367.5 -0.461538
7368.5 1
7369.5 0
7370.5 0
7371.5 -1.46154
7372.5 0
7373.5 0
7374.5 0
7375.5 1
7376.5 1
7377.5 -1.46154
7378.5 0
7379.5 2
7380.5 1
7381.5 2
7382.5 0
7383.5 0
7384.5 0
7385.5 -0.461538
7386.5 1
7387.5 -1.46154
7388.5 0
7389.5 -4.38462
7390.5 -0.923077
7391.5 0
7392.5 1
7393.5 1
7394.5 1
7395.5 1
7396.5 2
7397.5 -0.461538
7398.5 0
7399.5 -1.46154
7400.5 2
7401.5 0
7402.5 2
7403.5 0
7404.5 -0.461538
7405.5 1
7406.5 1
7407.5 -1.46154
7408.5 -1.46154
7409.5 0
7410.5 0.538462
7411.5 1
7412.5 -1.46154
7413.5 -0.461538
7414.5 0.538462
7415.5 0
7416.5 4
7417.5 -0.461538
7418.5 10
7419.5 0.538462
7420.5 1
7421.5 0
7422.5 1
7423.5 0
7424.5 -1.46154
7425.5 1
7426.5 -1.46154
7427.5 0.538462
7428.5 -1.46154
7429.5 2
7430.5 0
7431.5 1
7432.5 -1.46154
7433.5 -3.38462
7434.5 1
7435.5 2
7436.5 0
7437.5 -1.46154
7438.5 0
7439.5 0
7440.5 0
7441.5 -1.46154
7442.5 0
7443.5 1
7444.5 -1.46154
7445.5 1
7446.5 -0.461538
7447.5 0
7448.5 -2.92308
7449.5 1
7450.5 1
7451.5 -1.46154
7452.5 0
7453.5 -1.92308
7454.5 0
7455.5 -0.461538
7456.5 1
7457.5 -2.92308
7458.5 -1.46154
7459.5 0
7460.5 0
7461.5 2
7462.5 -1.92308
7463.5 0
7464.5 1
7465.5 0
7466.5 -2.92308
7467.5 3
7468.5 0
7469.5 1
7470.5 0
7471.5 1
7472.5 0
7473.5 1
7474.5 1
7475.5 0
7476.5 0.538462
7477.5 1
7478.5 0
7479.5 -2.92308
7480.5 0
7481.5 -1.46154
7482.5 -2.92308
7483.5 2
7484.5 1
7485.5 1
7486.5 0
7487.5 0
7488.5 1
7489.5 -1.46154
7490.5 -1.46154
7491.5 -1.92308
7492.5 0
7493.5 -0.461538
7494.5 0.538462
7495.5 3
7496.5 -1.46154
7497.5 3
7498.5 -1.46154
7499.5 -1.46154
7500.5 0
7501.5 1
7502.5 -0.461538
7503.5 -0.461538
7504.5 -1.46154
7505.5 2
7506.5 2
7507.5 1
7508.5 1
7509.5 3
7510.5 1
7511.5 -1.46154
7512.5 -0.923077
7513.5 1
7514.5 -1.46154
7515.5 -1.92308
7516.5 1
7517.5 1
7518.5 2
7519.5 0
7520.5 -2.38462
7521.5 0
7522.5 -0.461538
7523.5 1
7524.5 2
7525.5 1
7526.5 -1.92308
7527.5 0
7528.5 0
7529.5 2
7530.5 -1.46154
7531.5 -1.46154
7532.5 -0.461538
7533.5 -1.46154
7534.5 0
7535.5 -1.46154
7536.5 1.53846
7537.5 1
7538.5 1
7539.5 0
7540.5 1
7541.5 1
7542.5 0
7543.5 0
7544.5 2
7545.5 0
7546.5 0
7547.5 0
7548.5 0
7549.5 -0.461538
7550.5 0
7551.5 -1.46154
7552.5 0
7553.5 -0.461538
7554.5 0
7555.5 2
7556.5 -1.46154
7557.5 1
7558.5 2
7559.5 1
7560.5 2
7561.5 -1.46154
7562.5 -1.92308
7563.5 0
7564.5 0
7565.5 1
7566.5 0
7567.5 -0.461538
7568.5 2
7569.5 -1.46154
7570.5 -0.461538
7571.5 0.538462
7572.5 2
7573.5 0
7574.5 4
7575.5 -1.92308
7576.5 1
7577.5 -0.461538
7578.5 -1.46154
7579.5 -0.461538
7580.5 -2.92308
7581.5 0
7582.5 1
7583.5 0
7584.5 -1.46154
7585.5 -1.46154
7586.5 -1.46154
7587.5 2
7588.5 0
7589.5 -4.38462
7590.5 1
7591.5 0
7592.5 0
7593.5 2
7594.5 -0.461538
7595.5 0
7596.5 0
7597.5 -1.46154
7598.5 1
7599.5 -0.461538
7600.5 1
7601.5 0.538462
7602.5 1
7603.5 0
7604.5 0
7605.5 1
7606.5 1
7607.5 1
7608.5 2
7609.5 -1.46154
7610.5 0
7611.5 -1.46154
7612.5 1
7613.5 -2.92308
7614.5 1.53846
7615.5 -0.461538
7616.5 1
7617.5 1
7618.5 -0.461538
7619.5 1.53846
7620.5 0
7621.5 0
7622.5 2
7623.5 -2.92308
7624.5 2
7625.5 -1.46154
7626.5 0
7627.5 -0.461538
7628.5 -2.92308
7629.5 1
7630.5 1
7631.5 -0.461538
7632.5 -0.461538
7633.5 1
7634.5 0
7635.5 1
7636.5 1
7637.5 2
7638.5 0
7639.5 2
7640.5 -1.46154
7641.5 1
7642.5 -2.92308
7643.5 1
7644.5 0.538462
7645.5 1
7646.5 -1.92308
7647.5 2.53846
7648.5 0.538462
7649.5 -0.923077
7650.5 1
7651.5 0
7652.5 0
7653.5 1
7654.5 0
7655.5 -0.461538
7656.5 1
7657.5 1
7658.5 -1.46154
7659.5 -2.92308
7660.5 0
7661.5 -1.46154
7662.5 -0.461538
7663.5 -1.46154
7664.5 1
7665.5 1
7666.5 0
7667.5 0
7668.5 -1.46154
7669.5 0
7670.5 0
7671.5 0
7672.5 0
7673.5 0
7674.5 1
7675.5 1
7676.5 4
7677.5 1
7678.5 1
7679.5 0
7680.5 0.538462
7681.5 1
7682.5 0
7683.5 0
7684.5 4
7685.5 -1.46154
7686.5 2
7687.5 -0.461538
7688.5 0
7689.5 1
7690.5 0
7691.5 2
7692.5 1
7693.5 1
7694.5 0
7695.5 1
7696.5 1
7697.5 1
7698.5 0
7699.5 0.538462
7700.5 0
7701.5 1
7702.5 -1.46154
7703.5 0
7704.5 2
7705.5 0
7706.5 -0.461538
7707.5 0
7708.5 -0.461538
7709.5 -1.46154
7710.5 1
7711.5 0
7712.5 1
7713.5 0
7714.5 0
7715.5 0
7716.5 -0.461538
7717.5 1
7718.5 -0.461538
7719.5 0
7720.5 -1.46154
7721.5 0
7722.5 -1.92308
7723.5 -0.461538
7724.5 3
7725.5 1.53846
7726.5 0
7727.5 -0.461538
7728.5 1
7729.5 2
7730.5 -1.46154
7731.5 1
7732.5 0
7733.5 0
7734.5 0
7735.5 -1.46154
7736.5 0
7737.5 1
7738.5 1
7739.5 0
7740.5 -1.46154
7741.5 2
7742.5 -1.46154
7743.5 1
7744.5 0
7745.5 1
7746.5 -1.46154
7747.5 1
7748.5 0
7749.5 0
7750.5 -1.46154
7751.5 0
7752.5 0
7753.5 0
7754.5 1
7755.5 0
7756.5 0
7757.5 0
7758.5 -1.46154
7759.5 1
7760.5 0.538462
7761.5 1
7762.5 1
7763.5 -1.46154
7764.5 -1.46154
7765.5 -0.461538
7766.5 0
7767.5 0.538462
7768.5 2
7769.5 -0.461538
7770.5 0.538462
7771.5 0.615385
7772.5 0.538462
7773.5 3
7774.5 -0.384615
7775.5 1.07692
7776.5 0
7777.5 2
7778.5 2
7779.5 -1.46154
7780.5 1
7781.5 0
7782.5 0
7783.5 1
7784.5 0
7785.5 1
7786.5 1
7787.5 2
7788.5 1
7789.5 2
7790.5 2
7791.5 0
7792.5 2
7793.5 1
7794.5 0
7795.5 -1.46154
7796.5 1
7797.5 -1.46154
7798.5 0
7799.5 0
7800.5 0
7801.5 0
7802.5 0
7803.5 0
7804.5 0
7805.5 1
7806.5 0
7807.5 0
7808.5 1
7809.5 1
7810.5 0
7811.5 1
7812.5 0
7813.5 0
7814.5 0
7815.5 -0.461538
7816.5 2
7817.5 -1.46154
7818.5 0
7819.5 0
7820.5 0
7821.5 0
7822.5 -2.92308
7823.5 2
7824.5 3
7825.5 -1.46154
7826.5 0.538462
7827.5 0
7828.5 3
7829.5 2
7830.5 2
7831.5 -1.46154
7832.5 -0.461538
7833.5 0
7834.5 0
7835.5 1
7836.5 -1.46154
7837.5 0
7838.5 0
7839.5 0
7840.5 -2.92308
7841.5 0
7842.5 0
7843.5 1
7844.5 1
7845.5 0
7846.5 1
7847.5 0
7848.5 0
7849.5 1
7850.5 0
7851.5 0
7852.5 0
7853.5 1
7854.5 0
7855.5 0.538462
7856.5 0
7857.5 0
7858.5 -1.46154
7859.5 0
7860.5 0
7861.5 0
7862.5 0
7863.5 1
7864.5 0
7865.5 0
7866.5 0
7867.5 0
7868.5 0
7869.5 1
7870.5 2
7871.5 -1.46154
7872.5 0
7873.5 1
7874.5 1
7875.5 0
7876.5 0
7877.5 1
7878.5 0
7879.5 0
7880.5 -0.461538
7881.5 0
7882.5 0
7883.5 0
7884.5 0
7885.5 0
7886.5 -1.46154
7887.5 0
7888.5 0
7889.5 0
7890.5 0
7891.5 1
7892.5 0
7893.5 0
7894.5 0
7895.5 0
7896.5 0
7897.5 0
7898.5 0
7899.5 0
7900.5 0
7901.5 0
7902.5 0
7903.5 0
7904.5 1
7905.5 1
7906.5 0
7907.5 -1.46154
7908.5 -1.46154
7909.5 1
7910.5 0
7911.5 1
7912.5 0
7913.5 0
7914.5 -1.46154
7915.5 2
7916.5 0
7917.5 0
7918.5 0
7919.5 -1.46154
7920.5 0
7921.5 0
7922.5 0
7923.5 0
7924.5 -0.461538
7925.5 0
7926.5 0
7927.5 0
7928.5 3
7929.5 -2.92308
7930.5 0
7931.5 0
7932.5 0
7933.5 0
7934.5 0
7935.5 0
7936.5 0
7937.5 -0.461538
7938.5 1
7939.5 0
7940.5 1
7941.5 0
7942.5 0
7943.5 0
7944.5 0
7945.5 -1.46154
7946.5 0
7947.5 0
7948.5 -3.38462
7949.5 0
7950.5 -2.92308
7951.5 0
7952.5 0
7953.5 0
7954.5 0
7955.5 0
7956.5 0
7957.5 0
7958.5 0
7959.5 0
7960.5 0
7961.5 0
7962.5 -1.46154
7963.5 0.538462
7964.5 -1.46154
7965.5 0
7966.5 0
7967.5 -0.461538
7968.5 0
7969.5 0
7970.5 1
7971.5 0
7972.5 2
7973.5 -1.46154
7974.5 -0.461538
7975.5 2
7976.5 0
7977.5 0
7978.5 1
7979.5 0
7980.5 2
7981.5 0
7982.5 1
7983.5 -0.461538
7984.5 0
7985.5 1
7986.5 1
7987.5 0
7988.5 -1.46154
7989.5 0
7990.5 -0.461538
7991.5 -1.46154
7992.5 1
7993.5 1
7994.5 1
7995.5 -1.46154
7996.5 1
7997.5 0
7998.5 1
7999.5 1
8000.5 0
8001.5 -1.46154
8002.5 -1.46154
8003.5 0
8004.5 0
8005.5 0
8006.5 0
8007.5 0
8008.5 0
8009.5 -0.461538
8010.5 0
8011.5 0
8012.5 0
8013.5 0
8014.5 1
8015.5 0
8016.5 0
8017.5 0
8018.5 -1.46154
8019.5 0
8020.5 0.538462
8021.5 -1.46154
8022.5 0
8023.5 1
8024.5 1
8025.5 1
8026.5 1
8027.5 0
8028.5 0
8029.5 0
8030.5 -1.46154
8031.5 0
8032.5 1
8033.5 1
8034.5 0.538462
8035.5 0
8036.5 0
8037.5 1
8038.5 0
8039.5 0
8040.5 -1.46154
8041.5 1
8042.5 1
8043.5 0
8044.5 1
8045.5 0
8046.5 0
8047.5 0
8048.5 0
8049.5 0
8050.5 0
8051.5 2
8052.5 0
8053.5 0
8054.5 0
8055.5 -1.46154
8056.5 0
8057.5 0
8058.5 0
8059.5 0
8060.5 0
8061.5 1
8062.5 1
8063.5 -1.46154
8064.5 1
8065.5 0
8066.5 0
8067.5 1
8068.5 0
8069.5 0
8070.5 0
8071.5 -1.46154
8072.5 0
8073.5 1
8074.5 0
8075.5 0
8076.5 0
8077.5 1
8078.5 -0.461538
8079.5 1
8080.5 2
8081.5 0
8082.5 -0.923077
8083.5 -1.46154
8084.5 1
8085.5 3
8086.5 -1.92308
8087.5 -1.46154
8088.5 0
8089.5 0
8090.5 0
8091.5 0
8092.5 0
8093.5 0
8094.5 -1.46154
8095.5 0
8096.5 0
8097.5 0
8098.5 0
8099.5 0
8100.5 1
8101.5 0
8102.5 0
8103.5 0
8104.5 1
8105.5 0
8106.5 0
8107.5 0
8108.5 0
8109.5 0
8110.5 0
8111.5 0
8112.5 0
8113.5 0
8114.5 1
8115.5 0
8116.5 0
8117.5 0
8118.5 0
8119.5 1
8120.5 0
8121.5 1
8122.5 0
8123.5 0
8124.5 0
8125.5 0
8126.5 0
8127.5 1
8128.5 0
8129.5 0
8130.5 0
8131.5 0
8132.5 -1.46154
8133.5 0
8134.5 0
8135.5 1
8136.5 0
8137.5 1
8138.5 0
8139.5 -1.46154
8140.5 0
8141.5 0
8142.5 0
8143.5 0
8144.5 0
8145.5 0
8146.5 1
8147.5 1
8148.5 -1.46154
8149.5 0
8150.5 0
8151.5 0
8152.5 0
8153.5 0
8154.5 0
8155.5 0
8156.5 0
8157.5 0
8158.5 0
8159.5 -1.46154
8160.5 0
8161.5 0
8162.5 0
8163.5 1
8164.5 -1.46154
8165.5 0
8166.5 0
8167.5 0
8168.5 -1.46154
8169.5 0
8170.5 1
8171.5 -1.46154
8172.5 -1.46154
8173.5 0
8174.5 1
8175.5 0
8176.5 0
8177.5 0
8178.5 -1.46154
8179.5 1
8180.5 1.53846
8181.5 0
8182.5 -0.461538
8183.5 0
8184.5 0
8185.5 1
8186.5 0
8187.5 0
8188.5 0
8189.5 0
8190.5 1
8191.5 1
8192.5 1
8193.5 0
8194.5 0
8195.5 0
8196.5 1
8197.5 0
8198.5 0
8199.5 0
8200.5 0
8201.5 0
8202.5 0
8203.5 0
8204.5 0
8205.5 0
8206.5 1
8207.5 -1.46154
8208.5 -1.46154
8209.5 0
8210.5 0
8211.5 1
8212.5 0
8213.5 0
8214.5 -0.461538
8215.5 -1.46154
8216.5 0
8217.5 0
8218.5 0
8219.5 0
8220.5 0
8221.5 -1.46154
8222.5 0
8223.5 0
8224.5 0
8225.5 0
8226.5 0
8227.5 0
8228.5 1
8229.5 0
8230.5 0
8231.5 0
8232.5 0
8233.5 0
8234.5 -0.461538
8235.5 0
8236.5 -1.46154
8237.5 0
8238.5 -1.46154
8239.5 1
8240.5 0
8241.5 0
8242.5 0
8243.5 -1.46154
8244.5 -1.46154
8245.5 0
8246.5 1
8247.5 0
8248.5 0
8249.5 0
8250.5 1
8251.5 -1.46154
8252.5 0
8253.5 0
8254.5 0
8255.5 1
8256.5 -1.46154
8257.5 1
8258.5 0
8259.5 0
8260.5 0
8261.5 0
8262.5 0
8263.5 0
8264.5 0
8265.5 0
8266.5 -1.46154
8267.5 0
8268.5 0
8269.5 0
8270.5 -1.46154
8271.5 2
8272.5 0
8273.5 1
8274.5 0
8275.5 0
8276.5 -1.46154
8277.5 0.538462
8278.5 0
8279.5 1.53846
8280.5 0.538462
8281.5 0
8282.5 0
8283.5 0
8284.5 0
8285.5 -1.46154
8286.5 0
8287.5 0
8288.5 -1.46154
8289.5 1
8290.5 0
8291.5 0
8292.5 0
8293.5 0
8294.5 0
8295.5 -0.461538
8296.5 -1.46154
8297.5 0
8298.5 0
8299.5 0
8300.5 0
8301.5 1
8302.5 1
8303.5 1
8304.5 0
8305.5 0
8306.5 1
8307.5 -1.46154
8308.5 1
8309.5 1
8310.5 0
8311.5 1
8312.5 0
8313.5 0
8314.5 0
8315.5 -1.46154
8316.5 0
8317.5 0
8318.5 0
8319.5 1
8320.5 0
8321.5 0
8322.5 0
8323.5 0
8324.5 0
8325.5 0.538462
8326.5 2
8327.5 0
8328.5 0
8329.5 0
8330.5 -1.46154
8331.5 0
8332.5 -1.46154
8333.5 0
8334.5 0
8335.5 1
8336.5 -0.461538
8337.5 0
8338.5 0
8339.5 0
8340.5 0
8341.5 0
8342.5 0
8343.5 1
8344.5 0
8345.5 0
8346.5 0
8347.5 1
8348.5 0
8349.5 0
8350.5 -1.46154
8351.5 -1.46154
8352.5 0
8353.5 0
8354.5 0
8355.5 0
8356.5 0
8357.5 0
8358.5 0
8359.5 0
8360.5 0
8361.5 0
8362.5 0
8363.5 1
8364.5 0
8365.5 0
8366.5 0
8367.5 0
8368.5 0
8369.5 0
8370.5 0
8371.5 0
8372.5 1
8373.5 0
8374.5 -1.46154
8375.5 -1.46154
8376.5 -2.92308
8377.5 0
8378.5 -1.46154
8379.5 0
8380.5 2
8381.5 0
8382.5 0
8383.5 0
8384.5 0
8385.5 0
8386.5 0
8387.5 0
8388.5 1
8389.5 -1.46154
8390.5 0
8391.5 0
8392.5 1
8393.5 0
8394.5 -1.46154
8395.5 0
8396.5 -1.46154
8397.5 0
8398.5 0
8399.5 0
8400.5 0
8401.5 0
8402.5 0
8403.5 0
8404.5 -0.461538
8405.5 0
8406.5 0
8407.5 0
8408.5 0
8409.5 0
8410.5 0
8411.5 0
8412.5 0
8413.5 0
8414.5 0
8415.5 0
8416.5 0
8417.5 -1.46154
8418.5 1
8419.5 -1.46154
8420.5 -1.46154
8421.5 1
8422.5 0
8423.5 0
8424.5 0
8425.5 0
8426.5 0
8427.5 0
8428.5 1
8429.5 0
8430.5 1
8431.5 0
8432.5 0
8433.5 0
8434.5 1
8435.5 -1.46154
8436.5 0
8437.5 0
8438.5 0
8439.5 -1.46154
8440.5 0
8441.5 0
8442.5 0
8443.5 2
8444.5 1
8445.5 0
8446.5 -2.92308
8447.5 0
8448.5 0
8449.5 0
8450.5 0
8451.5 0
8452.5 0
8453.5 0
8454.5 0
8455.5 0
8456.5 0
8457.5 0
8458.5 0
8459.5 0
8460.5 0
8461.5 0
8462.5 1
8463.5 0
8464.5 -1.46154
8465.5 0
8466.5 0
8467.5 0
8468.5 0
8469.5 0
8470.5 1
8471.5 0
8472.5 0
8473.5 0
8474.5 0
8475.5 -1.46154
8476.5 0
8477.5 0
8478.5 0
8479.5 1
8480.5 0
8481.5 0
8482.5 0
8483.5 0
8484.5 0
8485.5 0
8486.5 1
8487.5 0
8488.5 0
8489.5 0
8490.5 0
8491.5 0
8492.5 0
8493.5 0
8494.5 0
8495.5 0
8496.5 0
8497.5 0
8498.5 0
8499.5 0
8500.5 0
8501.5 0
8502.5 1
8503.5 -0.461538
8504.5 0
8505.5 -0.461538
8506.5 0
8507.5 0
8508.5 1
8509.5 0
8510.5 1
8511.5 -1.46154
8512.5 0
8513.5 0
8514.5 1
8515.5 0
8516.5 1
8517.5 0
8518.5 0
8519.5 0
8520.5 0
8521.5 0
8522.5 1
8523.5 0
8524.5 1
8525.5 0
8526.5 0
8527.5 -0.461538
8528.5 0
8529.5 0
8530.5 0
8531.5 0
8532.5 -0.461538
8533.5 0
8534.5 0
8535.5 0
8536.5 0
8537.5 0
8538.5 1
8539.5 -1.46154
8540.5 2
8541.5 1
8542.5 0
8543.5 0
8544.5 1
8545.5 1
8546.5 0
8547.5 0
8548.5 -1.46154
8549.5 0
8550.5 0
8551.5 0
8552.5 0
8553.5 0
8554.5 0
8555.5 0
8556.5 1
8557.5 0
8558.5 0
8559.5 0
8560.5 0
8561.5 0
8562.5 0
8563.5 -1.46154
8564.5 0
8565.5 0
8566.5 0
8567.5 0
8568.5 1
8569.5 0
8570.5 0
8571.5 0
8572.5 0
8573.5 -4.38462
8574.5 0
8575.5 1
8576.5 1
8577.5 0
8578.5 0
8579.5 0
8580.5 -1.46154
8581.5 -1.46154
8582.5 1
8583.5 1
8584.5 0
8585.5 1
8586.5 1
8587.5 0
8588.5 0
8589.5 0
8590.5 1
8591.5 0
8592.5 1
8593.5 0
8594.5 1
8595.5 0
8596.5 0
8597.5 0
8598.5 0
8599.5 0
8600.5 0
8601.5 0
8602.5 0
8603.5 1
8604.5 0
8605.5 -1.46154
8606.5 0
8607.5 1
8608.5 1
8609.5 0
8610.5 0
8611.5 0
8612.5 0
8613.5 0
8614.5 0
8615.5 0
8616.5 0
8617.5 0
8618.5 -1.46154
8619.5 0
8620.5 0
8621.5 0
8622.5 -1.46154
8623.5 -1.46154
8624.5 0
8625.5 0
8626.5 0
8627.5 0
8628.5 0
8629.5 0
8630.5 2
8631.5 0
8632.5 0
8633.5 0
8634.5 0
8635.5 0
8636.5 0
8637.5 1
8638.5 0
8639.5 0
8640.5 0
8641.5 0
8642.5 1
8643.5 1
8644.5 0
8645.5 0
8646.5 1
8647.5 0
8648.5 0
8649.5 1
8650.5 0
8651.5 1
8652.5 0
8653.5 0
8654.5 -1.46154
8655.5 1
8656.5 1
8657.5 1
8658.5 0
8659.5 0
8660.5 -1.46154
8661.5 -1.46154
8662.5 0
8663.5 -1.46154
8664.5 0
8665.5 0
8666.5 0
8667.5 -1.46154
8668.5 -1.46154
8669.5 1
8670.5 0
8671.5 0
8672.5 0
8673.5 0
8674.5 0
8675.5 0
8676.5 1
8677.5 0
8678.5 0
8679.5 0
8680.5 0
8681.5 0
8682.5 0
8683.5 0
8684.5 0
8685.5 0
8686.5 0
8687.5 0
8688.5 -1.46154
8689.5 0
8690.5 1
8691.5 0
8692.5 0
8693.5 -0.461538
8694.5 2
8695.5 0
8696.5 0
8697.5 0
8698.5 -1.46154
8699.5 0
8700.5 0
8701.5 0
8702.5 0
8703.5 0
8704.5 0
8705.5 0
8706.5 0
8707.5 0
8708.5 2
8709.5 0
8710.5 0
8711.5 0
8712.5 0
8713.5 0
8714.5 1
8715.5 0
8716.5 0
8717.5 1
8718.5 1
8719.5 1
8720.5 1
8721.5 -0.461538
8722.5 -0.461538
8723.5 0
8724.5 0
8725.5 0
8726.5 0
8727.5 0
8728.5 0
8729.5 0
8730.5 0
8731.5 1
8732.5 0
8733.5 2
8734.5 -0.461538
8735.5 -1.46154
8736.5 0
8737.5 -1.46154
8738.5 0
8739.5 0
8740.5 0
8741.5 0
8742.5 0
8743.5 -1.46154
8744.5 0
8745.5 0
8746.5 0
8747.5 -1.46154
8748.5 0
8749.5 1
8750.5 0
8751.5 0
8752.5 0
8753.5 0
8754.5 0
8755.5 0
8756.5 0
8757.5 0
8758.5 0
8759.5 0
8760.5 0
8761.5 0
8762.5 0
8763.5 0
8764.5 0
8765.5 0
8766.5 0
8767.5 0
8768.5 0
8769.5 0
8770.5 0
8771.5 0
8772.5 0
8773.5 0
8774.5 0
8775.5 0
8776.5 0
8777.5 0
8778.5 0
8779.5 0
8780.5 -1.46154
8781.5 1
8782.5 0
8783.5 0
8784.5 0
8785.5 -0.461538
8786.5 1
8787.5 0
8788.5 0
8789.5 -2.92308
8790.5 0
8791.5 0
8792.5 0
8793.5 0
8794.5 0
8795.5 -1.46154
8796.5 0
8797.5 0
8798.5 0
8799.5 0
8800.5 0
8801.5 -1.46154
8802.5 0
8803.5 0
8804.5 0
8805.5 0
8806.5 0
8807.5 0
8808.5 0
8809.5 0
8810.5 0
8811.5 0
8812.5 0
8813.5 0
8814.5 0
8815.5 0
8816.5 -1.46154
8817.5 0
8818.5 0
8819.5 0
8820.5 -2.92308
8821.5 0
8822.5 1
8823.5 1
8824.5 0
8825.5 0
8826.5 0
8827.5 1
8828.5 0
8829.5 1
8830.5 0
8831.5 1
8832.5 0
8833.5 0
8834.5 0
8835.5 0
8836.5 0
8837.5 0
8838.5 -0.461538
8839.5 0
8840.5 0
8841.5 0
8842.5 0
8843.5 -1.46154
8844.5 0
8845.5 1
8846.5 0
8847.5 0
8848.5 0
8849.5 1
8850.5 1
8851.5 0
8852.5 0
8853.5 0
8854.5 0
8855.5 0
8856.5 0
8857.5 1
8858.5 0
8859.5 0
8860.5 0
8861.5 0
8862.5 0
8863.5 0
8864.5 -1.46154
8865.5 -1.46154
8866.5 0
8867.5 0
8868.5 -1.46154
8869.5 -1.46154
8870.5 0
8871.5 0
8872.5 0
8873.5 0
8874.5 0
8875.5 0
8876.5 1
8877.5 1
8878.5 0
8879.5 0
8880.5 0
8881.5 0
8882.5 0
8883.5 -1.46154
8884.5 0
8885.5 0
8886.5 2
8887.5 0
8888.5 -1.46154
8889.5 0
8890.5 0
8891.5 0
8892.5 -1.46154
8893.5 0
8894.5 0
8895.5 0
8896.5 1
8897.5 0
8898.5 0
8899.5 1
8900.5 0
8901.5 0
8902.5 0
8903.5 0
8904.5 0
8905.5 0
8906.5 0
8907.5 0
8908.5 0
8909.5 1
8910.5 0
8911.5 1
8912.5 0
8913.5 0
8914.5 0
8915.5 -1.46154
8916.5 0
8917.5 -1.46154
8918.5 0
8919.5 0
8920.5 0
8921.5 0
8922.5 0
8923.5 0
8924.5 0
8925.5 -1.46154
8926.5 0
8927.5 0
8928.5 0
8929.5 0
8930.5 1
8931.5 1
8932.5 0
8933.5 0
8934.5 1
8935.5 0
8936.5 0
8937.5 0
8938.5 0
8939.5 1
8940.5 0
8941.5 0
8942.5 0
8943.5 0
8944.5 0
8945.5 0
8946.5 1
8947.5 0
8948.5 -1.46154
8949.5 0
8950.5 -1.46154
8951.5 1
8952.5 1
8953.5 0
8954.5 0
8955.5 0
8956.5 0
8957.5 0
8958.5 0
8959.5 0
8960.5 -1.46154
8961.5 0
8962.5 2
8963.5 0
8964.5 0
8965.5 0
8966.5 -1.46154
8967.5 1
8968.5 0
8969.5 0
8970.5 0
8971.5 0
8972.5 1
8973.5 0
8974.5 0
8975.5 0
8976.5 0
8977.5 0
8978.5 2
8979.5 0
8980.5 0
8981.5 0
8982.5 0
8983.5 0
8984.5 0
8985.5 0
8986.5 -0.461538
8987.5 -1.46154
8988.5 1
8989.5 1
8990.5 1
8991.5 0
8992.5 0
8993.5 -1.46154
8994.5 0
8995.5 1
8996.5 0
8997.5 1
8998.5 -1.46154
8999.5 -1.46154
9000.5 0
9001.5 -1.46154
9002.5 0
9003.5 1
9004.5 1
9005.5 0
9006.5 0
9007.5 1
9008.5 0
9009.5 0
9010.5 0
9011.5 0
9012.5 1
9013.5 0
9014.5 0
9015.5 0
9016.5 0
9017.5 1
9018.5 0
9019.5 0
9020.5 1
9021.5 1
9022.5 0
9023.5 0
9024.5 0
9025.5 0
9026.5 0
9027.5 0
9028.5 0
9029.5 0
9030.5 -1.46154
9031.5 0
9032.5 0
9033.5 0
9034.5 0
9035.5 0
9036.5 0
9037.5 0
9038.5 1
9039.5 0
9040.5 -1.46154
9041.5 0
9042.5 -1.46154
9043.5 0
9044.5 0
9045.5 0
9046.5 0
9047.5 0
9048.5 0
9049.5 0
9050.5 0
9051.5 0
9052.5 0
9053.5 1
9054.5 0
9055.5 1
9056.5 0
9057.5 0
9058.5 1
9059.5 0
9060.5 0
9061.5 0
9062.5 0
9063.5 0
9064.5 0
9065.5 0
9066.5 0
9067.5 0
9068.5 0
9069.5 0
9070.5 0
9071.5 0
9072.5 0
9073.5 1
9074.5 0
9075.5 0
9076.5 1
9077.5 0
9078.5 0
9079.5 0
9080.5 0
9081.5 1
9082.5 0
9083.5 -1.46154
9084.5 0
9085.5 0
9086.5 1
9087.5 1
9088.5 0
9089.5 0
9090.5 0
9091.5 0
9092.5 -1.46154
9093.5 0
9094.5 1
9095.5 0
9096.5 0
9097.5 1
9098.5 0
9099.5 0
9100.5 0
9101.5 0
9102.5 0
9103.5 0
9104.5 0
9105.5 0
9106.5 0
9107.5 0
9108.5 1
9109.5 0
9110.5 0
9111.5 0
9112.5 0
9113.5 0
9114.5 -1.46154
9115.5 0
9116.5 0
9117.5 0
9118.5 0
9119.5 0
9120.5 -1.46154
9121.5 0
9122.5 0
9123.5 0
9124.5 0
9125.5 0
9126.5 0
9127.5 1
9128.5 0
9129.5 0
9130.5 -1.46154
9131.5 1
9132.5 0
9133.5 0
9134.5 -1.46154
9135.5 0
9136.5 0
9137.5 1
9138.5 1
9139.5 0
9140.5 0
9141.5 0
9142.5 0
9143.5 0
9144.5 0
9145.5 0
9146.5 0
9147.5 0
9148.5 0
9149.5 0
9150.5 0
9151.5 0
9152.5 0
9153.5 0
9154.5 1
9155.5 0
9156.5 0
9157.5 0
9158.5 1
9159.5 0
9160.5 0
9161.5 1
9162.5 0
9163.5 0
9164.5 -1.46154
9165.5 0
9166.5 1
9167.5 0
9168.5 0
9169.5 0
9170.5 0
9171.5 0
9172.5 -0.461538
9173.5 0
9174.5 0
9175.5 0
9176.5 0
9177.5 0
9178.5 0
9179.5 0
9180.5 0
9181.5 0
9182.5 0
9183.5 -1.46154
9184.5 0
9185.5 -1.46154
9186.5 0
9187.5 0
9188.5 0
9189.5 0
9190.5 0
9191.5 1
9192.5 0
9193.5 0
9194.5 0
9195.5 0
9196.5 0
9197.5 0
9198.5 0
9199.5 0
9200.5 0
9201.5 0
9202.5 0
9203.5 0
9204.5 0
9205.5 0
9206.5 1
9207.5 0
9208.5 0
9209.5 0
9210.5 0
9211.5 -1.46154
9212.5 0
9213.5 0
9214.5 0
9215.5 0
9216.5 0
9217.5 0
9218.5 0
9219.5 0
9220.5 0
9221.5 0
9222.5 0
9223.5 0
9224.5 0
9225.5 0
9226.5 0
9227.5 0
9228.5 1
9229.5 0
9230.5 0
9231.5 0
9232.5 1
9233.5 -1.46154
9234.5 0
9235.5 0
9236.5 0
9237.5 0
9238.5 0
9239.5 0
9240.5 -0.461538
9241.5 0
9242.5 0
9243.5 0
9244.5 1
9245.5 -1.46154
9246.5 1
9247.5 0
9248.5 0
9249.5 0
9250.5 0
9251.5 0
9252.5 0
9253.5 0
9254.5 0
9255.5 0
9256.5 0
9257.5 0
9258.5 0
9259.5 0
9260.5 0
9261.5 0
9262.5 0
9263.5 0
9264.5 0
9265.5 2
9266.5 -1.46154
9267.5 0
9268.5 0
9269.5 0
9270.5 0
9271.5 -0.461538
9272.5 0
9273.5 0
9274.5 0
9275.5 0
9276.5 0
9277.5 0
9278.5 0
9279.5 0
9280.5 1
9281.5 0
9282.5 0
9283.5 0
9284.5 2
9285.5 -1.46154
9286.5 1
9287.5 0
9288.5 0
9289.5 0
9290.5 -1.46154
9291.5 0
9292.5 0
9293.5 0
9294.5 0
9295.5 -1.46154
9296.5 0
9297.5 0
9298.5 0
9299.5 0
9300.5 0
9301.5 0
9302.5 0
9303.5 0
9304.5 0
9305.5 0
9306.5 1
9307.5 1
9308.5 0
9309.5 0
9310.5 0
9311.5 0
9312.5 0
9313.5 0
9314.5 0
9315.5 0
9316.5 -1.46154
9317.5 0
9318.5 0
9319.5 0
9320.5 0
9321.5 0
9322.5 0
9323.5 0
9324.5 0
9325.5 0
9326.5 0
9327.5 0
9328.5 0
9329.5 0
9330.5 -0.461538
9331.5 0
9332.5 0
9333.5 2
9334.5 0
9335.5 0
9336.5 0
9337.5 0
9338.5 0
9339.5 0
9340.5 1
9341.5 0
9342.5 0
9343.5 0
9344.5 -1.46154
9345.5 0
9346.5 0
9347.5 0
9348.5 0
9349.5 0
9350.5 0
9351.5 0
9352.5 -1.46154
9353.5 0
9354.5 0
9355.5 0
9356.5 0
9357.5 -1.46154
9358.5 0
9359.5 0
9360.5 0
9361.5 0
9362.5 2
9363.5 0
9364.5 0
9365.5 1
9366.5 0
9367.5 0
9368.5 0
9369.5 0
9370.5 0
9371.5 1
9372.5 0
9373.5 0
9374.5 0
9375.5 0
9376.5 -1.46154
9377.5 -1.46154
9378.5 1
9379.5 0
9380.5 -0.461538
9381.5 0
9382.5 0
9383.5 0
9384.5 0
9385.5 1
9386.5 0
9387.5 0
9388.5 0
9389.5 0
9390.5 0
9391.5 1
9392.5 -0.461538
9393.5 0
9394.5 0
9395.5 0
9396.5 0
9397.5 0
9398.5 0
9399.5 0
9400.5 0
9401.5 0
9402.5 0
9403.5 0
9404.5 0
9405.5 -1.46154
9406.5 0
9407.5 0
9408.5 -1.46154
9409.5 0
9410.5 0
9411.5 0
9412.5 0
9413.5 0
9414.5 0
9415.5 0
9416.5 0
9417.5 0
9418.5 0
9419.5 0
9420.5 0
9421.5 0
9422.5 0
9423.5 1
9424.5 0
9425.5 0
9426.5 1
9427.5 0
9428.5 1
9429.5 0
9430.5 0
9431.5 0
9432.5 0
9433.5 0
9434.5 0
9435.5 0
9436.5 0
9437.5 0
9438.5 0
9439.5 -1.46154
9440.5 0
9441.5 0
9442.5 1
9443.5 0
9444.5 0
9445.5 1
9446.5 0
9447.5 0
9448.5 1
9449.5 0
9450.5 0
9451.5 0
9452.5 0
9453.5 -0.461538
9454.5 0
9455.5 0
9456.5 0
9457.5 0
9458.5 0
9459.5 0
9460.5 0
9461.5 1
9462.5 0
9463.5 0
9464.5 2
9465.5 0
9466.5 0
9467.5 0
9468.5 1
9469.5 0
9470.5 0
9471.5 1
9472.5 1
9473.5 0
9474.5 -1.46154
9475.5 0
9476.5 0
9477.5 0
9478.5 0
9479.5 0
9480.5 0
9481.5 0
9482.5 0
9483.5 1
9484.5 0
9485.5 0
9486.5 -1.46154
9487.5 0
9488.5 0
9489.5 0
9490.5 0
9491.5 0
9492.5 0
9493.5 0
9494.5 0
9495.5 0
9496.5 0
9497.5 0
9498.5 0
9499.5 0
9500.5 0
9501.5 0
9502.5 0
9503.5 0
9504.5 0
9505.5 1
9506.5 1
9507.5 0
9508.5 0
9509.5 0
9510.5 -1.46154
9511.5 0
9512.5 0
9513.5 0
9514.5 1
9515.5 0
9516.5 0
9517.5 0
9518.5 0
9519.5 0
9520.5 0
9521.5 0
9522.5 0
9523.5 0
9524.5 0
9525.5 0
9526.5 0
9527.5 0
9528.5 1
9529.5 -1.46154
9530.5 0
9531.5 1
9532.5 0
9533.5 0
9534.5 -1.46154
9535.5 0
9536.5 0
9537.5 0
9538.5 0
9539.5 0
9540.5 0
9541.5 0
9542.5 0
9543.5 -1.46154
9544.5 0
9545.5 0
9546.5 0
9547.5 1
9548.5 0
9549.5 0
9550.5 0
9551.5 0
9552.5 0
9553.5 0
9554.5 0
9555.5 0
9556.5 0
9557.5 0
9558.5 0
9559.5 0
9560.5 0
9561.5 0
9562.5 0
9563.5 0
9564.5 0
9565.5 0
9566.5 0
9567.5 0
9568.5 0
9569.5 0
9570.5 0
9571.5 0
9572.5 0
9573.5 0
9574.5 0
9575.5 0
9576.5 0
9577.5 0
9578.5 0
9579.5 0
9580.5 0
9581.5 0
9582.5 0
9583.5 0
9584.5 0
9585.5 0
9586.5 0
9587.5 -1.46154
9588.5 0
9589.5 0
9590.5 0
9591.5 0
9592.5 0
9593.5 0
9594.5 0
9595.5 0
9596.5 0
9597.5 0
9598.5 0
9599.5 0
9600.5 0
9601.5 1
9602.5 -0.461538
9603.5 0
9604.5 0
9605.5 0
9606.5 0
9607.5 0
9608.5 0
9609.5 0
9610.5 0
9611.5 0
9612.5 0
9613.5 0
9614.5 0
9615.5 0
9616.5 0
9617.5 0
9618.5 0
9619.5 0
9620.5 0
9621.5 0
9622.5 0
9623.5 0
9624.5 0
9625.5 0
9626.5 0
9627.5 0
9628.5 0
9629.5 0
9630.5 0
9631.5 0
9632.5 0
9633.5 0
9634.5 0
9635.5 0
9636.5 0
9637.5 1
9638.5 0
9639.5 0
9640.5 0
9641.5 0
9642.5 0
9643.5 1
9644.5 0
9645.5 0
9646.5 0
9647.5 0
9648.5 0
9649.5 1
9650.5 0
9651.5 0
9652.5 0
9653.5 0
9654.5 0
9655.5 1
9656.5 0
9657.5 0
9658.5 0
9659.5 0
9660.5 0
9661.5 0
9662.5 1
9663.5 0
9664.5 0
9665.5 0
9666.5 0
9667.5 0
9668.5 0
9669.5 0
9670.5 0
9671.5 0
9672.5 0
9673.5 1
9674.5 0
9675.5 -1.46154
9676.5 0
9677.5 0
9678.5 0
9679.5 0
9680.5 0
9681.5 0
9682.5 0
9683.5 -1.46154
9684.5 0
9685.5 0
9686.5 -1.46154
9687.5 1
9688.5 0
9689.5 0
9690.5 0
9691.5 0
9692.5 0
9693.5 0
9694.5 0
9695.5 0
9696.5 0
9697.5 1
9698.5 -1.46154
9699.5 0
9700.5 0
9701.5 0
9702.5 0
9703.5 0
9704.5 0
9705.5 0
9706.5 0
9707.5 0
9708.5 0
9709.5 1
9710.5 0
9711.5 0
9712.5 0
9713.5 0
9714.5 0
9715.5 0
9716.5 1
9717.5 0
9718.5 0
9719.5 0
9720.5 0
9721.5 -1.46154
9722.5 0
9723.5 0
9724.5 0
9725.5 0
9726.5 0
9727.5 -1.46154
9728.5 0
9729.5 0
9730.5 0
9731.5 0
9732.5 0
9733.5 0
9734.5 0
9735.5 0
9736.5 0
9737.5 0
9738.5 0
9739.5 0
9740.5 0
9741.5 0
9742.5 0
9743.5 0
9744.5 0
9745.5 1
9746.5 0
9747.5 0
9748.5 0
9749.5 0
9750.5 1
9751.5 0
9752.5 0
9753.5 0
9754.5 0
9755.5 0
9756.5 0
9757.5 0
9758.5 1
9759.5 0
9760.5 -1.46154
9761.5 0
9762.5 0
9763.5 0
9764.5 0
9765.5 0
9766.5 0
9767.5 0
9768.5 0
9769.5 0
9770.5 0
9771.5 0
9772.5 0
9773.5 0
9774.5 0
9775.5 0
9776.5 0
9777.5 0
9778.5 0
9779.5 0
9780.5 0
9781.5 0
9782.5 0
9783.5 0
9784.5 0
9785.5 0
9786.5 0
9787.5 0
9788.5 0
9789.5 0
9790.5 0
9791.5 0
9792.5 0
9793.5 -1.46154
9794.5 0
9795.5 0
9796.5 0
9797.5 0
9798.5 0
9799.5 0
9800.5 0
9801.5 0
9802.5 1
9803.5 0
9804.5 0
9805.5 0
9806.5 0
9807.5 0
9808.5 0
9809.5 0
9810.5 0
9811.5 0
9812.5 1
9813.5 0
9814.5 0
9815.5 0
9816.5 0
9817.5 0
9818.5 0
9819.5 0
9820.5 0
9821.5 0
9822.5 0
9823.5 0
9824.5 0
9825.5 0
9826.5 0
9827.5 -1.46154
9828.5 0
9829.5 0
9830.5 0
9831.5 0
9832.5 0
9833.5 0
9834.5 0
9835.5 0
9836.5 0
9837.5 0
9838.5 0
9839.5 0
9840.5 0
9841.5 0
9842.5 0
9843.5 1
9844.5 1
9845.5 0
9846.5 0
9847.5 0
9848.5 -1.46154
9849.5 0
9850.5 0
9851.5 0
9852.5 0
9853.5 0
9854.5 0
9855.5 0
9856.5 0
9857.5 0
9858.5 0
9859.5 0
9860.5 0
9861.5 0
9862.5 0
9863.5 0
9864.5 0
9865.5 0
9866.5 0
9867.5 0
9868.5 0
9869.5 0
9870.5 0
9871.5 0
9872.5 0
9873.5 -1.46154
9874.5 0
9875.5 0
9876.5 0
9877.5 0
9878.5 0
9879.5 0
9880.5 0
9881.5 0
9882.5 -2.92308
9883.5 0
9884.5 0
9885.5 0
9886.5 0
9887.5 0
9888.5 0
9889.5 0
9890.5 0
9891.5 0
9892.5 0
9893.5 0
9894.5 0
9895.5 0
9896.5 0
9897.5 0
9898.5 0
9899.5 0
9900.5 0
9901.5 0
9902.5 0
9903.5 0
9904.5 0
9905.5 0
9906.5 0
9907.5 0
9908.5 0
9909.5 0
9910.5 0
9911.5 0
9912.5 0
9913.5 0
9914.5 0
9915.5 0
9916.5 0
9917.5 0
9918.5 0
9919.5 0
9920.5 0
9921.5 0
9922.5 0
9923.5 0
9924.5 0
9925.5 0
9926.5 0
9927.5 0
9928.5 0
9929.5 0
9930.5 0
9931.5 0
9932.5 0
9933.5 0
9934.5 0
9935.5 0
9936.5 0
9937.5 0
9938.5 0
9939.5 0
9940.5 0
9941.5 0
9942.5 0
9943.5 0
9944.5 0
9945.5 0
9946.5 0
9947.5 0
9948.5 0
9949.5 0
9950.5 0
9951.5 0
9952.5 0
9953.5 0
9954.5 0
9955.5 0
9956.5 0
9957.5 0
9958.5 0
9959.5 0
9960.5 0
9961.5 0
9962.5 0
9963.5 0
9964.5 0
9965.5 0
9966.5 0
9967.5 0
9968.5 0
9969.5 0
9970.5 0
9971.5 0
9972.5 0
9973.5 0
9974.5 0
9975.5 0
9976.5 0
9977.5 0
9978.5 0
9979.5 1
9980.5 0
9981.5 0
9982.5 0
9983.5 0
9984.5 0
9985.5 0
9986.5 0
9987.5 0
9988.5 0
9989.5 0
9990.5 0
9991.5 0
9992.5 0
9993.5 0
9994.5 0
9995.5 0
9996.5 0
9997.5 0
9998.5 0
9999.5 -1.46154
10000.5 0
10001.5 0
10002.5 0
10003.5 0
10004.5 0
10005.5 0
10006.5 0
10007.5 0
10008.5 0
10009.5 0
10010.5 0
10011.5 0
10012.5 0
10013.5 0
10014.5 0
10015.5 0
10016.5 0
10017.5 0
10018.5 0
10019.5 0
10020.5 0
10021.5 0
10022.5 0
10023.5 0
10024.5 0
10025.5 0
10026.5 0
10027.5 0
10028.5 0
10029.5 0
10030.5 0
10031.5 0
10032.5 0
10033.5 0
10034.5 0
10035.5 0
10036.5 0
10037.5 0
10038.5 0
10039.5 0
10040.5 0
10041.5 0
10042.5 0
10043.5 0
10044.5 0
10045.5 0
10046.5 0
10047.5 0
10048.5 0
10049.5 0
10050.5 -1.46154
10051.5 0
10052.5 0
10053.5 0
10054.5 0
10055.5 0
10056.5 0
10057.5 0
10058.5 0
10059.5 0
10060.5 -1.46154
10061.5 0
10062.5 0
10063.5 0
10064.5 0
10065.5 0
10066.5 0
10067.5 0
10068.5 0
10069.5 0
10070.5 0
10071.5 0
10072.5 0
10073.5 0
10074.5 0
10075.5 0
10076.5 0
10077.5 0
10078.5 0
10079.5 0
10080.5 0
10081.5 0
10082.5 0
10083.5 0
10084.5 0
10085.5 0
10086.5 0
10087.5 0
10088.5 0
10089.5 0
10090.5 0
10091.5 0
10092.5 0
10093.5 0
10094.5 0
10095.5 0
10096.5 0
10097.5 0
10098.5 0
10099.5 0
10100.5 0
10101.5 0
10102.5 0
10103.5 0
10104.5 0
10105.5 0
10106.5 0
10107.5 0
10108.5 1
10109.5 0
10110.5 0
10111.5 0
10112.5 0
10113.5 0
10114.5 0
10115.5 0
10116.5 0
10117.5 0
10118.5 0
10119.5 0
10120.5 0
10121.5 1
10122.5 0
10123.5 0
10124.5 0
10125.5 0
10126.5 0
10127.5 0
10128.5 0
10129.5 0
10130.5 0
10131.5 0
10132.5 0
10133.5 0
10134.5 0
10135.5 0
10136.5 0
10137.5 0
10138.5 0
10139.5 0
10140.5 0
10141.5 0
10142.5 0
10143.5 1
10144.5 0
10145.5 0
10146.5 0
10147.5 0
10148.5 0
10149.5 0
10150.5 0
10151.5 0
10152.5 0
10153.5 0
10154.5 0
10155.5 0
10156.5 0
10157.5 0
10158.5 0
10159.5 0
10160.5 0
10161.5 0
10162.5 0
10163.5 0
10164.5 0
10165.5 0
10166.5 0
10167.5 0
10168.5 0
10169.5 0
10170.5 0
10171.5 0
10172.5 0
10173.5 0
10174.5 0
10175.5 0
10176.5 0
10177.5 0
10178.5 0
10179.5 0
10180.5 0
10181.5 0
10182.5 0
10183.5 0
10184.5 1
10185.5 0
10186.5 0
10187.5 0
10188.5 0
10189.5 0
10190.5 0
10191.5 0
10192.5 0
10193.5 0
10194.5 0
10195.5 0
10196.5 0
10197.5 0
10198.5 0
10199.5 0
10200.5 0
10201.5 1
10202.5 0
10203.5 0
10204.5 0
10205.5 0
10206.5 0
10207.5 0
10208.5 0
10209.5 0
10210.5 0
10211.5 0
10212.5 0
10213.5 0
10214.5 0
10215.5 0
10216.5 0
10217.5 0
10218.5 0
10219.5 0
10220.5 0
10221.5 0
10222.5 0
10223.5 0
10224.5 0
10225.5 0
10226.5 0
10227.5 0
10228.5 0
10229.5 0
10230.5 0
10231.5 0
10232.5 0
10233.5 0
10234.5 0
10235.5 0
10236.5 0
10237.5 0
10238.5 0
10239.5 0
10240.5 0
10241.5 0
10242.5 0
10243.5 0
10244.5 0
10245.5 0
10246.5 0
10247.5 0
10248.5 0
10249.5 0
10250.5 0
10251.5 0
10252.5 0
10253.5 0
10254.5 0
10255.5 0
10256.5 0
10257.5 0
10258.5 0
10259.5 0
10260.5 0
10261.5 0
10262.5 0
10263.5 0
10264.5 0
10265.5 0
10266.5 0
10267.5 0
10268.5 0
10269.5 0
10270.5 0
10271.5 0
10272.5 0
10273.5 0
10274.5 0
10275.5 0
10276.5 0
10277.5 0
10278.5 -1.46154
10279.5 0
10280.5 0
10281.5 0
10282.5 0
10283.5 0
10284.5 0
10285.5 0
10286.5 0
10287.5 0
10288.5 0
10289.5 0
10290.5 0
10291.5 0
10292.5 0
10293.5 0
10294.5 0
10295.5 0
10296.5 0
10297.5 0
10298.5 0
10299.5 0
10300.5 0
10301.5 0
10302.5 0
10303.5 0
10304.5 0
10305.5 0
10306.5 0
10307.5 0
10308.5 0
10309.5 0
10310.5 0
10311.5 0
10312.5 0
10313.5 1
10314.5 0
10315.5 0
10316.5 0
10317.5 0
10318.5 0
10319.5 0
10320.5 0
10321.5 0
10322.5 0
10323.5 0
10324.5 0
10325.5 -1.46154
10326.5 0
10327.5 0
10328.5 0
10329.5 0
10330.5 0
10331.5 0
10332.5 0
10333.5 0
10334.5 0
10335.5 0
10336.5 0
10337.5 0
10338.5 0
10339.5 0
10340.5 0
10341.5 0
10342.5 0
10343.5 0
10344.5 1
10345.5 0
10346.5 0
10347.5 0
10348.5 0
10349.5 0
10350.5 0
10351.5 0
10352.5 0
10353.5 0
10354.5 0
10355.5 0
10356.5 0
10357.5 0
10358.5 0
10359.5 0
10360.5 0
10361.5 0
10362.5 0
10363.5 0
10364.5 0
10365.5 0
10366.5 0
10367.5 0
10368.5 0
10369.5 0
10370.5 0
10371.5 0
10372.5 0
10373.5 0
10374.5 0
10375.5 0
10376.5 0
10377.5 0
10378.5 0
10379.5 0
10380.5 0
10381.5 0
10382.5 0
10383.5 0
10384.5 0
10385.5 0
10386.5 0
10387.5 0
10388.5 0
10389.5 0
10390.5 0
10391.5 0
10392.5 0
10393.5 0
10394.5 0
10395.5 0
10396.5 0
10397.5 0
10398.5 0
10399.5 0
10400.5 0
10401.5 0
10402.5 0
10403.5 0
10404.5 0
10405.5 0
10406.5 0
10407.5 0
10408.5 0
10409.5 0
10410.5 0
10411.5 0
10412.5 0
10413.5 0
10414.5 0
10415.5 0
10416.5 0
10417.5 0
10418.5 0
10419.5 0
10420.5 0
10421.5 0
10422.5 0
10423.5 0
10424.5 0
10425.5 0
10426.5 0
10427.5 0
10428.5 0
10429.5 0
10430.5 0
10431.5 0
10432.5 0
10433.5 0
10434.5 0
10435.5 0
10436.5 -1.46154
10437.5 0
10438.5 0
10439.5 0
10440.5 0
10441.5 0
10442.5 0
10443.5 0
10444.5 0
10445.5 0
10446.5 0
10447.5 0
10448.5 0
10449.5 0
10450.5 0
10451.5 0
10452.5 0
10453.5 0
10454.5 0
10455.5 0
10456.5 0
10457.5 0
10458.5 0
10459.5 0
10460.5 0
10461.5 0
10462.5 0
10463.5 0
10464.5 0
10465.5 0
10466.5 0
10467.5 0
10468.5 0
10469.5 0
10470.5 0
10471.5 0
10472.5 0
10473.5 0
10474.5 0
10475.5 0
10476.5 0
10477.5 0
10478.5 0
10479.5 0
10480.5 0
10481.5 0
10482.5 0
10483.5 0
10484.5 0
10485.5 0
10486.5 0
10487.5 0
10488.5 0
10489.5 0
10490.5 0
10491.5 0
10492.5 0
10493.5 0
10494.5 0
10495.5 0
10496.5 0
10497.5 0
10498.5 0
10499.5 0
10500.5 0
10501.5 0
10502.5 0
10503.5 0
10504.5 0
10505.5 0
10506.5 0
10507.5 0
10508.5 0
10509.5 0
10510.5 0
10511.5 0
10512.5 0
10513.5 0
10514.5 0
10515.5 0
10516.5 0
10517.5 0
10518.5 0
10519.5 0
10520.5 0
10521.5 0
10522.5 0
10523.5 0
10524.5 0
10525.5 0
10526.5 0
10527.5 0
10528.5 0
10529.5 0
10530.5 1
10531.5 0
10532.5 0
10533.5 0
10534.5 0
10535.5 0
10536.5 0
10537.5 0
10538.5 0
10539.5 0
10540.5 0
10541.5 0
10542.5 0
10543.5 0
10544.5 0
10545.5 0
10546.5 0
10547.5 0
10548.5 0
10549.5 0
10550.5 0
10551.5 0
10552.5 0
10553.5 0
10554.5 0
10555.5 0
10556.5 0
10557.5 0
10558.5 0
10559.5 0
10560.5 0
10561.5 0
10562.5 0
10563.5 0
10564.5 0
10565.5 0
10566.5 0
10567.5 0
10568.5 0
10569.5 0
10570.5 0
10571.5 0
10572.5 0
10573.5 0
10574.5 0
10575.5 0
10576.5 0
10577.5 0
10578.5 0
10579.5 0
10580.5 0
10581.5 0
10582.5 0
10583.5 0
10584.5 0
10585.5 0
10586.5 0
10587.5 0
10588.5 0
10589.5 0
10590.5 0
10591.5 0
10592.5 0
10593.5 0
10594.5 0
10595.5 0
10596.5 0
10597.5 0
10598.5 0
10599.5 0
10600.5 0
10601.5 0
10602.5 0
10603.5 0
10604.5 0
10605.5 0
10606.5 0
10607.5 0
10608.5 0
10609.5 0
10610.5 0
10611.5 0
10612.5 0
10613.5 0
10614.5 0
10615.5 0
10616.5 0
10617.5 0
10618.5 0
10619.5 0
10620.5 0
10621.5 0
10622.5 0
10623.5 0
10624.5 0
10625.5 0
10626.5 0
10627.5 0
10628.5 0
10629.5 0
10630.5 0
10631.5 0
10632.5 0
10633.5 0
10634.5 0
10635.5 0
10636.5 0
10637.5 0
10638.5 0
10639.5 0
10640.5 0
10641.5 0
10642.5 0
10643.5 0
10644.5 0
10645.5 0
10646.5 0
10647.5 0
10648.5 0
10649.5 0
10650.5 0
10651.5 0
10652.5 0
10653.5 0
10654.5 0
10655.5 0
10656.5 0
10657.5 0
10658.5 0
10659.5 0
10660.5 0
10661.5 -1.46154
10662.5 0
10663.5 0
10664.5 0
10665.5 0
10666.5 0
10667.5 0
10668.5 0
10669.5 0
10670.5 0
10671.5 0
10672.5 0
10673.5 0
10674.5 0
10675.5 0
10676.5 0
10677.5 0
10678.5 0
10679.5 0
10680.5 0
10681.5 0
10682.5 0
10683.5 0
10684.5 0
10685.5 0
10686.5 0
10687.5 0
10688.5 0
10689.5 0
10690.5 0
10691.5 0
10692.5 0
10693.5 0
10694.5 0
10695.5 0
10696.5 0
10697.5 0
10698.5 0
10699.5 0
10700.5 0
10701.5 0
10702.5 0
10703.5 0
10704.5 0
10705.5 0
10706.5 0
10707.5 0
10708.5 0
10709.5 0
10710.5 0
10711.5 0
10712.5 0
10713.5 0
10714.5 0
10715.5 0
10716.5 0
10717.5 0
10718.5 0
10719.5 0
10720.5 0
10721.5 0
10722.5 0
10723.5 0
10724.5 0
10725.5 0
10726.5 0
10727.5 0
10728.5 0
10729.5 0
10730.5 0
10731.5 0
10732.5 0
10733.5 0
10734.5 0
10735.5 0
10736.5 0
10737.5 0
10738.5 0
10739.5 0
10740.5 0
10741.5 0
10742.5 0
10743.5 0
10744.5 0
10745.5 0
10746.5 0
10747.5 0
10748.5 0
10749.5 0
10750.5 0
10751.5 0
10752.5 0
10753.5 0
10754.5 0
10755.5 0
10756.5 0
10757.5 0
10758.5 0
10759.5 0
10760.5 0
10761.5 0
10762.5 0
10763.5 0
10764.5 0
10765.5 0
10766.5 0
10767.5 0
10768.5 0
10769.5 0
10770.5 0
10771.5 0
10772.5 0
10773.5 0
10774.5 -1.46154
10775.5 0
10776.5 0
10777.5 0
10778.5 0
10779.5 0
10780.5 0
10781.5 0
10782.5 0
10783.5 0
10784.5 0
10785.5 0
10786.5 0
10787.5 0
10788.5 0
10789.5 0
10790.5 0
10791.5 0
10792.5 0
10793.5 0
10794.5 0
10795.5 0
10796.5 0
10797.5 0
10798.5 0
10799.5 0
10800.5 0
10801.5 0
10802.5 0
10803.5 0
10804.5 0
10805.5 0
10806.5 0
10807.5 0
10808.5 0
10809.5 0
10810.5 0
10811.5 0
10812.5 0
10813.5 0
10814.5 0
10815.5 0
10816.5 0
10817.5 0
10818.5 0
10819.5 0
10820.5 0
10821.5 0
10822.5 0
10823.5 0
10824.5 0
10825.5 0
10826.5 0
10827.5 0
10828.5 0
10829.5 0
10830.5 0
10831.5 0
10832.5 0
10833.5 0
10834.5 1
10835.5 0
10836.5 0
10837.5 0
10838.5 0
10839.5 0
10840.5 0
10841.5 0
10842.5 0
10843.5 0
10844.5 0
10845.5 0
10846.5 0
10847.5 0
10848.5 0
10849.5 0
10850.5 0
10851.5 0
10852.5 0
10853.5 0
10854.5 0
10855.5 0
10856.5 0
10857.5 0
10858.5 0
10859.5 0
10860.5 0
10861.5 0
10862.5 0
10863.5 0
10864.5 0
10865.5 0
10866.5 -1.46154
10867.5 0
10868.5 0
10869.5 0
10870.5 0
10871.5 0
10872.5 0
10873.5 0
10874.5 0
10875.5 0
10876.5 0
10877.5 0
10878.5 0
10879.5 0
10880.5 0
10881.5 0
10882.5 0
10883.5 0
10884.5 0
10885.5 0
10886.5 0
10887.5 0
10888.5 0
10889.5 0
10890.5 0
10891.5 0
10892.5 0
10893.5 0
10894.5 0
10895.5 0
10896.5 0
10897.5 0
10898.5 0
10899.5 0
10900.5 0
10901.5 0
10902.5 0
10903.5 0
10904.5 0
10905.5 0
10906.5 0
10907.5 0
10908.5 0
10909.5 0
10910.5 0
10911.5 0
10912.5 0
10913.5 0
10914.5 0
10915.5 0
10916.5 0
10917.5 0
10918.5 0
10919.5 0
10920.5 0
10921.5 0
10922.5 0
10923.5 0
10924.5 0
10925.5 0
10926.5 0
10927.5 0
10928.5 0
10929.5 0
10930.5 0
10931.5 0
10932.5 0
10933.5 0
10934.5 0
10935.5 0
10936.5 0
10937.5 0
10938.5 0
10939.5 0
10940.5 0
10941.5 0
10942.5 0
10943.5 0
10944.5 0
10945.5 0
10946.5 0
10947.5 0
10948.5 0
10949.5 0
10950.5 0
10951.5 0
10952.5 0
10953.5 0
10954.5 0
10955.5 0
10956.5 0
10957.5 0
10958.5 0
10959.5 0
10960.5 0
10961.5 0
10962.5 0
10963.5 0
10964.5 0
10965.5 0
10966.5 0
10967.5 0
10968.5 0
10969.5 0
10970.5 0
10971.5 0
10972.5 0
10973.5 0
10974.5 0
10975.5 0
10976.5 0
10977.5 0
10978.5 0
10979.5 0
10980.5 0
10981.5 0
10982.5 0
10983.5 0
10984.5 0
10985.5 0
10986.5 0
10987.5 0
10988.5 0
10989.5 0
10990.5 0
10991.5 0
10992.5 0
10993.5 0
10994.5 0
10995.5 0
10996.5 0
10997.5 0
10998.5 0
10999.5 0
11000.5 0
11001.5 0
11002.5 0
11003.5 0
11004.5 0
11005.5 0
11006.5 0
11007.5 0
11008.5 0
11009.5 0
11010.5 0
11011.5 0
11012.5 0
11013.5 0
11014.5 0
11015.5 0
11016.5 0
11017.5 0
11018.5 0
11019.5 0
11020.5 0
11021.5 0
11022.5 0
11023.5 0
11024.5 0
11025.5 0
11026.5 0
11027.5 0
11028.5 0
11029.5 0
11030.5 0
11031.5 0
11032.5 0
11033.5 0
11034.5 0
11035.5 0
11036.5 0
11037.5 0
11038.5 0
11039.5 0
11040.5 0
11041.5 0
11042.5 0
11043.5 0
11044.5 0
11045.5 0
11046.5 0
11047.5 0
11048.5 0
11049.5 0
11050.5 0
11051.5 -1.46154
11052.5 0
11053.5 0
11054.5 0
11055.5 0
11056.5 0
11057.5 0
11058.5 0
11059.5 0
11060.5 0
11061.5 0
11062.5 0
11063.5 0
11064.5 0
11065.5 0
11066.5 0
11067.5 0
11068.5 0
11069.5 0
11070.5 0
11071.5 0
11072.5 0
11073.5 0
11074.5 0
11075.5 0
11076.5 0
11077.5 0
11078.5 0
11079.5 0
11080.5 0
11081.5 0
11082.5 0
11083.5 0
11084.5 0
11085.5 0
11086.5 0
11087.5 0
11088.5 0
11089.5 0
11090.5 0
11091.5 0
11092.5 0
11093.5 0
11094.5 0
11095.5 0
11096.5 0
11097.5 0
11098.5 1
11099.5 0
11100.5 0
11101.5 0
11102.5 0
11103.5 0
11104.5 0
11105.5 0
11106.5 0
11107.5 0
11108.5 0
11109.5 0
11110.5 0
11111.5 0
11112.5 0
11113.5 0
11114.5 0
11115.5 0
11116.5 0
11117.5 0
11118.5 0
11119.5 0
11120.5 0
11121.5 0
11122.5 0
11123.5 0
11124.5 0
11125.5 0
11126.5 0
11127.5 0
11128.5 0
11129.5 0
11130.5 0
11131.5 0
11132.5 0
11133.5 0
11134.5 0
11135.5 0
11136.5 0
11137.5 0
11138.5 0
11139.5 0
11140.5 0
11141.5 0
11142.5 0
11143.5 0
11144.5 0
11145.5 0
11146.5 0
11147.5 0
11148.5 0
11149.5 0
11150.5 0
11151.5 0
11152.5 0
11153.5 0
11154.5 0
11155.5 0
11156.5 0
11157.5 0
11158.5 0
11159.5 0
11160.5 0
11161.5 0
11162.5 0
11163.5 0
11164.5 0
11165.5 0
11166.5 0
11167.5 0
11168.5 0
11169.5 0
11170.5 0
11171.5 0
11172.5 0
11173.5 0
11174.5 0
11175.5 0
11176.5 0
11177.5 0
11178.5 0
11179.5 0
11180.5 0
11181.5 0
11182.5 0
11183.5 0
11184.5 0
11185.5 0
11186.5 0
11187.5 0
11188.5 0
11189.5 0
11190.5 0
11191.5 0
11192.5 0
11193.5 0
11194.5 0
11195.5 0
11196.5 0
11197.5 0
11198.5 0
11199.5 0
11200.5 0
11201.5 0
11202.5 0
11203.5 0
11204.5 0
11205.5 0
11206.5 0
11207.5 0
11208.5 0
11209.5 0
11210.5 0
11211.5 0
11212.5 0
11213.5 0
11214.5 0
11215.5 0
11216.5 0
11217.5 0
11218.5 0
11219.5 0
11220.5 0
11221.5 0
11222.5 0
11223.5 0
11224.5 0
11225.5 0
11226.5 0
11227.5 0
11228.5 0
11229.5 0
11230.5 0
11231.5 0
11232.5 0
11233.5 0
11234.5 0
11235.5 0
11236.5 0
11237.5 0
11238.5 0
11239.5 0
11240.5 0
11241.5 0
11242.5 0
11243.5 0
11244.5 0
11245.5 0
11246.5 0
11247.5 0
11248.5 0
11249.5 0
11250.5 0
11251.5 0
11252.5 0
11253.5 0
11254.5 0
11255.5 0
11256.5 0
11257.5 0
11258.5 0
11259.5 0
11260.5 0
11261.5 0
11262.5 0
11263.5 0
11264.5 0
11265.5 0
11266.5 0
11267.5 0
11268.5 0
11269.5 0
11270.5 0
11271.5 0
11272.5 0
11273.5 0
11274.5 0
11275.5 0
11276.5 -1.46154
11277.5 0
11278.5 0
11279.5 0
11280.5 0
11281.5 0
11282.5 0
11283.5 0
11284.5 0
11285.5 0
11286.5 0
11287.5 0
11288.5 0
11289.5 0
11290.5 0
11291.5 0
11292.5 0
11293.5 0
11294.5 0
11295.5 0
11296.5 0
11297.5 0
11298.5 0
11299.5 0
11300.5 0
11301.5 0
11302.5 0
11303.5 0
11304.5 0
11305.5 0
11306.5 0
11307.5 0
11308.5 0
11309.5 0
11310.5 0
11311.5 0
11312.5 0
11313.5 0
11314.5 0
11315.5 0
11316.5 0
11317.5 0
11318.5 0
11319.5 0
11320.5 0
11321.5 0
11322.5 0
11323.5 0
11324.5 0
11325.5 0
11326.5 0
11327.5 0
11328.5 0
11329.5 0
11330.5 0
11331.5 0
11332.5 0
11333.5 0
11334.5 0
11335.5 0
11336.5 0
11337.5 0
11338.5 0
11339.5 0
11340.5 0
11341.5 0
11342.5 0
11343.5 0
11344.5 0
11345.5 0
11346.5 0
11347.5 0
11348.5 0
11349.5 0
11350.5 0
11351.5 0
11352.5 0
11353.5 0
11354.5 0
11355.5 0
11356.5 0
11357.5 0
11358.5 0
11359.5 0
11360.5 0
11361.5 0
11362.5 0
11363.5 0
11364.5 0
11365.5 0
11366.5 0
11367.5 0
11368.5 0
11369.5 0
11370.5 0
11371.5 0
11372.5 0
11373.5 0
11374.5 0
11375.5 0
11376.5 0
11377.5 0
11378.5 0
11379.5 0
11380.5 0
11381.5 0
11382.5 0
11383.5 0
11384.5 0
11385.5 0
11386.5 0
11387.5 0
11388.5 0
11389.5 0
11390.5 0
11391.5 0
11392.5 0
11393.5 0
11394.5 0
11395.5 0
11396.5 0
11397.5 0
11398.5 0
11399.5 0
11400.5 0
11401.5 0
11402.5 0
11403.5 0
11404.5 0
11405.5 0
11406.5 0
11407.5 0
11408.5 0
11409.5 0
11410.5 -1.46154
11411.5 0
11412.5 0
11413.5 0
11414.5 0
11415.5 0
11416.5 0
11417.5 0
11418.5 0
11419.5 0
11420.5 0
11421.5 0
11422.5 0
11423.5 0
11424.5 0
11425.5 0
11426.5 0
11427.5 0
11428.5 0
11429.5 0
11430.5 0
11431.5 0
11432.5 0
11433.5 0
11434.5 0
11435.5 0
11436.5 0
11437.5 0
11438.5 0
11439.5 0
11440.5 0
11441.5 0
11442.5 0
11443.5 0
11444.5 0
11445.5 0
11446.5 0
11447.5 0
11448.5 0
11449.5 0
11450.5 0
11451.5 0
11452.5 0
11453.5 0
11454.5 0
11455.5 0
11456.5 0
11457.5 0
11458.5 0
11459.5 0
11460.5 0
11461.5 0
11462.5 0
11463.5 0
11464.5 0
11465.5 0
11466.5 0
11467.5 0
11468.5 0
11469.5 0
11470.5 0
11471.5 0
11472.5 0
11473.5 0
11474.5 0
11475.5 0
11476.5 0
11477.5 0
11478.5 0
11479.5 0
11480.5 0
11481.5 0
11482.5 0
11483.5 0
11484.5 0
11485.5 0
11486.5 0
11487.5 0
11488.5 0
11489.5 0
11490.5 0
11491.5 0
11492.5 0
11493.5 0
11494.5 0
11495.5 0
11496.5 0
11497.5 0
11498.5 0
11499.5 0
11500.5 0
11501.5 0
11502.5 0
11503.5 0
11504.5 0
11505.5 0
11506.5 0
11507.5 0
11508.5 0
11509.5 0
11510.5 0
11511.5 0
11512.5 0
11513.5 0
11514.5 0
11515.5 0
11516.5 0
11517.5 0
11518.5 0
11519.5 0
11520.5 0
11521.5 0
11522.5 0
11523.5 0
11524.5 0
11525.5 0
11526.5 0
11527.5 0
11528.5 0
11529.5 0
11530.5 0
11531.5 0
11532.5 -1.46154
11533.5 0
11534.5 0
11535.5 0
11536.5 0
11537.5 0
11538.5 0
11539.5 0
11540.5 0
11541.5 0
11542.5 0
11543.5 0
11544.5 0
11545.5 0
11546.5 0
11547.5 0
11548.5 0
11549.5 0
11550.5 0
11551.5 0
11552.5 0
11553.5 0
11554.5 0
11555.5 0
11556.5 0
11557.5 0
11558.5 0
11559.5 0
11560.5 0
11561.5 0
11562.5 0
11563.5 0
11564.5 0
11565.5 0
11566.5 0
11567.5 0
11568.5 0
11569.5 0
11570.5 0
11571.5 0
11572.5 0
11573.5 0
11574.5 0
11575.5 0
11576.5 0
11577.5 0
11578.5 0
11579.5 0
11580.5 0
11581.5 0
11582.5 0
11583.5 0
11584.5 0
11585.5 0
11586.5 0
11587.5 0
11588.5 0
11589.5 0
11590.5 0
11591.5 0
11592.5 0
11593.5 0
11594.5 0
11595.5 0
11596.5 0
11597.5 0
11598.5 0
11599.5 0
11600.5 0
11601.5 0
11602.5 0
11603.5 0
11604.5 0
11605.5 0
11606.5 0
11607.5 0
11608.5 0
11609.5 0
11610.5 0
11611.5 0
11612.5 0
11613.5 0
11614.5 0
11615.5 0
11616.5 0
11617.5 0
11618.5 0
11619.5 0
11620.5 0
11621.5 0
11622.5 0
11623.5 0
11624.5 0
11625.5 0
11626.5 0
11627.5 0
11628.5 0
11629.5 0
11630.5 0
11631.5 0
11632.5 0
11633.5 0
11634.5 0
11635.5 0
11636.5 0
11637.5 0
11638.5 0
11639.5 0
11640.5 0
11641.5 0
11642.5 0
11643.5 0
11644.5 0
11645.5 0
11646.5 0
11647.5 0
11648.5 0
11649.5 0
11650.5 0
11651.5 0
11652.5 0
11653.5 0
11654.5 0
11655.5 0
11656.5 0
11657.5 0
11658.5 0
11659.5 0
11660.5 0
11661.5 0
11662.5 0
11663.5 0
11664.5 0
11665.5 0
11666.5 0
11667.5 0
11668.5 0
11669.5 0
11670.5 0
11671.5 0
11672.5 0
11673.5 0
11674.5 0
11675.5 0
11676.5 0
11677.5 0
11678.5 0
11679.5 0
11680.5 0
11681.5 0
11682.5 -1.46154
11683.5 0
11684.5 0
11685.5 0
11686.5 0
11687.5 0
11688.5 0
11689.5 0
11690.5 0
11691.5 0
11692.5 0
11693.5 0
11694.5 0
11695.5 0
11696.5 0
11697.5 0
11698.5 0
11699.5 0
11700.5 0
11701.5 0
11702.5 0
11703.5 0
11704.5 0
11705.5 0
11706.5 0
11707.5 0
11708.5 0
11709.5 0
11710.5 0
11711.5 0
11712.5 0
11713.5 0
11714.5 0
11715.5 0
11716.5 0
11717.5 0
11718.5 0
11719.5 0
11720.5 0
11721.5 0
11722.5 0
11723.5 0
11724.5 0
11725.5 0
11726.5 0
11727.5 0
11728.5 0
11729.5 0
11730.5 0
11731.5 0
11732.5 0
11733.5 0
11734.5 0
11735.5 0
11736.5 0
11737.5 0
11738.5 0
11739.5 0
11740.5 0
11741.5 0
11742.5 0
11743.5 0
11744.5 0
11745.5 0
11746.5 0
11747.5 0
11748.5 0
11749.5 0
11750.5 0
11751.5 0
11752.5 0
11753.5 0
11754.5 0
11755.5 0
11756.5 0
11757.5 0
11758.5 0
11759.5 0
11760.5 0
11761.5 0
11762.5 0
11763.5 0
11764.5 0
11765.5 0
11766.5 0
11767.5 0
11768.5 0
11769.5 0
11770.5 0
11771.5 0
11772.5 0
11773.5 0
11774.5 0
11775.5 0
11776.5 0
11777.5 0
11778.5 0
11779.5 0
11780.5 0
11781.5 0
11782.5 0
11783.5 0
11784.5 0
11785.5 0
11786.5 0
11787.5 0
11788.5 0
11789.5 0
11790.5 0
11791.5 0
11792.5 0
11793.5 0
11794.5 0
11795.5 0
11796.5 0
11797.5 0
11798.5 0
11799.5 0
11800.5 0
11801.5 -1.46154
11802.5 0
11803.5 0
11804.5 0
11805.5 0
11806.5 0
11807.5 0
11808.5 0
11809.5 0
11810.5 0
11811.5 0
11812.5 0
11813.5 0
11814.5 0
11815.5 1
11816.5 0
11817.5 0
11818.5 0
11819.5 0
11820.5 0
11821.5 0
11822.5 0
11823.5 0
11824.5 0
11825.5 0
11826.5 0
11827.5 0
11828.5 0
11829.5 0
11830.5 0
11831.5 0
11832.5 0
11833.5 0
11834.5 0
11835.5 0
11836.5 0
11837.5 0
11838.5 0
11839.5 0
11840.5 0
11841.5 0
11842.5 0
11843.5 0
11844.5 0
11845.5 0
11846.5 0
11847.5 0
11848.5 0
11849.5 0
11850.5 0
11851.5 0
11852.5 0
11853.5 0
11854.5 0
11855.5 0
11856.5 0
11857.5 0
11858.5 0
11859.5 0
11860.5 0
11861.5 0
11862.5 0
11863.5 0
11864.5 0
11865.5 0
11866.5 0
11867.5 0
11868.5 0
11869.5 0
11870.5 0
11871.5 0
11872.5 0
11873.5 0
11874.5 0
11875.5 0
11876.5 0
11877.5 0
11878.5 0
11879.5 0
11880.5 0
11881.5 0
11882.5 0
11883.5 0
11884.5 0
11885.5 0
11886.5 0
11887.5 0
11888.5 0
11889.5 0
11890.5 0
11891.5 0
11892.5 0
11893.5 0
11894.5 0
11895.5 0
11896.5 0
11897.5 0
11898.5 0
11899.5 0
11900.5 0
11901.5 0
11902.5 0
11903.5 0
11904.5 0
11905.5 0
11906.5 0
11907.5 0
11908.5 0
11909.5 0
11910.5 0
11911.5 0
11912.5 0
11913.5 0
11914.5 0
11915.5 0
11916.5 0
11917.5 0
11918.5 0
11919.5 0
11920.5 0
11921.5 0
11922.5 0
11923.5 0
11924.5 0
11925.5 0
11926.5 0
11927.5 0
11928.5 0
11929.5 0
11930.5 0
11931.5 0
11932.5 0
11933.5 0
11934.5 0
11935.5 0
11936.5 0
11937.5 0
11938.5 0
11939.5 0
11940.5 0
11941.5 0
11942.5 0
11943.5 0
11944.5 0
11945.5 0
11946.5 0
11947.5 0
11948.5 0
11949.5 0
11950.5 0
11951.5 0
11952.5 0
11953.5 0
11954.5 0
11955.5 -1.46154
11956.5 0
11957.5 0
11958.5 0
11959.5 0
11960.5 0
11961.5 0
11962.5 0
11963.5 0
11964.5 0
11965.5 0
11966.5 0
11967.5 0
11968.5 0
11969.5 0
11970.5 0
11971.5 0
11972.5 0
11973.5 0
11974.5 0
11975.5 0
11976.5 0
11977.5 0
11978.5 0
11979.5 0
11980.5 0
11981.5 0
11982.5 0
11983.5 0
11984.5 0
11985.5 0
11986.5 0
11987.5 0
11988.5 0
11989.5 0
11990.5 0
11991.5 0
11992.5 0
11993.5 0
11994.5 0
11995.5 0
11996.5 0
11997.5 0
11998.5 0
11999.5 0
