# EGG_ProjY_E2746.5(5.5)_B2739.0(2.0)_B2762.5(1.5)
# X axis : Energy (keV) [Y axis]
# Y axis : Counts/1 keV
# N Bins : 12000
# X Min : 0
# X Max : 12000
# X value at the center of the bins
0.5 0
1.5 0
2.5 0
3.5 0
4.5 0
5.5 2.85714
6.5 -7.57143
7.5 -3.85714
8.5 0.142858
9.5 -8.14286
10.5 1.57143
11.5 21.7143
12.5 5.85715
13.5 12
14.5 -45.8571
15.5 35.8571
16.5 88.2857
17.5 22.4286
18.5 75.1429
19.5 91.2857
20.5 24.8572
21.5 197.429
22.5 73.8572
23.5 142
24.5 95.7143
25.5 168
26.5 363.857
27.5 122.857
28.5 263.857
29.5 250.571
30.5 367.714
31.5 318.286
32.5 157.143
33.5 293
34.5 493.714
35.5 358.714
36.5 300.429
37.5 445.429
38.5 633.714
39.5 275
40.5 485.429
41.5 537.143
42.5 357.572
43.5 503.714
44.5 560.572
45.5 339
46.5 308
47.5 413.572
48.5 782.572
49.5 478.143
50.5 358.857
51.5 283.572
52.5 244.429
53.5 278.143
54.5 412.429
55.5 513.286
56.5 537.286
57.5 500.143
58.5 759.286
59.5 593.857
60.5 765.143
61.5 353
62.5 496.143
63.5 436.286
64.5 423.714
65.5 556.572
66.5 486.857
67.5 533
68.5 563.572
69.5 436.143
70.5 673.429
71.5 686.714
72.5 614.857
73.5 612
74.5 726.429
75.5 905.286
76.5 927.143
77.5 982.286
78.5 1012.57
79.5 856.857
80.5 539.429
81.5 463.572
82.5 490
83.5 471.286
84.5 581.143
85.5 386.572
86.5 637.857
87.5 516.286
88.5 665.429
89.5 478.857
90.5 558.143
91.5 346.857
92.5 602.572
93.5 529.714
94.5 424.572
95.5 513.286
96.5 522.857
97.5 308.429
98.5 778.286
99.5 502.572
100.5 607.143
101.5 428.857
102.5 513.572
103.5 389.572
104.5 384.857
105.5 441.572
106.5 368
107.5 350
108.5 457.429
109.5 618
110.5 366.286
111.5 553.714
112.5 517.286
113.5 578.572
114.5 629.143
115.5 610.714
116.5 690.714
117.5 532
118.5 669.286
119.5 668.429
120.5 752.286
121.5 487
122.5 793.572
123.5 428.572
124.5 666.429
125.5 492.857
126.5 524.286
127.5 630.714
128.5 550.286
129.5 677.143
130.5 470.286
131.5 575.429
132.5 554.429
133.5 767.572
134.5 628.572
135.5 404.714
136.5 507.572
137.5 841.572
138.5 702.857
139.5 717.143
140.5 516.572
141.5 729.572
142.5 689.143
143.5 840.572
144.5 679.572
145.5 812.857
146.5 529.143
147.5 740.143
148.5 627
149.5 682.857
150.5 453.572
151.5 695.286
152.5 440.143
153.5 491.857
154.5 536.429
155.5 657.143
156.5 886.143
157.5 696
158.5 509.714
159.5 649.714
160.5 674.857
161.5 881
162.5 731.143
163.5 799.429
164.5 715.286
165.5 1040.29
166.5 643
167.5 897.714
168.5 848.857
169.5 863.714
170.5 718.572
171.5 814.286
172.5 433.286
173.5 901
174.5 594.572
175.5 476.714
176.5 304.714
177.5 482
178.5 556.714
179.5 433.714
180.5 324.572
181.5 499.143
182.5 -21.857
183.5 -42.9998
184.5 -106.571
185.5 255.857
186.5 411.429
187.5 801.714
188.5 857.857
189.5 757.857
190.5 981.286
191.5 1138.71
192.5 1240.14
193.5 1247.86
194.5 1443.29
195.5 1593.29
196.5 1376.86
197.5 1382.86
198.5 1428.14
199.5 1669.86
200.5 1440
201.5 1857.71
202.5 1668.43
203.5 1405.14
204.5 1043.43
205.5 612.143
206.5 77.143
207.5 65.2859
208.5 -120.143
209.5 165.286
210.5 916.857
211.5 1066.57
212.5 921.143
213.5 642.857
214.5 682.572
215.5 826
216.5 394.857
217.5 777.429
218.5 702
219.5 854.286
220.5 709.572
221.5 622.429
222.5 974.143
223.5 840.857
224.5 904.286
225.5 746
226.5 587.572
227.5 623.572
228.5 761.143
229.5 820.572
230.5 646
231.5 801.143
232.5 760.572
233.5 728.429
234.5 784.857
235.5 963.857
236.5 724.714
237.5 877.572
238.5 715.714
239.5 278.143
240.5 321.714
241.5 275.714
242.5 352.286
243.5 508.857
244.5 308.429
245.5 564.143
246.5 632
247.5 754.286
248.5 449.714
249.5 629.429
250.5 891.429
251.5 792.857
252.5 746.286
253.5 1100.57
254.5 605.857
255.5 1014.43
256.5 663.572
257.5 854.429
258.5 860
259.5 1037.71
260.5 1007.71
261.5 922.143
262.5 690.429
263.5 648
264.5 508.286
265.5 586.429
266.5 247.572
267.5 530.143
268.5 404.143
269.5 538.714
270.5 700.143
271.5 675.857
272.5 372.286
273.5 227.857
274.5 168.143
275.5 181.857
276.5 73.4287
277.5 437.286
278.5 493.143
279.5 625.143
280.5 505.714
281.5 816.429
282.5 691.857
283.5 646.429
284.5 748.714
285.5 918
286.5 1007.57
287.5 767.429
288.5 1103.29
289.5 851.286
290.5 1143.14
291.5 1188.43
292.5 957.714
293.5 1022.43
294.5 812.572
295.5 632.286
296.5 370.572
297.5 189.857
298.5 -113.143
299.5 24.4287
300.5 280.286
301.5 422.286
302.5 564.714
303.5 635.714
304.5 689.286
305.5 670.286
306.5 790.714
307.5 756.429
308.5 889.286
309.5 643
310.5 432.429
311.5 439.143
312.5 280.143
313.5 335.714
314.5 504.143
315.5 572.429
316.5 467.286
317.5 681
318.5 402.714
319.5 460.572
320.5 593.857
321.5 522
322.5 551.857
323.5 672.429
324.5 693.572
325.5 649.572
326.5 576.429
327.5 624.143
328.5 535.857
329.5 678.286
330.5 643.429
331.5 653.857
332.5 365.143
333.5 402.143
334.5 403.286
335.5 560.857
336.5 450.714
337.5 423.857
338.5 360.143
339.5 505.572
340.5 638.286
341.5 496.429
342.5 259.429
343.5 526.714
344.5 469
345.5 375.857
346.5 506.429
347.5 453.714
348.5 355.286
349.5 253.714
350.5 399.714
351.5 375.572
352.5 478.429
353.5 593
354.5 587
355.5 622
356.5 470
357.5 426
358.5 714.429
359.5 494
360.5 594.286
361.5 831
362.5 777
363.5 669.143
364.5 734.429
365.5 632.857
366.5 722.143
367.5 864.714
368.5 586.143
369.5 748
370.5 532.286
371.5 524
372.5 448
373.5 352.286
374.5 470.571
375.5 337
376.5 283.857
377.5 429.143
378.5 441.571
379.5 359.857
380.5 384.714
381.5 347.714
382.5 292.286
383.5 412.286
384.5 417.714
385.5 582.143
386.5 509.143
387.5 531.571
388.5 422.429
389.5 336.571
390.5 529.714
391.5 549.714
392.5 424.429
393.5 483.571
394.5 588.714
395.5 386.429
396.5 527.857
397.5 341.143
398.5 506.143
399.5 530.857
400.5 417.857
401.5 663
402.5 807.857
403.5 1240.86
404.5 1124.57
405.5 604.714
406.5 653.286
407.5 377.429
408.5 549.286
409.5 504.143
410.5 432.429
411.5 359.714
412.5 354.857
413.5 452
414.5 311.286
415.5 512.143
416.5 434.286
417.5 434.571
418.5 509.857
419.5 373.286
420.5 350.286
421.5 365.714
422.5 429.571
423.5 641.286
424.5 643.286
425.5 479
426.5 703.857
427.5 478.429
428.5 501.714
429.5 467.857
430.5 528.286
431.5 475.857
432.5 433.429
433.5 445.714
434.5 254.143
435.5 321.429
436.5 370
437.5 317.143
438.5 355.857
439.5 464.571
440.5 410.429
441.5 404.286
442.5 478.286
443.5 368.714
444.5 429.143
445.5 284.429
446.5 503
447.5 566.429
448.5 441.714
449.5 664.143
450.5 569.429
451.5 589.143
452.5 706.286
453.5 548.857
454.5 660.429
455.5 561.429
456.5 724.286
457.5 441.571
458.5 605.286
459.5 460.857
460.5 484.429
461.5 343.571
462.5 259
463.5 296.571
464.5 306.286
465.5 404.857
466.5 302.143
467.5 529.714
468.5 433.571
469.5 356.143
470.5 315.429
471.5 391.714
472.5 327.714
473.5 575.429
474.5 373.286
475.5 373.571
476.5 456.571
477.5 454.857
478.5 347.286
479.5 402.571
480.5 521.143
481.5 400.571
482.5 354.143
483.5 472.429
484.5 530.857
485.5 404.143
486.5 471.286
487.5 621.429
488.5 498.429
489.5 480.571
490.5 721.857
491.5 769.429
492.5 513.714
493.5 598
494.5 511.857
495.5 392.286
496.5 350.571
497.5 557.714
498.5 370.714
499.5 338
500.5 397.714
501.5 292.714
502.5 318.429
503.5 351
504.5 227.286
505.5 237.286
506.5 584.714
507.5 492.714
508.5 787.143
509.5 1646.86
510.5 1755.43
511.5 2661.29
512.5 1869.71
513.5 957.714
514.5 527.571
515.5 408
516.5 386.571
517.5 351.571
518.5 373.714
519.5 444.286
520.5 361.143
521.5 366
522.5 308
523.5 306.571
524.5 350
525.5 265
526.5 196
527.5 418
528.5 249
529.5 343.714
530.5 427.143
531.5 422.286
532.5 215.143
533.5 359.429
534.5 363.429
535.5 365.714
536.5 194.714
537.5 283
538.5 307.857
539.5 258
540.5 248.714
541.5 414.714
542.5 315
543.5 415.286
544.5 362.143
545.5 390.571
546.5 377
547.5 302
548.5 405.429
549.5 347.429
550.5 497.143
551.5 380.143
552.5 452
553.5 422.429
554.5 347.714
555.5 438.714
556.5 295.571
557.5 484.143
558.5 329
559.5 96.5715
560.5 123.429
561.5 318.857
562.5 392.857
563.5 446.143
564.5 360.714
565.5 430.143
566.5 340
567.5 438.143
568.5 257.857
569.5 300.286
570.5 354.571
571.5 327.714
572.5 480.143
573.5 445
574.5 375.857
575.5 349.143
576.5 401.143
577.5 447.429
578.5 368.143
579.5 437
580.5 470.143
581.5 237.286
582.5 374.857
583.5 267.714
584.5 400.286
585.5 238
586.5 294.571
587.5 361.714
588.5 473.143
589.5 311.429
590.5 284.571
591.5 418.857
592.5 518.857
593.5 417
594.5 328.857
595.5 441.857
596.5 418.571
597.5 357
598.5 328.857
599.5 361
600.5 328.429
601.5 338.286
602.5 218.571
603.5 341.286
604.5 371.571
605.5 430.143
606.5 451.429
607.5 255.429
608.5 371.571
609.5 322.429
610.5 514
611.5 332.429
612.5 434.571
613.5 479.571
614.5 348.714
615.5 218.143
616.5 326.286
617.5 426.714
618.5 411.143
619.5 445.857
620.5 314.429
621.5 299.429
622.5 356.714
623.5 371.714
624.5 300
625.5 282.714
626.5 315.429
627.5 417.571
628.5 461.714
629.5 395.857
630.5 371.857
631.5 484.286
632.5 438.286
633.5 316.571
634.5 473
635.5 1258.43
636.5 4680
637.5 7896.29
638.5 4831.43
639.5 1493.86
640.5 545.286
641.5 441.429
642.5 480.571
643.5 248.571
644.5 303.857
645.5 469.429
646.5 285.857
647.5 523.857
648.5 353.714
649.5 219.143
650.5 404.857
651.5 436.857
652.5 403.857
653.5 243.571
654.5 178.143
655.5 293.286
656.5 306.571
657.5 179
658.5 271
659.5 282.857
660.5 187.857
661.5 275.857
662.5 143.143
663.5 259
664.5 210
665.5 172
666.5 370.857
667.5 286
668.5 286
669.5 334.857
670.5 369.429
671.5 327.714
672.5 431.286
673.5 336.571
674.5 452.857
675.5 305
676.5 554.286
677.5 353.429
678.5 489.286
679.5 445
680.5 457.429
681.5 474.286
682.5 364.286
683.5 371.571
684.5 294.143
685.5 150
686.5 98.1429
687.5 141.429
688.5 85.1429
689.5 347.143
690.5 258.429
691.5 330.429
692.5 325.143
693.5 366.571
694.5 270.286
695.5 367.286
696.5 374.286
697.5 414.714
698.5 416.857
699.5 443.571
700.5 544
701.5 373.286
702.5 478
703.5 449.429
704.5 407.286
705.5 435.286
706.5 284
707.5 221.571
708.5 213.143
709.5 169.714
710.5 266.857
711.5 166.571
712.5 316.714
713.5 293.286
714.5 340.857
715.5 268.429
716.5 307.571
717.5 377.286
718.5 436.143
719.5 272.857
720.5 384
721.5 326
722.5 246.143
723.5 282.286
724.5 307.143
725.5 -99
726.5 -62.7142
727.5 147.429
728.5 173.857
729.5 256.286
730.5 243.143
731.5 165.857
732.5 245.857
733.5 343.143
734.5 275.571
735.5 214.143
736.5 361.571
737.5 389.714
738.5 362.857
739.5 352.143
740.5 406.429
741.5 341.429
742.5 359
743.5 479.286
744.5 331.714
745.5 446.857
746.5 330
747.5 364.286
748.5 430.571
749.5 342
750.5 377.857
751.5 242.286
752.5 247.429
753.5 193.286
754.5 262.286
755.5 260.857
756.5 226.714
757.5 406.286
758.5 494.429
759.5 1305.29
760.5 3268.71
761.5 3531.29
762.5 1551.43
763.5 645.714
764.5 378.857
765.5 270.143
766.5 251.429
767.5 341.143
768.5 323.857
769.5 194.571
770.5 318.143
771.5 327.429
772.5 388.857
773.5 268.143
774.5 363
775.5 219
776.5 220.143
777.5 242
778.5 238
779.5 307.857
780.5 328.429
781.5 390
782.5 294.571
783.5 293.143
784.5 301
785.5 378.571
786.5 370.286
787.5 400.143
788.5 224.429
789.5 288.286
790.5 268.571
791.5 261.286
792.5 271.571
793.5 339.286
794.5 275
795.5 305.286
796.5 326
797.5 318
798.5 221
799.5 381.857
800.5 218
801.5 301.571
802.5 251.571
803.5 284.429
804.5 298.857
805.5 56.4286
806.5 -122
807.5 27.5715
808.5 112.286
809.5 301.286
810.5 213.714
811.5 293.286
812.5 281.143
813.5 315.857
814.5 339
815.5 325.429
816.5 424.571
817.5 400.857
818.5 358
819.5 337.857
820.5 359.143
821.5 315.429
822.5 189.714
823.5 314.143
824.5 290
825.5 313
826.5 245.429
827.5 223.714
828.5 306
829.5 349
830.5 312.571
831.5 356.286
832.5 287.857
833.5 374.286
834.5 276.429
835.5 365.429
836.5 280.714
837.5 261.857
838.5 164.714
839.5 470.714
840.5 411.714
841.5 384.857
842.5 412.429
843.5 271.714
844.5 367
845.5 277.714
846.5 338.857
847.5 247.571
848.5 281.571
849.5 305.857
850.5 266
851.5 365.857
852.5 199.571
853.5 240.857
854.5 278.571
855.5 490.857
856.5 396
857.5 263.429
858.5 411.714
859.5 328.857
860.5 273.143
861.5 303.857
862.5 454.571
863.5 360.571
864.5 350.857
865.5 334.286
866.5 425.286
867.5 540.286
868.5 386.571
869.5 462.286
870.5 346.429
871.5 408.571
872.5 390.286
873.5 446
874.5 505.571
875.5 631.286
876.5 2108.29
877.5 4996.57
878.5 5751.57
879.5 2956.14
880.5 897.429
881.5 459.857
882.5 243.286
883.5 348.571
884.5 293.143
885.5 290.571
886.5 351.571
887.5 371.857
888.5 270
889.5 344.143
890.5 412.571
891.5 244.714
892.5 317.714
893.5 297.143
894.5 224.714
895.5 348.286
896.5 407.286
897.5 348.429
898.5 293
899.5 433
900.5 368.143
901.5 491.857
902.5 384.143
903.5 356
904.5 297.143
905.5 366.429
906.5 433
907.5 453
908.5 315.429
909.5 365.286
910.5 358.714
911.5 407.429
912.5 480
913.5 466.143
914.5 579.143
915.5 375.143
916.5 340.857
917.5 430.286
918.5 387.286
919.5 407.429
920.5 398.286
921.5 461.143
922.5 315.429
923.5 403.429
924.5 446.429
925.5 434.714
926.5 310.143
927.5 284.857
928.5 269.571
929.5 285.286
930.5 298.429
931.5 325
932.5 335
933.5 419.571
934.5 284
935.5 336.429
936.5 453.429
937.5 374
938.5 342.857
939.5 334
940.5 366.857
941.5 297.143
942.5 376
943.5 328.571
944.5 363.571
945.5 330.714
946.5 289
947.5 198.571
948.5 224.857
949.5 253.429
950.5 308.571
951.5 271.571
952.5 315.857
953.5 318.429
954.5 323.857
955.5 233.143
956.5 221.571
957.5 266.857
958.5 206.143
959.5 349.714
960.5 244.429
961.5 287.857
962.5 238.857
963.5 228.571
964.5 146
965.5 200.571
966.5 105.571
967.5 137
968.5 253
969.5 209.429
970.5 259.286
971.5 288
972.5 246.143
973.5 269
974.5 264.286
975.5 209.714
976.5 166
977.5 282.857
978.5 225.143
979.5 355.857
980.5 202.857
981.5 150.857
982.5 111.286
983.5 315.714
984.5 115.286
985.5 267.571
986.5 300.571
987.5 264.429
988.5 181.143
989.5 182.571
990.5 196.571
991.5 180.714
992.5 310
993.5 212.286
994.5 294
995.5 140.571
996.5 210.714
997.5 238
998.5 312.286
999.5 908
1000.5 2480.71
1001.5 5023.71
1002.5 4472
1003.5 1723.71
1004.5 565.714
1005.5 161.429
1006.5 65.7143
1007.5 217.286
1008.5 265
1009.5 209.429
1010.5 168
1011.5 214
1012.5 148
1013.5 184.143
1014.5 216.429
1015.5 172.143
1016.5 105.429
1017.5 111.429
1018.5 199.286
1019.5 202.286
1020.5 204.286
1021.5 104.857
1022.5 99
1023.5 260.143
1024.5 242.286
1025.5 347.143
1026.5 215.143
1027.5 167.714
1028.5 161.429
1029.5 174.429
1030.5 126.857
1031.5 110
1032.5 192.429
1033.5 218.571
1034.5 131.286
1035.5 170.857
1036.5 183.286
1037.5 111.429
1038.5 144.857
1039.5 71.8572
1040.5 88.5714
1041.5 95.2857
1042.5 142.571
1043.5 159.714
1044.5 124.714
1045.5 102.571
1046.5 90.4286
1047.5 127.857
1048.5 100.286
1049.5 179.143
1050.5 245
1051.5 106.286
1052.5 116.571
1053.5 229.571
1054.5 121.143
1055.5 130.429
1056.5 226.429
1057.5 183.143
1058.5 86.7143
1059.5 126.714
1060.5 163.429
1061.5 175
1062.5 142.571
1063.5 155.857
1064.5 176.286
1065.5 205.857
1066.5 67.4286
1067.5 58.2857
1068.5 142
1069.5 128
1070.5 159.286
1071.5 139.714
1072.5 -16.7142
1073.5 196.143
1074.5 0.000111341
1075.5 86.8572
1076.5 176.143
1077.5 181
1078.5 88.2857
1079.5 109.857
1080.5 120.857
1081.5 121.286
1082.5 162.571
1083.5 226.429
1084.5 185.429
1085.5 142.143
1086.5 111.857
1087.5 75.4286
1088.5 100.429
1089.5 179.429
1090.5 104.714
1091.5 92.7143
1092.5 116.286
1093.5 101.714
1094.5 125
1095.5 176.857
1096.5 94.7143
1097.5 79.1429
1098.5 132.714
1099.5 103.429
1100.5 127
1101.5 181.286
1102.5 24.5714
1103.5 158.429
1104.5 56.5714
1105.5 136.143
1106.5 133.571
1107.5 205.857
1108.5 175.571
1109.5 140.286
1110.5 61
1111.5 33.5714
1112.5 202.714
1113.5 114.286
1114.5 135.571
1115.5 179.571
1116.5 145.714
1117.5 87.2857
1118.5 112.143
1119.5 106.429
1120.5 202.714
1121.5 115.857
1122.5 349.429
1123.5 1313.71
1124.5 4320.71
1125.5 10190
1126.5 12217.6
1127.5 5644.86
1128.5 1142.57
1129.5 219.286
1130.5 111.429
1131.5 96.4286
1132.5 80.8572
1133.5 69.5714
1134.5 130.714
1135.5 168.429
1136.5 -50.4286
1137.5 10.2857
1138.5 -33.2857
1139.5 89.5714
1140.5 78.8572
1141.5 144.571
1142.5 135.857
1143.5 77.2857
1144.5 106.429
1145.5 138
1146.5 104.429
1147.5 148.857
1148.5 63.7143
1149.5 119.286
1150.5 159.286
1151.5 163.714
1152.5 136.286
1153.5 530.286
1154.5 2342.29
1155.5 7366
1156.5 16336.6
1157.5 15870.3
1158.5 6575.86
1159.5 1316.29
1160.5 370.714
1161.5 150.714
1162.5 133.571
1163.5 150.286
1164.5 42.2857
1165.5 27.2857
1166.5 49.2857
1167.5 52.5714
1168.5 9.14287
1169.5 56.8572
1170.5 60.4286
1171.5 25.7143
1172.5 88.5714
1173.5 62
1174.5 62.7143
1175.5 79.7143
1176.5 93
1177.5 56.5714
1178.5 138.429
1179.5 87.7143
1180.5 47.1429
1181.5 87.7143
1182.5 95.7143
1183.5 26.7143
1184.5 16.7143
1185.5 19.8572
1186.5 3.00002
1187.5 74.4286
1188.5 43
1189.5 32.5714
1190.5 27.8572
1191.5 55
1192.5 82.1429
1193.5 44.7143
1194.5 51.2857
1195.5 46.1429
1196.5 -9.85713
1197.5 44.2857
1198.5 109.286
1199.5 14.4286
1200.5 46.8572
1201.5 32.7143
1202.5 37.7143
1203.5 23.8572
1204.5 79.4286
1205.5 83.4286
1206.5 23.8572
1207.5 95
1208.5 19.5714
1209.5 84.1429
1210.5 52.1429
1211.5 15.5714
1212.5 20.2857
1213.5 32.8572
1214.5 87.2857
1215.5 53.4286
1216.5 25.2857
1217.5 4.7143
1218.5 63.4286
1219.5 61.4286
1220.5 -42.8571
1221.5 -92.8571
1222.5 -216.571
1223.5 -55.5714
1224.5 29.8572
1225.5 119.143
1226.5 65.4286
1227.5 146.286
1228.5 96.2857
1229.5 10.2857
1230.5 44.4286
1231.5 50.1429
1232.5 55.2857
1233.5 83.5714
1234.5 60.1429
1235.5 35.8572
1236.5 34.5714
1237.5 49.1429
1238.5 144.429
1239.5 51.7143
1240.5 43.7143
1241.5 46
1242.5 60.1429
1243.5 100.857
1244.5 147.714
1245.5 56.2857
1246.5 106.143
1247.5 81.2857
1248.5 58.4286
1249.5 63.4286
1250.5 15.1429
1251.5 69.1429
1252.5 105.714
1253.5 45.4286
1254.5 76.7143
1255.5 36.7143
1256.5 4.7143
1257.5 40.1429
1258.5 58
1259.5 67.1429
1260.5 46.2857
1261.5 91.4286
1262.5 126
1263.5 120.857
1264.5 52.8572
1265.5 102.714
1266.5 41.4286
1267.5 71.7143
1268.5 15
1269.5 81
1270.5 93.7143
1271.5 83.1429
1272.5 87.7143
1273.5 61.8572
1274.5 30.4286
1275.5 57.4286
1276.5 91.8572
1277.5 116.571
1278.5 44.5714
1279.5 54.4286
1280.5 57.4286
1281.5 8.7143
1282.5 39.4286
1283.5 7.7143
1284.5 141.714
1285.5 65.4286
1286.5 25.2857
1287.5 46.8572
1288.5 59.2857
1289.5 35.4286
1290.5 72.2857
1291.5 -6.57142
1292.5 -50.2857
1293.5 -26.2857
1294.5 52.8572
1295.5 46.5714
1296.5 53.8572
1297.5 68.5714
1298.5 65.4286
1299.5 48.4286
1300.5 49.7143
1301.5 56.1429
1302.5 55.1429
1303.5 59.4286
1304.5 -13
1305.5 -18.4286
1306.5 36.8572
1307.5 25.8572
1308.5 108.571
1309.5 84.5714
1310.5 -6.99999
1311.5 80.8572
1312.5 45.5714
1313.5 62.4286
1314.5 54.8572
1315.5 49.8572
1316.5 56.2857
1317.5 64
1318.5 38.5714
1319.5 80.7143
1320.5 55
1321.5 95.2857
1322.5 3.00001
1323.5 70.5714
1324.5 63.8572
1325.5 45.8572
1326.5 77.7143
1327.5 79.7143
1328.5 74.2857
1329.5 95.2857
1330.5 83.5714
1331.5 61.1429
1332.5 31.1429
1333.5 99.4286
1334.5 52.2857
1335.5 -1.71428
1336.5 -6.85713
1337.5 26.8572
1338.5 43.1429
1339.5 7.85715
1340.5 61.8572
1341.5 11.4286
1342.5 75.4286
1343.5 20
1344.5 74.2857
1345.5 92.5714
1346.5 18.2857
1347.5 66
1348.5 92.5714
1349.5 -10.4286
1350.5 96.5714
1351.5 59.8572
1352.5 100.143
1353.5 37.2857
1354.5 34.4286
1355.5 -0.142848
1356.5 102.143
1357.5 36.8572
1358.5 66.8572
1359.5 39
1360.5 90.7143
1361.5 17.4286
1362.5 66.7143
1363.5 116
1364.5 20
1365.5 22.7143
1366.5 91.5714
1367.5 120.143
1368.5 142.571
1369.5 133.714
1370.5 44.2857
1371.5 15.5714
1372.5 5.42858
1373.5 -5.42856
1374.5 58.1429
1375.5 86.5714
1376.5 147
1377.5 40.7143
1378.5 30.7143
1379.5 40.1429
1380.5 37.8572
1381.5 104
1382.5 -27.1428
1383.5 41.7143
1384.5 100.714
1385.5 71.5714
1386.5 89.4286
1387.5 58.1429
1388.5 24.8572
1389.5 92.7143
1390.5 105.714
1391.5 70
1392.5 57.4286
1393.5 77.4286
1394.5 89.7143
1395.5 87.8572
1396.5 67.8572
1397.5 87.2857
1398.5 57.8572
1399.5 29.2857
1400.5 60.1429
1401.5 71.1429
1402.5 41.1429
1403.5 58.1429
1404.5 12.8572
1405.5 59.5714
1406.5 -6.71428
1407.5 55.5714
1408.5 9.14287
1409.5 56.8572
1410.5 93.2857
1411.5 2.57144
1412.5 76
1413.5 60.8572
1414.5 14.5714
1415.5 117.143
1416.5 110.286
1417.5 61.4286
1418.5 72.7143
1419.5 138.857
1420.5 180.286
1421.5 120.143
1422.5 78.1429
1423.5 47.8572
1424.5 62.4286
1425.5 47.1429
1426.5 74.2857
1427.5 209.286
1428.5 296.857
1429.5 190.429
1430.5 101.571
1431.5 48.2857
1432.5 28.8572
1433.5 70.4286
1434.5 56.4286
1435.5 58.7143
1436.5 81.5714
1437.5 28
1438.5 103
1439.5 66.7143
1440.5 71
1441.5 1.00136e-05
1442.5 21.1429
1443.5 42.7143
1444.5 48.7143
1445.5 16.7143
1446.5 52
1447.5 -1.42856
1448.5 28.2857
1449.5 37.2857
1450.5 60.4286
1451.5 48.1429
1452.5 89.2857
1453.5 27.4286
1454.5 84.2857
1455.5 -6.42856
1456.5 66.7143
1457.5 102.143
1458.5 8.42858
1459.5 76.7143
1460.5 62
1461.5 71.7143
1462.5 35.4286
1463.5 111.286
1464.5 53
1465.5 58.7143
1466.5 23.5714
1467.5 31.2857
1468.5 2.85715
1469.5 49.1429
1470.5 78
1471.5 25.2857
1472.5 39.2857
1473.5 69.8572
1474.5 50.1429
1475.5 10.7143
1476.5 88.2857
1477.5 1.71429
1478.5 32.1429
1479.5 65.2857
1480.5 -5.99999
1481.5 50.4286
1482.5 9.29832e-06
1483.5 95.5714
1484.5 75.2857
1485.5 72.4286
1486.5 54.5714
1487.5 22.1429
1488.5 50.1429
1489.5 72.7143
1490.5 75
1491.5 66.2857
1492.5 19.2857
1493.5 36.8572
1494.5 30.7143
1495.5 13.1429
1496.5 62
1497.5 261
1498.5 680.714
1499.5 853.857
1500.5 433.714
1501.5 287.429
1502.5 30.1429
1503.5 49.1429
1504.5 -6.57142
1505.5 102.857
1506.5 22.7143
1507.5 57
1508.5 54.4286
1509.5 29.2857
1510.5 55.7143
1511.5 112.571
1512.5 51.2857
1513.5 32.7143
1514.5 95.2857
1515.5 90
1516.5 110
1517.5 24.7143
1518.5 58.4286
1519.5 56.7143
1520.5 32
1521.5 26
1522.5 60.1429
1523.5 34.4286
1524.5 47.8572
1525.5 24.2857
1526.5 44.8572
1527.5 -14.2857
1528.5 32.4286
1529.5 47.5714
1530.5 56.7143
1531.5 102
1532.5 97.1429
1533.5 70.2857
1534.5 33.8572
1535.5 71.1429
1536.5 29.8572
1537.5 122.571
1538.5 102.571
1539.5 75.4286
1540.5 106.714
1541.5 53.4286
1542.5 19.8572
1543.5 12
1544.5 57.5714
1545.5 89.8572
1546.5 47
1547.5 89.1429
1548.5 50.4286
1549.5 43
1550.5 103
1551.5 112
1552.5 48.5714
1553.5 75.2857
1554.5 -12.8571
1555.5 61
1556.5 51.5714
1557.5 35
1558.5 35
1559.5 27.8572
1560.5 46
1561.5 51.8572
1562.5 64.2857
1563.5 61.8571
1564.5 87.7143
1565.5 59.7143
1566.5 -1.42856
1567.5 -11.5714
1568.5 50.2857
1569.5 50.2857
1570.5 45.5714
1571.5 63.1429
1572.5 42
1573.5 34
1574.5 31.7143
1575.5 37.7143
1576.5 42.2857
1577.5 17.7143
1578.5 46.2857
1579.5 25.7143
1580.5 32.8572
1581.5 4.28572
1582.5 -9.28571
1583.5 51.8572
1584.5 35
1585.5 91
1586.5 -2.99999
1587.5 27.4286
1588.5 77.1429
1589.5 98.5714
1590.5 74.7143
1591.5 55.1429
1592.5 56.1429
1593.5 88
1594.5 35
1595.5 38.1429
1596.5 -2.42856
1597.5 81.8572
1598.5 54.4286
1599.5 66
1600.5 32.5714
1601.5 78.1429
1602.5 92
1603.5 59.8572
1604.5 56.7143
1605.5 84.1429
1606.5 90.4286
1607.5 37.7143
1608.5 53.8572
1609.5 50.8571
1610.5 -4.71428
1611.5 47.1429
1612.5 96.1429
1613.5 44
1614.5 59.1429
1615.5 56.7143
1616.5 12.5714
1617.5 73.7143
1618.5 39.1429
1619.5 58.1429
1620.5 74.8572
1621.5 216.429
1622.5 186
1623.5 105.429
1624.5 115.714
1625.5 67.4286
1626.5 53.4286
1627.5 74
1628.5 70.1429
1629.5 74
1630.5 -0.571417
1631.5 68.8572
1632.5 58
1633.5 29.2857
1634.5 21
1635.5 84.1429
1636.5 100
1637.5 225.857
1638.5 478.143
1639.5 570.571
1640.5 364
1641.5 109.571
1642.5 56.8572
1643.5 37.5714
1644.5 116.143
1645.5 91.8572
1646.5 77.4286
1647.5 73.4286
1648.5 78.7143
1649.5 70.2857
1650.5 74.1429
1651.5 59.5714
1652.5 3.00001
1653.5 36.5714
1654.5 19.4286
1655.5 52.1429
1656.5 19.1429
1657.5 65.2857
1658.5 43.5714
1659.5 17.4286
1660.5 60.4286
1661.5 52.4286
1662.5 49.4286
1663.5 25
1664.5 21.2857
1665.5 38.4286
1666.5 29.8572
1667.5 88.5714
1668.5 41
1669.5 17.1429
1670.5 18.2857
1671.5 28.1429
1672.5 7.85715
1673.5 46.8572
1674.5 31.2857
1675.5 20.1429
1676.5 30.2857
1677.5 40.4286
1678.5 12.7143
1679.5 107.286
1680.5 46.1429
1681.5 23.4286
1682.5 91.5714
1683.5 36.5714
1684.5 28
1685.5 58
1686.5 31.5714
1687.5 -33.4286
1688.5 -2.71428
1689.5 34
1690.5 53.5714
1691.5 -1.28571
1692.5 86.1429
1693.5 34.1429
1694.5 38.8572
1695.5 33.8572
1696.5 39.5714
1697.5 15.2857
1698.5 34.1429
1699.5 51.2857
1700.5 62.1429
1701.5 16.2857
1702.5 89.7143
1703.5 94.7143
1704.5 51.4286
1705.5 21
1706.5 -30.1428
1707.5 -12.2857
1708.5 5.42858
1709.5 36.8572
1710.5 100.571
1711.5 67
1712.5 53.1429
1713.5 37
1714.5 50.7143
1715.5 34
1716.5 56.8572
1717.5 -0.999991
1718.5 9.57144
1719.5 38.5714
1720.5 46.7143
1721.5 21.4286
1722.5 104
1723.5 77.4286
1724.5 32.1429
1725.5 49.1429
1726.5 21.2857
1727.5 26.8572
1728.5 14.1429
1729.5 73
1730.5 -18
1731.5 17
1732.5 81.4286
1733.5 92.2857
1734.5 -9.14285
1735.5 4.42858
1736.5 4.00001
1737.5 -15.1428
1738.5 68.4286
1739.5 26
1740.5 12.4286
1741.5 38.8572
1742.5 -22
1743.5 -7.42856
1744.5 25.4286
1745.5 46.1429
1746.5 64.8571
1747.5 63.8571
1748.5 38.5714
1749.5 81
1750.5 42.5714
1751.5 -0.571421
1752.5 99.1429
1753.5 112
1754.5 80.2857
1755.5 70.4286
1756.5 75
1757.5 58.4286
1758.5 34
1759.5 -21
1760.5 48.5714
1761.5 -31.2857
1762.5 92.8571
1763.5 37.5714
1764.5 10
1765.5 52.5714
1766.5 71
1767.5 69.2857
1768.5 28.4286
1769.5 57.8571
1770.5 22.4286
1771.5 58.7143
1772.5 69.4286
1773.5 42.8572
1774.5 70.1429
1775.5 1.28572
1776.5 -6.85714
1777.5 12.4286
1778.5 6.14287
1779.5 61.5714
1780.5 26.1429
1781.5 68.8572
1782.5 44.2857
1783.5 19.2857
1784.5 31.1429
1785.5 31.5714
1786.5 81
1787.5 61.8572
1788.5 68.5714
1789.5 43.5714
1790.5 60.5714
1791.5 23.8571
1792.5 52.4286
1793.5 87
1794.5 -13.4286
1795.5 45.2857
1796.5 74.8571
1797.5 -15.2857
1798.5 -16.1429
1799.5 22.7143
1800.5 54.1429
1801.5 34.2857
1802.5 67.4286
1803.5 69
1804.5 39.8571
1805.5 -4.28571
1806.5 17.8572
1807.5 13
1808.5 -65.2857
1809.5 15.2857
1810.5 12.7143
1811.5 -30.2857
1812.5 1.00001
1813.5 37.8571
1814.5 58
1815.5 40.7143
1816.5 36.1429
1817.5 110.429
1818.5 27.8572
1819.5 65
1820.5 89.2857
1821.5 -1.42856
1822.5 40.7143
1823.5 5.00001
1824.5 51.1429
1825.5 15.1429
1826.5 31.1429
1827.5 65
1828.5 46.2857
1829.5 18.4286
1830.5 4.71429
1831.5 44.1429
1832.5 18.2857
1833.5 22.4286
1834.5 25.2857
1835.5 24
1836.5 56.8571
1837.5 14.7143
1838.5 -4.42856
1839.5 21.4286
1840.5 11.1429
1841.5 41.5714
1842.5 114.857
1843.5 141
1844.5 119.571
1845.5 44.7143
1846.5 33.2857
1847.5 29.5714
1848.5 21.7143
1849.5 25.5714
1850.5 33.1429
1851.5 2.42858
1852.5 87
1853.5 -4.14285
1854.5 30.7143
1855.5 90.7143
1856.5 57.1429
1857.5 30.8572
1858.5 7.14287
1859.5 -23.1428
1860.5 -24.5714
1861.5 97.7143
1862.5 6.00001
1863.5 33
1864.5 53.4286
1865.5 75.8571
1866.5 54.7143
1867.5 81
1868.5 11
1869.5 -14.8571
1870.5 56.8572
1871.5 81.1429
1872.5 56.7143
1873.5 69.7143
1874.5 98.2857
1875.5 41.5714
1876.5 71
1877.5 65.7143
1878.5 35.1429
1879.5 9.85715
1880.5 35.8571
1881.5 36.5714
1882.5 100.143
1883.5 170.143
1884.5 303.571
1885.5 682
1886.5 1385.29
1887.5 1539
1888.5 834.429
1889.5 251.286
1890.5 14.8572
1891.5 42.1429
1892.5 70.5714
1893.5 51.7143
1894.5 22.7143
1895.5 -9.99999
1896.5 59.5714
1897.5 6.71429
1898.5 78.8571
1899.5 -5.99999
1900.5 32
1901.5 50.8572
1902.5 40.7143
1903.5 44.1429
1904.5 56.7143
1905.5 6.57144
1906.5 -0.571421
1907.5 43.8571
1908.5 66.8571
1909.5 44.7143
1910.5 23.8572
1911.5 47.4286
1912.5 17.8572
1913.5 13.1429
1914.5 39
1915.5 62.8571
1916.5 -7.71428
1917.5 50.1429
1918.5 12.4286
1919.5 12.1429
1920.5 7.14286
1921.5 27.4286
1922.5 12.1429
1923.5 -12
1924.5 -8.57142
1925.5 28.2857
1926.5 28
1927.5 40.8571
1928.5 73.8571
1929.5 2.42858
1930.5 16
1931.5 -7.42856
1932.5 45.4286
1933.5 8.14286
1934.5 38.4286
1935.5 14.8571
1936.5 42.5714
1937.5 26.1429
1938.5 32.2857
1939.5 28.8572
1940.5 -4.71427
1941.5 14.7143
1942.5 11.7143
1943.5 -59.2857
1944.5 -18.2857
1945.5 -14.8571
1946.5 65.5714
1947.5 80
1948.5 11.4286
1949.5 -27.8571
1950.5 -16.4286
1951.5 46.5714
1952.5 76.2857
1953.5 22.8571
1954.5 -0.428565
1955.5 -10.5714
1956.5 69.5714
1957.5 39.2857
1958.5 20.5714
1959.5 16.1429
1960.5 -8.71428
1961.5 73.4286
1962.5 32.7143
1963.5 38.8571
1964.5 33.2857
1965.5 26.8571
1966.5 -3.57142
1967.5 -19.1429
1968.5 68.1429
1969.5 55.2857
1970.5 -37.5714
1971.5 -6.57142
1972.5 18.1429
1973.5 53.2857
1974.5 42.4286
1975.5 53.5714
1976.5 73.7143
1977.5 57.2857
1978.5 53
1979.5 -27.2857
1980.5 81.4286
1981.5 82.1429
1982.5 16.4286
1983.5 -4.57142
1984.5 29
1985.5 -3.99999
1986.5 46
1987.5 69.5714
1988.5 25.2857
1989.5 45.1429
1990.5 11.4286
1991.5 47.1429
1992.5 47.5714
1993.5 48.7143
1994.5 49.5714
1995.5 43.2857
1996.5 89.5714
1997.5 70.5714
1998.5 27.2857
1999.5 78.1429
2000.5 38.7143
2001.5 56.5714
2002.5 76.7143
2003.5 18.7143
2004.5 82.5714
2005.5 56.7143
2006.5 60.1429
2007.5 80.5714
2008.5 198.571
2009.5 204.143
2010.5 130.857
2011.5 85.7143
2012.5 -15.8571
2013.5 -3.57142
2014.5 71.4286
2015.5 28.5714
2016.5 14.4286
2017.5 30.1429
2018.5 20.7143
2019.5 22.4286
2020.5 47.8571
2021.5 29.7143
2022.5 -4.42856
2023.5 43.8571
2024.5 20.7143
2025.5 23.8571
2026.5 47.5714
2027.5 22.7143
2028.5 51.5714
2029.5 86.5714
2030.5 46.7143
2031.5 74.1429
2032.5 43.2857
2033.5 25
2034.5 48.8571
2035.5 43
2036.5 26.7143
2037.5 18.7143
2038.5 1.42858
2039.5 13.5714
2040.5 12.8571
2041.5 36.2857
2042.5 35.5714
2043.5 26.7143
2044.5 52.4286
2045.5 42.1429
2046.5 -14.8571
2047.5 27.8571
2048.5 49.8571
2049.5 13.2857
2050.5 68.5714
2051.5 31.1429
2052.5 14.1429
2053.5 49.1429
2054.5 62.4286
2055.5 -29.7143
2056.5 58.2857
2057.5 80.1429
2058.5 56.1429
2059.5 62.7143
2060.5 50
2061.5 35.8571
2062.5 43.4286
2063.5 3.42858
2064.5 10.5714
2065.5 16.2857
2066.5 28
2067.5 -3.57142
2068.5 22.1429
2069.5 52
2070.5 -2.71428
2071.5 27.4286
2072.5 47.5714
2073.5 11.7143
2074.5 82.4286
2075.5 14.4286
2076.5 8.00001
2077.5 24.4286
2078.5 28.7143
2079.5 32
2080.5 -16.1429
2081.5 43.8571
2082.5 19.4286
2083.5 13.4286
2084.5 11.2857
2085.5 66.5714
2086.5 29.2857
2087.5 67.4286
2088.5 52.4286
2089.5 56.7143
2090.5 6.85715
2091.5 55.7143
2092.5 53.2857
2093.5 64.5714
2094.5 14.8571
2095.5 43.2857
2096.5 59.2857
2097.5 43.5714
2098.5 -0.857135
2099.5 57.1429
2100.5 22.8571
2101.5 27
2102.5 22.8571
2103.5 33
2104.5 -17
2105.5 50.8571
2106.5 39.5714
2107.5 9.71429
2108.5 12.8571
2109.5 19.1429
2110.5 11.8571
2111.5 12
2112.5 22.2857
2113.5 56.4286
2114.5 -34.4286
2115.5 27.2857
2116.5 10.5714
2117.5 8.71429
2118.5 24
2119.5 57.1429
2120.5 -10.8571
2121.5 62.8571
2122.5 4.28572
2123.5 73.2857
2124.5 49.2857
2125.5 27.2857
2126.5 47.5714
2127.5 -18.7143
2128.5 60
2129.5 22.1429
2130.5 30.1429
2131.5 17.4286
2132.5 -14.2857
2133.5 58.4286
2134.5 18.4286
2135.5 41.1429
2136.5 21.2857
2137.5 32.1429
2138.5 71.5714
2139.5 48.1429
2140.5 39.4286
2141.5 31.5714
2142.5 -7.57141
2143.5 13
2144.5 7.42859
2145.5 43
2146.5 65
2147.5 93.7143
2148.5 160.429
2149.5 116.857
2150.5 187
2151.5 230.571
2152.5 113.143
2153.5 103
2154.5 -7.57142
2155.5 73.4286
2156.5 29.7143
2157.5 77.7143
2158.5 94.8571
2159.5 14.1429
2160.5 64.2857
2161.5 16.2857
2162.5 51.7143
2163.5 7.42858
2164.5 12.2857
2165.5 23.1429
2166.5 68.1429
2167.5 65.1429
2168.5 37.4286
2169.5 39.4286
2170.5 17.4286
2171.5 14.8571
2172.5 3.57143
2173.5 4.28572
2174.5 55.5714
2175.5 79.5714
2176.5 67
2177.5 53.8571
2178.5 28.4286
2179.5 12.5714
2180.5 50.2857
2181.5 32.5714
2182.5 6.14286
2183.5 14.1429
2184.5 41.5714
2185.5 52.2857
2186.5 7.42858
2187.5 66.8571
2188.5 55
2189.5 24.4286
2190.5 1.00001
2191.5 20
2192.5 24.8571
2193.5 4.57144
2194.5 9.00001
2195.5 -8.42856
2196.5 54.4286
2197.5 3.57144
2198.5 36.2857
2199.5 48.8572
2200.5 4.14287
2201.5 -34.2857
2202.5 37.5714
2203.5 6.71429
2204.5 -3.57142
2205.5 9.42858
2206.5 -16.8571
2207.5 24.5714
2208.5 18.2857
2209.5 32.1429
2210.5 37.7143
2211.5 58.1429
2212.5 76.4286
2213.5 26.5714
2214.5 40.8571
2215.5 69.5714
2216.5 40.5714
2217.5 47.8571
2218.5 50.8571
2219.5 -51.2857
2220.5 7.00001
2221.5 52.1429
2222.5 48.7143
2223.5 110
2224.5 60.5714
2225.5 40
2226.5 55.4286
2227.5 37.2857
2228.5 53.8571
2229.5 50
2230.5 -6.28571
2231.5 13
2232.5 36.2857
2233.5 49.5714
2234.5 6.85715
2235.5 -7.57142
2236.5 50
2237.5 41.8571
2238.5 18.5714
2239.5 33.1429
2240.5 44.7143
2241.5 -10.8571
2242.5 -22.1429
2243.5 45.2857
2244.5 28.4286
2245.5 42.5714
2246.5 0.285721
2247.5 69.4286
2248.5 0.428579
2249.5 56.7143
2250.5 54.5714
2251.5 17.2857
2252.5 22.2857
2253.5 13.5714
2254.5 33.8571
2255.5 40.4286
2256.5 80.2857
2257.5 50.8571
2258.5 -19.4286
2259.5 23
2260.5 9.14286
2261.5 60
2262.5 69.4286
2263.5 45
2264.5 72
2265.5 34.8571
2266.5 26.5714
2267.5 10.4286
2268.5 0.857148
2269.5 37.4286
2270.5 -23.7143
2271.5 32.5714
2272.5 9.14286
2273.5 24.1429
2274.5 5.42858
2275.5 63.5714
2276.5 11.2857
2277.5 63
2278.5 13.8571
2279.5 28.4286
2280.5 46.1429
2281.5 25.5714
2282.5 112.286
2283.5 61.4286
2284.5 41.7143
2285.5 41.8571
2286.5 14.1429
2287.5 73
2288.5 3.28572
2289.5 38.4286
2290.5 -20.1429
2291.5 45.2857
2292.5 62
2293.5 21.4286
2294.5 4.28572
2295.5 32.5714
2296.5 1.42858
2297.5 70.4286
2298.5 -9.99999
2299.5 8.00001
2300.5 32.2857
2301.5 61
2302.5 59
2303.5 2.14286
2304.5 20.5714
2305.5 85
2306.5 54.1429
2307.5 32
2308.5 30.2857
2309.5 9.71429
2310.5 60.8571
2311.5 46.2857
2312.5 -24.2857
2313.5 50.2857
2314.5 50.1429
2315.5 67.2857
2316.5 34.5714
2317.5 44.2857
2318.5 -31.7143
2319.5 59.5714
2320.5 38.4286
2321.5 -36.5714
2322.5 16
2323.5 30.7143
2324.5 2.14286
2325.5 38.8571
2326.5 -4.99999
2327.5 43.8571
2328.5 29.8571
2329.5 7.14286
2330.5 -18.5714
2331.5 -2.42857
2332.5 52
2333.5 -11
2334.5 60.1429
2335.5 -19
2336.5 21.2857
2337.5 39.4286
2338.5 -14.5714
2339.5 27.8571
2340.5 11.2857
2341.5 57
2342.5 -7.28571
2343.5 -15.1429
2344.5 46.7143
2345.5 8.57143
2346.5 51
2347.5 25.2857
2348.5 9.28572
2349.5 0.857148
2350.5 24.1429
2351.5 -17.2857
2352.5 -2.14285
2353.5 48.1429
2354.5 72.1429
2355.5 37.2857
2356.5 13.8571
2357.5 51.8571
2358.5 41
2359.5 1.28572
2360.5 17.5714
2361.5 -0.28571
2362.5 19.8571
2363.5 46.5714
2364.5 18.2857
2365.5 15.8571
2366.5 63.1429
2367.5 33.4286
2368.5 21.5714
2369.5 16.2857
2370.5 40.1429
2371.5 -11.5714
2372.5 -10.7143
2373.5 25
2374.5 -8.71428
2375.5 30.2857
2376.5 70.2857
2377.5 35.5714
2378.5 58.4286
2379.5 29
2380.5 54.2857
2381.5 26.8571
2382.5 -18.2857
2383.5 30.1429
2384.5 30.2857
2385.5 -25.2857
2386.5 62.5714
2387.5 49.1429
2388.5 15.1429
2389.5 13.4286
2390.5 51.1429
2391.5 48.4286
2392.5 30
2393.5 38.5714
2394.5 -4.28571
2395.5 -26.2857
2396.5 16.4286
2397.5 31.1429
2398.5 55
2399.5 36.4286
2400.5 48.1429
2401.5 65.2857
2402.5 43.4286
2403.5 4.00001
2404.5 34.5714
2405.5 58.7143
2406.5 38.8571
2407.5 45
2408.5 22.5714
2409.5 32
2410.5 38.1429
2411.5 9.71429
2412.5 42.5714
2413.5 81.5714
2414.5 62.1429
2415.5 69
2416.5 17.5714
2417.5 50.2857
2418.5 41.7143
2419.5 -13.5714
2420.5 39.2857
2421.5 -11
2422.5 25
2423.5 33.7143
2424.5 24.1429
2425.5 11.4286
2426.5 51.7143
2427.5 43.1429
2428.5 16
2429.5 7.42858
2430.5 56.1429
2431.5 -1.42856
2432.5 20.5714
2433.5 59
2434.5 18.7143
2435.5 30.4286
2436.5 55
2437.5 20.8571
2438.5 -16.1429
2439.5 38.4286
2440.5 39.1429
2441.5 -12.4286
2442.5 -8.28571
2443.5 8.42858
2444.5 23.5714
2445.5 32.5714
2446.5 92.7143
2447.5 -21.2857
2448.5 46.8571
2449.5 17.4286
2450.5 2.57143
2451.5 21.1429
2452.5 13.7143
2453.5 41.1429
2454.5 22.5714
2455.5 39
2456.5 14.1429
2457.5 -5.14285
2458.5 56.7143
2459.5 42.8571
2460.5 20.8571
2461.5 65.1429
2462.5 61.4286
2463.5 39.7143
2464.5 19.7143
2465.5 42
2466.5 36.1429
2467.5 16.1429
2468.5 21.4286
2469.5 8.28572
2470.5 6.00001
2471.5 25.2857
2472.5 32.1429
2473.5 13.5714
2474.5 57
2475.5 52.8571
2476.5 7.57143
2477.5 10.8571
2478.5 30.4286
2479.5 -4.57142
2480.5 31.2857
2481.5 1.57143
2482.5 4.57143
2483.5 72.8571
2484.5 21.5714
2485.5 25.8571
2486.5 17.4286
2487.5 54.2857
2488.5 40.8571
2489.5 80.7143
2490.5 47.2857
2491.5 23.7143
2492.5 31.5714
2493.5 34.4286
2494.5 3.14286
2495.5 17.2857
2496.5 43.2857
2497.5 -0.71428
2498.5 24.1429
2499.5 19
2500.5 36.8571
2501.5 36.5714
2502.5 65.2857
2503.5 3.57143
2504.5 13.7143
2505.5 23.1429
2506.5 49.2857
2507.5 2.57143
2508.5 65.5714
2509.5 -5
2510.5 42.8571
2511.5 19.5714
2512.5 -3.57142
2513.5 -34
2514.5 53.1429
2515.5 30.8571
2516.5 19.8571
2517.5 -26
2518.5 83.4286
2519.5 70.5714
2520.5 95.1429
2521.5 10
2522.5 41.8571
2523.5 -25.7143
2524.5 28.5714
2525.5 53.5714
2526.5 24.5714
2527.5 47.8571
2528.5 39.1429
2529.5 71.5714
2530.5 81
2531.5 31.1429
2532.5 -13.4286
2533.5 32.1429
2534.5 58.8571
2535.5 40.5714
2536.5 10.8571
2537.5 46.5714
2538.5 25.7143
2539.5 34.8571
2540.5 30.8571
2541.5 38.1429
2542.5 30.4286
2543.5 32.7143
2544.5 30.8571
2545.5 19.1429
2546.5 -9.57142
2547.5 -0.285709
2548.5 2.28572
2549.5 21.4286
2550.5 -2.28571
2551.5 27.1429
2552.5 0.428577
2553.5 10
2554.5 -7.42857
2555.5 23
2556.5 48.5714
2557.5 -8.57142
2558.5 17
2559.5 38.5714
2560.5 14.8571
2561.5 60.1429
2562.5 55.4286
2563.5 -22.5714
2564.5 15.4286
2565.5 19.7143
2566.5 26.1429
2567.5 28.2857
2568.5 -8.57142
2569.5 27.1429
2570.5 34.7143
2571.5 -20.5714
2572.5 17.4286
2573.5 32
2574.5 25.2857
2575.5 20.8571
2576.5 -11.2857
2577.5 25.8571
2578.5 6.00001
2579.5 48.7143
2580.5 7.71429
2581.5 78.2857
2582.5 53.7143
2583.5 8.00001
2584.5 45.4286
2585.5 11.4286
2586.5 30.7143
2587.5 -2.14285
2588.5 34.7143
2589.5 7.85715
2590.5 -81.2857
2591.5 -15.7143
2592.5 19.7143
2593.5 18.2857
2594.5 8.85715
2595.5 22
2596.5 48.8571
2597.5 22
2598.5 54.1429
2599.5 40.1429
2600.5 69.1429
2601.5 18.2857
2602.5 10
2603.5 102.571
2604.5 21.8571
2605.5 17.8571
2606.5 31.1429
2607.5 80.2857
2608.5 14
2609.5 29.5714
2610.5 5.24521e-06
2611.5 22.1429
2612.5 22.1429
2613.5 5.24521e-06
2614.5 -2.99999
2615.5 39.8571
2616.5 41.8571
2617.5 53.2857
2618.5 100.857
2619.5 127
2620.5 124
2621.5 75.8571
2622.5 25.5714
2623.5 22.7143
2624.5 -24.2857
2625.5 33.5714
2626.5 24.4286
2627.5 -10.4286
2628.5 15
2629.5 36.5714
2630.5 21.4286
2631.5 19.7143
2632.5 26.1429
2633.5 21.7143
2634.5 -8.71428
2635.5 -13
2636.5 64.4286
2637.5 23.2857
2638.5 36.7143
2639.5 -39.4286
2640.5 23.8571
2641.5 36
2642.5 9.42858
2643.5 22
2644.5 33.4286
2645.5 40.5714
2646.5 14.8571
2647.5 37
2648.5 -4.28571
2649.5 17.5714
2650.5 57.7143
2651.5 26.2857
2652.5 27.1429
2653.5 10
2654.5 -8.57142
2655.5 55.8572
2656.5 69.2857
2657.5 57.5714
2658.5 20.2857
2659.5 1.57143
2660.5 -32.1429
2661.5 5.00001
2662.5 5.85715
2663.5 -38.8571
2664.5 22.1429
2665.5 20.4286
2666.5 51.1429
2667.5 13.8571
2668.5 18.5714
2669.5 6.57143
2670.5 48.5714
2671.5 38.5714
2672.5 30.8571
2673.5 38.2857
2674.5 -4.57142
2675.5 73.8571
2676.5 4.57143
2677.5 35.5714
2678.5 41.2857
2679.5 59.2857
2680.5 36.4286
2681.5 49.7143
2682.5 15
2683.5 27.2857
2684.5 6.85715
2685.5 -27.7143
2686.5 44
2687.5 28.8571
2688.5 28.4286
2689.5 5.28572
2690.5 5.57143
2691.5 9.28572
2692.5 43.1429
2693.5 13.7143
2694.5 4.71429
2695.5 11.8571
2696.5 36.4286
2697.5 17.2857
2698.5 3.42858
2699.5 7
2700.5 39.1429
2701.5 -14.4286
2702.5 16.8571
2703.5 43.1429
2704.5 10.2857
2705.5 48
2706.5 3.57143
2707.5 -31.1429
2708.5 18.5714
2709.5 46.2857
2710.5 18.8571
2711.5 -5
2712.5 27.7143
2713.5 5.14286
2714.5 -5.85714
2715.5 17.5714
2716.5 26.7143
2717.5 11.5714
2718.5 19.7143
2719.5 63
2720.5 23
2721.5 17
2722.5 16.7143
2723.5 26.5714
2724.5 75.2857
2725.5 7.57143
2726.5 52.5714
2727.5 65
2728.5 33
2729.5 31.5714
2730.5 62.8571
2731.5 52.5714
2732.5 -16.7143
2733.5 15.5714
2734.5 27.2857
2735.5 34.8571
2736.5 49.4286
2737.5 29.2857
2738.5 44.4286
2739.5 29
2740.5 14.7143
2741.5 5.71429
2742.5 30.4286
2743.5 23.8571
2744.5 21
2745.5 29.4286
2746.5 -0.571424
2747.5 14.5714
2748.5 4
2749.5 15.4286
2750.5 36
2751.5 -38.1429
2752.5 -5.57142
2753.5 -0.857138
2754.5 36
2755.5 3
2756.5 25.5714
2757.5 -9
2758.5 9.28572
2759.5 44.5714
2760.5 -22.8571
2761.5 17.2857
2762.5 0.142861
2763.5 69.4286
2764.5 79.7143
2765.5 8.28572
2766.5 14
2767.5 5.14286
2768.5 5.14286
2769.5 3.71429
2770.5 1.14286
2771.5 14.4286
2772.5 24.5714
2773.5 32.7143
2774.5 76.1429
2775.5 54.8571
2776.5 33
2777.5 44.8571
2778.5 43.8571
2779.5 2.71429
2780.5 79.2857
2781.5 32.4286
2782.5 -21.2857
2783.5 34.4286
2784.5 12
2785.5 2.42858
2786.5 56.2857
2787.5 33
2788.5 9
2789.5 24.1429
2790.5 35.5714
2791.5 26.1429
2792.5 -12.5714
2793.5 5
2794.5 16.7143
2795.5 5.14286
2796.5 18.5714
2797.5 27
2798.5 47.8571
2799.5 43.4286
2800.5 8.71429
2801.5 50.8571
2802.5 25.4286
2803.5 35
2804.5 29.8571
2805.5 22.1429
2806.5 13.1429
2807.5 43.5714
2808.5 24.5714
2809.5 9.28572
2810.5 0.571433
2811.5 5.42858
2812.5 37.7143
2813.5 41.8571
2814.5 14
2815.5 59
2816.5 34
2817.5 -4.42857
2818.5 46.5714
2819.5 53.4286
2820.5 50.2857
2821.5 35.5714
2822.5 -10
2823.5 -4.42857
2824.5 16.4286
2825.5 26.5714
2826.5 4.28572
2827.5 32.7143
2828.5 42.4286
2829.5 12.2857
2830.5 25.8571
2831.5 27.7143
2832.5 -1.42857
2833.5 0.571433
2834.5 -4.28571
2835.5 51
2836.5 51.5714
2837.5 12.2857
2838.5 33.8571
2839.5 15.8571
2840.5 -4
2841.5 33.8571
2842.5 41
2843.5 37
2844.5 12.1429
2845.5 65.5714
2846.5 35
2847.5 86.4286
2848.5 -3.14285
2849.5 7.71429
2850.5 2.28572
2851.5 20.5714
2852.5 65
2853.5 36.7143
2854.5 39.7143
2855.5 -1.71428
2856.5 -0.142853
2857.5 48.5714
2858.5 23
2859.5 -21.8571
2860.5 22.2857
2861.5 10
2862.5 -16.5714
2863.5 -1.71428
2864.5 -9.71428
2865.5 -11.5714
2866.5 -8.14285
2867.5 -2.28571
2868.5 24.4286
2869.5 60
2870.5 -1.28571
2871.5 46.4286
2872.5 20.8571
2873.5 -10
2874.5 31.7143
2875.5 -3.14285
2876.5 -25.1429
2877.5 17.5714
2878.5 20.4286
2879.5 29.5714
2880.5 11.7143
2881.5 9
2882.5 14.7143
2883.5 60.1429
2884.5 5.85715
2885.5 38.5714
2886.5 21.4286
2887.5 29
2888.5 -0.428567
2889.5 50.5714
2890.5 57.2857
2891.5 33
2892.5 34
2893.5 76.2857
2894.5 31
2895.5 1
2896.5 26.2857
2897.5 16.7143
2898.5 -2.14285
2899.5 31.2857
2900.5 10.7143
2901.5 -2.57142
2902.5 22.5714
2903.5 1.85715
2904.5 10.4286
2905.5 -24.8571
2906.5 28
2907.5 5.85715
2908.5 26.4286
2909.5 12.2857
2910.5 10.4286
2911.5 18.1429
2912.5 39.2857
2913.5 41.5714
2914.5 31.5714
2915.5 -3.42857
2916.5 21.5714
2917.5 38.2857
2918.5 28.7143
2919.5 47.5714
2920.5 3.71429
2921.5 46.8571
2922.5 27.7143
2923.5 42.5714
2924.5 45
2925.5 54.8571
2926.5 8.42858
2927.5 43
2928.5 92.5714
2929.5 52
2930.5 47.8571
2931.5 -12.5714
2932.5 29.8571
2933.5 16
2934.5 0.857147
2935.5 9.28572
2936.5 51
2937.5 43.5714
2938.5 15.4286
2939.5 36.8571
2940.5 3
2941.5 37
2942.5 6.57143
2943.5 32.7143
2944.5 4.00001
2945.5 6.00001
2946.5 81.5714
2947.5 69.1429
2948.5 11.7143
2949.5 28.5714
2950.5 4.42858
2951.5 21.8571
2952.5 27
2953.5 23.2857
2954.5 21
2955.5 4.42858
2956.5 -23
2957.5 -25.2857
2958.5 23.7143
2959.5 29.1429
2960.5 9
2961.5 27.7143
2962.5 -1.42857
2963.5 40.4286
2964.5 43
2965.5 44.5714
2966.5 19.8571
2967.5 19.4286
2968.5 2.28572
2969.5 -20.4286
2970.5 20.5714
2971.5 15.1429
2972.5 -21.2857
2973.5 -31.4286
2974.5 0.571433
2975.5 -26.1429
2976.5 44.5714
2977.5 8.28572
2978.5 35.8571
2979.5 48.4286
2980.5 23
2981.5 51.2857
2982.5 41.5714
2983.5 45.2857
2984.5 23.2857
2985.5 38
2986.5 13.1429
2987.5 17.5714
2988.5 57.1429
2989.5 35.2857
2990.5 62
2991.5 38.1429
2992.5 -24.1429
2993.5 34.1429
2994.5 -6.42857
2995.5 -10.7143
2996.5 -33.1429
2997.5 41.7143
2998.5 38.8571
2999.5 26.8571
3000.5 59
3001.5 3.85715
3002.5 39.1429
3003.5 29
3004.5 -2.99999
3005.5 11.1429
3006.5 42.2857
3007.5 22.4286
3008.5 58.2857
3009.5 -16.4286
3010.5 -5
3011.5 12.2857
3012.5 11.5714
3013.5 24.2857
3014.5 22.5714
3015.5 23
3016.5 15
3017.5 -5.28571
3018.5 21.8571
3019.5 24.8571
3020.5 -13.5714
3021.5 7.71429
3022.5 29
3023.5 13
3024.5 7
3025.5 6.85715
3026.5 13.4286
3027.5 -7.42857
3028.5 -4
3029.5 4.57143
3030.5 -31.8571
3031.5 -19.7143
3032.5 0.571434
3033.5 20
3034.5 12.2857
3035.5 73.5714
3036.5 19.8572
3037.5 40.2857
3038.5 107.429
3039.5 64.4286
3040.5 58.7143
3041.5 34.2857
3042.5 43.1429
3043.5 1.85715
3044.5 1.85715
3045.5 11.7143
3046.5 25.4286
3047.5 11
3048.5 82.4286
3049.5 94.1429
3050.5 177.286
3051.5 281.143
3052.5 206.857
3053.5 157.857
3054.5 81.5714
3055.5 30.7143
3056.5 30.8571
3057.5 44.1429
3058.5 9.28572
3059.5 -10.2857
3060.5 38.2857
3061.5 18.4286
3062.5 21.1429
3063.5 -5
3064.5 35.8571
3065.5 30
3066.5 31
3067.5 11.4286
3068.5 48.7143
3069.5 9.14286
3070.5 32.5714
3071.5 43.2857
3072.5 25.2857
3073.5 18.5714
3074.5 -1.57142
3075.5 14
3076.5 -28.7143
3077.5 16.1429
3078.5 41.1429
3079.5 22
3080.5 34.1429
3081.5 25
3082.5 26.4286
3083.5 25
3084.5 21.8571
3085.5 -15.2857
3086.5 12.8571
3087.5 64.7143
3088.5 32.2857
3089.5 48.7143
3090.5 74.7143
3091.5 59
3092.5 59.1429
3093.5 32.7143
3094.5 8.71429
3095.5 18.7143
3096.5 26.5714
3097.5 27.4286
3098.5 24.7143
3099.5 -6.28571
3100.5 -18.4286
3101.5 2.28572
3102.5 8.85715
3103.5 -0.285711
3104.5 26
3105.5 -3.42857
3106.5 2.42858
3107.5 44.8571
3108.5 -15.5714
3109.5 1.57143
3110.5 -35.8571
3111.5 -19.2857
3112.5 34.4286
3113.5 68.7143
3114.5 7.71429
3115.5 38.5714
3116.5 35.5714
3117.5 16.7143
3118.5 14.5714
3119.5 9.14286
3120.5 17.2857
3121.5 38.8571
3122.5 10.4286
3123.5 -23
3124.5 37.2857
3125.5 10.4286
3126.5 22.4286
3127.5 14.2857
3128.5 27.8571
3129.5 3.71429
3130.5 60.5714
3131.5 -5.28571
3132.5 51.8571
3133.5 61.1429
3134.5 -18.7143
3135.5 28.8571
3136.5 3.42857
3137.5 39
3138.5 14.7143
3139.5 48
3140.5 17.7143
3141.5 19
3142.5 32
3143.5 36.4286
3144.5 28.5714
3145.5 29.1429
3146.5 24.1429
3147.5 64.1429
3148.5 63.5714
3149.5 53.4286
3150.5 -0.714281
3151.5 63
3152.5 40.8571
3153.5 4.28572
3154.5 13.8571
3155.5 12.8571
3156.5 18.4286
3157.5 2.28572
3158.5 47.2857
3159.5 43.5714
3160.5 -6.14285
3161.5 37
3162.5 42
3163.5 13.7143
3164.5 18.1429
3165.5 25.2857
3166.5 58.4286
3167.5 50.1429
3168.5 29.7143
3169.5 34.8571
3170.5 29.8571
3171.5 -6.57142
3172.5 -18.7143
3173.5 6.14286
3174.5 64.7143
3175.5 63.8571
3176.5 0.285719
3177.5 33.8571
3178.5 18.1429
3179.5 25
3180.5 42.1429
3181.5 6.85715
3182.5 -13
3183.5 57.8571
3184.5 42
3185.5 15.2857
3186.5 55.4286
3187.5 -12.8571
3188.5 8.42857
3189.5 16.8571
3190.5 55.2857
3191.5 3.85715
3192.5 -3.14285
3193.5 35.1429
3194.5 -10.1429
3195.5 17.4286
3196.5 31.8571
3197.5 56
3198.5 -5.57142
3199.5 12.8571
3200.5 54.7143
3201.5 29.4286
3202.5 67.8571
3203.5 27.7143
3204.5 -29.5714
3205.5 -12.5714
3206.5 5.42858
3207.5 20.7143
3208.5 37.7143
3209.5 -10.2857
3210.5 11.7143
3211.5 31.5714
3212.5 35.7143
3213.5 -14.4286
3214.5 28.7143
3215.5 16.2857
3216.5 44
3217.5 32.4286
3218.5 1.57143
3219.5 10
3220.5 -1.42857
3221.5 77.8571
3222.5 6.85715
3223.5 51.5714
3224.5 21.5714
3225.5 45.1429
3226.5 -2.57143
3227.5 59
3228.5 7
3229.5 28
3230.5 -8.28571
3231.5 37.2857
3232.5 2.28572
3233.5 64
3234.5 33.5714
3235.5 12.1429
3236.5 7.85715
3237.5 41.7143
3238.5 39.8571
3239.5 17.2857
3240.5 33.1429
3241.5 16.2857
3242.5 -7.99999
3243.5 34.2857
3244.5 4.14286
3245.5 29.4286
3246.5 56.2857
3247.5 78
3248.5 60.1429
3249.5 63.5714
3250.5 36.7143
3251.5 25.8571
3252.5 13.7143
3253.5 31
3254.5 8.57143
3255.5 3.09944e-06
3256.5 -6.28571
3257.5 9.14286
3258.5 52.7143
3259.5 38.8571
3260.5 12.5714
3261.5 18.8571
3262.5 -54
3263.5 -3.57142
3264.5 21.4286
3265.5 1.42858
3266.5 14.5714
3267.5 9.57143
3268.5 -26.5714
3269.5 1.85715
3270.5 13
3271.5 4.42857
3272.5 17.7143
3273.5 25.1429
3274.5 51.1429
3275.5 -11
3276.5 58.5714
3277.5 6.71429
3278.5 27.4286
3279.5 9.57143
3280.5 7.85715
3281.5 13.2857
3282.5 9.14286
3283.5 77.4286
3284.5 40
3285.5 43.2857
3286.5 42.5714
3287.5 81.2857
3288.5 70.2857
3289.5 39.5714
3290.5 46.1429
3291.5 49
3292.5 35.7143
3293.5 36
3294.5 1.85715
3295.5 -7.85714
3296.5 23.7143
3297.5 21.8571
3298.5 -7.71428
3299.5 7
3300.5 16.5714
3301.5 23
3302.5 -42.1429
3303.5 -7
3304.5 28.2857
3305.5 33.2857
3306.5 31.2857
3307.5 -3.14285
3308.5 32
3309.5 41.4286
3310.5 18.2857
3311.5 24.5714
3312.5 8.14286
3313.5 -26.2857
3314.5 -10.2857
3315.5 26.8571
3316.5 27.4286
3317.5 15.1429
3318.5 7.28572
3319.5 33.1429
3320.5 35.4286
3321.5 -66.2857
3322.5 14.4286
3323.5 -24.8571
3324.5 66.7143
3325.5 30.1429
3326.5 16.2857
3327.5 -5.14285
3328.5 20
3329.5 24.8571
3330.5 -6.14285
3331.5 3.28572
3332.5 20
3333.5 23.7143
3334.5 11.2857
3335.5 -5.42857
3336.5 -24.7143
3337.5 3.14286
3338.5 -27.8571
3339.5 -3.42857
3340.5 -7
3341.5 -16.1429
3342.5 4
3343.5 38.5714
3344.5 59.7143
3345.5 45.4286
3346.5 8.57143
3347.5 39.7143
3348.5 -13.1429
3349.5 13.7143
3350.5 -0.714283
3351.5 22.7143
3352.5 48.2857
3353.5 64
3354.5 35.2857
3355.5 63.8571
3356.5 36.8571
3357.5 3.57143
3358.5 28.7143
3359.5 16.7143
3360.5 48.7143
3361.5 14.1429
3362.5 50.5714
3363.5 2.14286
3364.5 12.5714
3365.5 21.1429
3366.5 -45.2857
3367.5 -10.5714
3368.5 -16.8571
3369.5 1.71429
3370.5 -7.42857
3371.5 -6.71428
3372.5 32.7143
3373.5 0.714288
3374.5 28
3375.5 22.4286
3376.5 24.7143
3377.5 32.8571
3378.5 14.2857
3379.5 7
3380.5 3.71429
3381.5 4
3382.5 -3.28571
3383.5 -15.7143
3384.5 -9
3385.5 8.85715
3386.5 -13.1429
3387.5 -23.4286
3388.5 0.857146
3389.5 51
3390.5 25.1429
3391.5 21
3392.5 5
3393.5 4.85715
3394.5 32.5714
3395.5 50.8571
3396.5 -10.2857
3397.5 3.57143
3398.5 43.5714
3399.5 40.7143
3400.5 34
3401.5 18.7143
3402.5 7
3403.5 21.8571
3404.5 16.5714
3405.5 -5.57143
3406.5 3.85715
3407.5 17.8571
3408.5 12.7143
3409.5 -1.42857
3410.5 32.2857
3411.5 2.71429
3412.5 37
3413.5 30.2857
3414.5 31.2857
3415.5 21.2857
3416.5 -7.85714
3417.5 8
3418.5 26
3419.5 39.2857
3420.5 -3.42857
3421.5 35.8571
3422.5 13.7143
3423.5 -0.428568
3424.5 36.4286
3425.5 28.4286
3426.5 80
3427.5 39.1429
3428.5 14.7143
3429.5 25.2857
3430.5 54.2857
3431.5 8.28572
3432.5 9.28572
3433.5 11
3434.5 28.4286
3435.5 42.7143
3436.5 45.4286
3437.5 120.571
3438.5 180.429
3439.5 178.857
3440.5 101.714
3441.5 86.1429
3442.5 59.5714
3443.5 25.5714
3444.5 40.2857
3445.5 19.7143
3446.5 -12
3447.5 -10.5714
3448.5 62
3449.5 9.14286
3450.5 41.8571
3451.5 29
3452.5 -20.8571
3453.5 14.7143
3454.5 -7.71428
3455.5 0.428575
3456.5 20.8571
3457.5 42.2857
3458.5 32.2857
3459.5 27.4286
3460.5 12
3461.5 1.14286
3462.5 0.571432
3463.5 7.57143
3464.5 22.7143
3465.5 22.8571
3466.5 -8.57143
3467.5 34.7143
3468.5 23.4286
3469.5 38.5714
3470.5 63.1429
3471.5 25.8571
3472.5 64.4286
3473.5 28.5714
3474.5 57.7143
3475.5 23
3476.5 56.8571
3477.5 35.1429
3478.5 28.2857
3479.5 14.1429
3480.5 23.2857
3481.5 35
3482.5 46.1429
3483.5 23.7143
3484.5 30
3485.5 21.4286
3486.5 27.7143
3487.5 19.1429
3488.5 9.42857
3489.5 14.8571
3490.5 56.1429
3491.5 56
3492.5 38.5714
3493.5 -2.71428
3494.5 22
3495.5 6.14286
3496.5 31.8571
3497.5 21.2857
3498.5 -17.2857
3499.5 18.4286
3500.5 15.8571
3501.5 10
3502.5 -5.71428
3503.5 -8
3504.5 15.1429
3505.5 -21.5714
3506.5 -57.7143
3507.5 -102.714
3508.5 -84.1429
3509.5 -95.7143
3510.5 -23.8571
3511.5 2.42858
3512.5 66.8571
3513.5 35.7143
3514.5 52.2857
3515.5 35.7143
3516.5 26.2857
3517.5 46.1429
3518.5 20.4286
3519.5 4.42857
3520.5 3.57143
3521.5 -4
3522.5 -14.1429
3523.5 7.71429
3524.5 39.5714
3525.5 22.4286
3526.5 23.8571
3527.5 7.85715
3528.5 9.85715
3529.5 23.8571
3530.5 1.57143
3531.5 20.5714
3532.5 33.2857
3533.5 36.5714
3534.5 4.28572
3535.5 35.2857
3536.5 38.8571
3537.5 18.5714
3538.5 -1.71428
3539.5 16
3540.5 8.71429
3541.5 26.2857
3542.5 43.7143
3543.5 35.4286
3544.5 13.8571
3545.5 34.5714
3546.5 4.14286
3547.5 18.4286
3548.5 9.42857
3549.5 19.4286
3550.5 13.8571
3551.5 25.5714
3552.5 29.1429
3553.5 16
3554.5 12
3555.5 14.4286
3556.5 19.5714
3557.5 21.2857
3558.5 13.1429
3559.5 28.5714
3560.5 10.2857
3561.5 30
3562.5 34.7143
3563.5 16.5714
3564.5 2
3565.5 44.4286
3566.5 34.5714
3567.5 9.57143
3568.5 -4
3569.5 24
3570.5 31.2857
3571.5 11.8571
3572.5 19.8571
3573.5 42.8571
3574.5 28
3575.5 34.4286
3576.5 36.5714
3577.5 44.5714
3578.5 61.2857
3579.5 31.1429
3580.5 18.5714
3581.5 15.1429
3582.5 45.4286
3583.5 16.2857
3584.5 -5.57142
3585.5 25
3586.5 24.2857
3587.5 60.7143
3588.5 44.5714
3589.5 36.5714
3590.5 25
3591.5 26.5714
3592.5 22.2857
3593.5 56.5714
3594.5 3.85715
3595.5 45
3596.5 6.14286
3597.5 -4.71428
3598.5 -6.57143
3599.5 13.5714
3600.5 20.5714
3601.5 24
3602.5 20.7143
3603.5 54.4286
3604.5 15.5714
3605.5 20
3606.5 44.1429
3607.5 53.7143
3608.5 70.5714
3609.5 136.714
3610.5 85.2857
3611.5 69.8571
3612.5 64
3613.5 27.5714
3614.5 31
3615.5 37.5714
3616.5 14.8571
3617.5 15.5714
3618.5 56
3619.5 32.4286
3620.5 32.8571
3621.5 40.4286
3622.5 18
3623.5 18.7143
3624.5 29.4286
3625.5 29.5714
3626.5 3.85715
3627.5 34.8571
3628.5 48.4286
3629.5 40.7143
3630.5 9.71429
3631.5 5.57143
3632.5 24.4286
3633.5 -4
3634.5 4.71429
3635.5 15.8571
3636.5 24.7143
3637.5 12.8571
3638.5 23.8571
3639.5 16.5714
3640.5 39.8571
3641.5 51.5714
3642.5 12.8571
3643.5 31.5714
3644.5 51.7143
3645.5 77.5714
3646.5 68.7143
3647.5 36.1429
3648.5 52
3649.5 17.4286
3650.5 3.57143
3651.5 42.1429
3652.5 55.1429
3653.5 21
3654.5 -9.28571
3655.5 -2.85714
3656.5 12
3657.5 -5.42857
3658.5 -40.1429
3659.5 11
3660.5 0.571433
3661.5 -24.8571
3662.5 -5
3663.5 -17.4286
3664.5 37.1429
3665.5 -4.85714
3666.5 1.28572
3667.5 39.1429
3668.5 26.2857
3669.5 57.4286
3670.5 48
3671.5 91
3672.5 85.8571
3673.5 77.1429
3674.5 73.1429
3675.5 82
3676.5 36.1429
3677.5 29.7143
3678.5 9.85715
3679.5 25.7143
3680.5 43.7143
3681.5 41.4286
3682.5 23.8571
3683.5 12.5714
3684.5 18
3685.5 13.8571
3686.5 32
3687.5 14.8571
3688.5 21.1429
3689.5 12.4286
3690.5 -0.428569
3691.5 7
3692.5 8.71429
3693.5 31.8571
3694.5 40.8571
3695.5 36.5714
3696.5 12.5714
3697.5 19.8571
3698.5 37.8571
3699.5 39.5714
3700.5 39.8571
3701.5 28
3702.5 68.5714
3703.5 52.4286
3704.5 37.4286
3705.5 61.8571
3706.5 9.71429
3707.5 39.2857
3708.5 -3.42857
3709.5 48.4286
3710.5 23
3711.5 7.71429
3712.5 61.5714
3713.5 51.5714
3714.5 5.85715
3715.5 29.4286
3716.5 21.4286
3717.5 39.2857
3718.5 19.8571
3719.5 27.4286
3720.5 15
3721.5 35.4286
3722.5 31.5714
3723.5 70.1429
3724.5 53.7143
3725.5 15.7143
3726.5 -1.42857
3727.5 16
3728.5 -1.71428
3729.5 57.1429
3730.5 52.2857
3731.5 54.2857
3732.5 36.8571
3733.5 11.4286
3734.5 37.4286
3735.5 1.28572
3736.5 16.1429
3737.5 14
3738.5 6.14286
3739.5 42.2857
3740.5 32.2857
3741.5 22.5714
3742.5 41.1429
3743.5 49.2857
3744.5 22.2857
3745.5 0.857147
3746.5 12.7143
3747.5 56.5714
3748.5 42.7143
3749.5 46.4286
3750.5 25.2857
3751.5 21
3752.5 27.1429
3753.5 12
3754.5 28.2857
3755.5 68.7143
3756.5 34
3757.5 17.2857
3758.5 61
3759.5 39.2857
3760.5 27.7143
3761.5 28.5714
3762.5 17.5714
3763.5 25.1429
3764.5 -1.14285
3765.5 -9.57143
3766.5 13.8571
3767.5 41.8571
3768.5 11.5714
3769.5 23.7143
3770.5 18.7143
3771.5 38
3772.5 26
3773.5 29.7143
3774.5 11.5714
3775.5 14.1429
3776.5 27.2857
3777.5 20
3778.5 43.4286
3779.5 20.5714
3780.5 0.571431
3781.5 59.5714
3782.5 6.28572
3783.5 35.2857
3784.5 20.1429
3785.5 -15.8571
3786.5 44.5714
3787.5 7.85715
3788.5 7.14286
3789.5 3
3790.5 20.7143
3791.5 61.2857
3792.5 40.7143
3793.5 66.7143
3794.5 46.5714
3795.5 63
3796.5 38.2857
3797.5 41.4286
3798.5 -9
3799.5 -11.2857
3800.5 28.1429
3801.5 37.4286
3802.5 40.2857
3803.5 5.42857
3804.5 2.85715
3805.5 21.4286
3806.5 14
3807.5 12
3808.5 17.5714
3809.5 58.8571
3810.5 88
3811.5 62.5714
3812.5 63.2857
3813.5 23.7143
3814.5 39.4286
3815.5 35.4286
3816.5 46.1429
3817.5 43.5714
3818.5 27
3819.5 20.7143
3820.5 22.8571
3821.5 23.5714
3822.5 34.8571
3823.5 54.5714
3824.5 45.4286
3825.5 50.2857
3826.5 33.5714
3827.5 30.7143
3828.5 55.8571
3829.5 57.2857
3830.5 51.7143
3831.5 25.8571
3832.5 -8.71428
3833.5 45.1429
3834.5 17.5714
3835.5 19.2857
3836.5 11.4286
3837.5 27.8571
3838.5 12.1429
3839.5 13.2857
3840.5 1
3841.5 7.71429
3842.5 42.5714
3843.5 29.4286
3844.5 14.5714
3845.5 20.4286
3846.5 11.4286
3847.5 -8
3848.5 25
3849.5 29.1429
3850.5 7.71429
3851.5 38.7143
3852.5 11
3853.5 24.2857
3854.5 8.57143
3855.5 23.2857
3856.5 4.71429
3857.5 18.7143
3858.5 33
3859.5 42.7143
3860.5 -16.4286
3861.5 32.7143
3862.5 23.8571
3863.5 35
3864.5 2.28572
3865.5 22.8571
3866.5 5.14286
3867.5 7.71429
3868.5 -2
3869.5 -1.28571
3870.5 6.85715
3871.5 -30
3872.5 1.57143
3873.5 20.8571
3874.5 40.5714
3875.5 30.2857
3876.5 38.1429
3877.5 6.14286
3878.5 22.2857
3879.5 49.4286
3880.5 32.5714
3881.5 33
3882.5 18.1429
3883.5 20.1429
3884.5 45.8571
3885.5 31
3886.5 12
3887.5 8.71429
3888.5 1.42857
3889.5 4.85715
3890.5 22
3891.5 35.1429
3892.5 25.1429
3893.5 31.2857
3894.5 16.2857
3895.5 31.8571
3896.5 22.1429
3897.5 36.5714
3898.5 28.5714
3899.5 3.42857
3900.5 23.5714
3901.5 46.4286
3902.5 0.571434
3903.5 24
3904.5 21.7143
3905.5 7.42857
3906.5 37.8571
3907.5 -8.71428
3908.5 26.1429
3909.5 -3.14285
3910.5 6.42857
3911.5 18.5714
3912.5 41.8571
3913.5 19.2857
3914.5 14
3915.5 38.2857
3916.5 27.5714
3917.5 26.5714
3918.5 26.2857
3919.5 26.5714
3920.5 29.8571
3921.5 37.8571
3922.5 25.5714
3923.5 29.1429
3924.5 20.8571
3925.5 49.4286
3926.5 39.8571
3927.5 18.7143
3928.5 61
3929.5 35.2857
3930.5 33.4286
3931.5 15.7143
3932.5 15.8571
3933.5 24.8571
3934.5 45
3935.5 24.7143
3936.5 27
3937.5 40.2857
3938.5 21.4286
3939.5 49.8571
3940.5 31
3941.5 30
3942.5 4.71429
3943.5 -5.57143
3944.5 39.4286
3945.5 81.7143
3946.5 119.571
3947.5 194.143
3948.5 279.143
3949.5 393
3950.5 409.143
3951.5 325.143
3952.5 148.571
3953.5 144.857
3954.5 67.1429
3955.5 39.1429
3956.5 37.4286
3957.5 35.1429
3958.5 83.1429
3959.5 23.5714
3960.5 -3.42857
3961.5 54.8571
3962.5 -2.57143
3963.5 33
3964.5 -0.857141
3965.5 22
3966.5 -24.7143
3967.5 1.28572
3968.5 6.14286
3969.5 44.4286
3970.5 21.8571
3971.5 32.8571
3972.5 4.71429
3973.5 51.1429
3974.5 -2.57142
3975.5 32.4286
3976.5 31.4286
3977.5 35.2857
3978.5 60.2857
3979.5 20.2857
3980.5 21.7143
3981.5 48
3982.5 38.4286
3983.5 38.8571
3984.5 27.2857
3985.5 66.7143
3986.5 18.4286
3987.5 28.5714
3988.5 44
3989.5 36.4286
3990.5 29
3991.5 39.1429
3992.5 9.14286
3993.5 36.5714
3994.5 7.85715
3995.5 25.5714
3996.5 0.142859
3997.5 -1.57143
3998.5 45.5714
3999.5 23.5714
4000.5 51
4001.5 11.7143
4002.5 15.4286
4003.5 34.4286
4004.5 14.5714
4005.5 11.5714
4006.5 3.57143
4007.5 33.5714
4008.5 22
4009.5 -8.28571
4010.5 46.1429
4011.5 17.8571
4012.5 21.4286
4013.5 -3.57143
4014.5 6.71429
4015.5 14.8571
4016.5 50.2857
4017.5 13.4286
4018.5 46
4019.5 72
4020.5 46.7143
4021.5 59.4286
4022.5 62.4286
4023.5 100.429
4024.5 134.286
4025.5 149.714
4026.5 117.143
4027.5 82.5714
4028.5 80
4029.5 24.1429
4030.5 -7
4031.5 8.14286
4032.5 7.85715
4033.5 -5.85714
4034.5 -29.1429
4035.5 -7.42857
4036.5 -6.71428
4037.5 -36.7143
4038.5 31.8571
4039.5 -14.1429
4040.5 24.7143
4041.5 15.4286
4042.5 27.5714
4043.5 30.8571
4044.5 7.28572
4045.5 33.5714
4046.5 19.8571
4047.5 10
4048.5 12.5714
4049.5 28.2857
4050.5 23.1429
4051.5 40.5714
4052.5 26.5714
4053.5 56.7143
4054.5 23.8571
4055.5 33.5714
4056.5 49
4057.5 26.7143
4058.5 28.7143
4059.5 23.4286
4060.5 29.4286
4061.5 12.8571
4062.5 72.4286
4063.5 34.5714
4064.5 31
4065.5 57
4066.5 52.5714
4067.5 30.8571
4068.5 12.2857
4069.5 21
4070.5 58.1429
4071.5 1.14286
4072.5 7
4073.5 27.5714
4074.5 -7.85714
4075.5 7.57143
4076.5 -7.42857
4077.5 -7.57143
4078.5 7.85714
4079.5 39.5714
4080.5 32.5714
4081.5 23.8571
4082.5 51.7143
4083.5 44
4084.5 21
4085.5 30.8571
4086.5 68.1429
4087.5 44
4088.5 15
4089.5 35
4090.5 39.4286
4091.5 37.8571
4092.5 59.8571
4093.5 39.7143
4094.5 49
4095.5 25.5714
4096.5 13.4286
4097.5 48.8571
4098.5 2.14286
4099.5 38.8571
4100.5 19.1429
4101.5 34
4102.5 21.4286
4103.5 3.14286
4104.5 69.5714
4105.5 34.4286
4106.5 39.7143
4107.5 35.2857
4108.5 50.8571
4109.5 42.1429
4110.5 44.8571
4111.5 6.14286
4112.5 27.4286
4113.5 13.1429
4114.5 9.85715
4115.5 20.4286
4116.5 35.8571
4117.5 37.4286
4118.5 65.4286
4119.5 76.5714
4120.5 31
4121.5 32.4286
4122.5 31
4123.5 28
4124.5 30.1429
4125.5 30.2857
4126.5 34.1429
4127.5 -19
4128.5 25.7143
4129.5 44
4130.5 38
4131.5 30.8571
4132.5 47.5714
4133.5 11.8571
4134.5 50.5714
4135.5 30.1429
4136.5 6.85715
4137.5 24
4138.5 31.1429
4139.5 -34
4140.5 8.14286
4141.5 43
4142.5 27.7143
4143.5 23
4144.5 46.2857
4145.5 8
4146.5 30
4147.5 24
4148.5 40
4149.5 49.2857
4150.5 45.1429
4151.5 34.8571
4152.5 38.8571
4153.5 4.57143
4154.5 49.1429
4155.5 44
4156.5 67.4286
4157.5 55
4158.5 90.1429
4159.5 60.2857
4160.5 18.1429
4161.5 29.5714
4162.5 48.2857
4163.5 25.7143
4164.5 25.1429
4165.5 10.5714
4166.5 13.1429
4167.5 67.4286
4168.5 56.5714
4169.5 77.4286
4170.5 2.28572
4171.5 48.7143
4172.5 6
4173.5 49.5714
4174.5 0.428574
4175.5 34.1429
4176.5 44.4286
4177.5 20.4286
4178.5 21
4179.5 29.5714
4180.5 50.1429
4181.5 26.2857
4182.5 48.7143
4183.5 41.8571
4184.5 35.7143
4185.5 24.4286
4186.5 31.2857
4187.5 32.4286
4188.5 26.8571
4189.5 27.1429
4190.5 51
4191.5 44
4192.5 51.4286
4193.5 32.8571
4194.5 39.7143
4195.5 2.42857
4196.5 43.4286
4197.5 58
4198.5 35.7143
4199.5 58.8571
4200.5 38.2857
4201.5 25.1429
4202.5 39.1429
4203.5 40.1429
4204.5 44.5714
4205.5 50.2857
4206.5 76.7143
4207.5 47.7143
4208.5 77.4286
4209.5 67.5714
4210.5 54.1429
4211.5 32
4212.5 40.1429
4213.5 55.2857
4214.5 64.8571
4215.5 90
4216.5 82.2857
4217.5 28.5714
4218.5 36
4219.5 50.7143
4220.5 37.1429
4221.5 25.2857
4222.5 41.2857
4223.5 19.4286
4224.5 29.1429
4225.5 39.5714
4226.5 63.8571
4227.5 31.2857
4228.5 26.7143
4229.5 49
4230.5 6
4231.5 37
4232.5 11.5714
4233.5 42.1429
4234.5 15
4235.5 30.5714
4236.5 37.4286
4237.5 48.4286
4238.5 54.8571
4239.5 32.7143
4240.5 11.1429
4241.5 32.1429
4242.5 -4.57143
4243.5 33
4244.5 18.4286
4245.5 47.2857
4246.5 41.2857
4247.5 14.7143
4248.5 23.1429
4249.5 11.4286
4250.5 21.1429
4251.5 57.2857
4252.5 39.2857
4253.5 4.28572
4254.5 39.1429
4255.5 46.1429
4256.5 33.7143
4257.5 21.5714
4258.5 11.7143
4259.5 30.1429
4260.5 23.7143
4261.5 11.5714
4262.5 15.2857
4263.5 27.2857
4264.5 66
4265.5 23.7143
4266.5 37.5714
4267.5 28.7143
4268.5 37.7143
4269.5 51
4270.5 37.5714
4271.5 18.4286
4272.5 1.42857
4273.5 -19.1429
4274.5 -2.14285
4275.5 -35.1429
4276.5 -47.1429
4277.5 -24.5714
4278.5 31.5714
4279.5 1.14286
4280.5 31
4281.5 32
4282.5 23.8571
4283.5 37.5714
4284.5 34
4285.5 32.4286
4286.5 36
4287.5 16.4286
4288.5 27
4289.5 28.7143
4290.5 37.4286
4291.5 5.28572
4292.5 51.1429
4293.5 32.5714
4294.5 12.5714
4295.5 31.4286
4296.5 20.4286
4297.5 16.1429
4298.5 41
4299.5 34.1429
4300.5 38.4286
4301.5 46.4286
4302.5 29
4303.5 30
4304.5 -3.42857
4305.5 35.4286
4306.5 9.57143
4307.5 29.7143
4308.5 35.8571
4309.5 22.7143
4310.5 16.8571
4311.5 36
4312.5 19.8571
4313.5 36
4314.5 24.8571
4315.5 37.2857
4316.5 14
4317.5 26
4318.5 15.8571
4319.5 23.8571
4320.5 9.14286
4321.5 18.8571
4322.5 -1.28571
4323.5 17.7143
4324.5 9.14286
4325.5 24.8571
4326.5 23.4286
4327.5 47
4328.5 -1.14286
4329.5 7.57143
4330.5 26.2857
4331.5 20.8571
4332.5 27.7143
4333.5 2.42857
4334.5 16.8571
4335.5 16.1429
4336.5 20.5714
4337.5 34.8571
4338.5 20.8571
4339.5 3.85714
4340.5 23
4341.5 32.2857
4342.5 25.7143
4343.5 5.57143
4344.5 30.1429
4345.5 25.7143
4346.5 10.7143
4347.5 36.4286
4348.5 -9.71428
4349.5 5.14286
4350.5 24.1429
4351.5 -12.2857
4352.5 -19.4286
4353.5 13.2857
4354.5 23.2857
4355.5 30.1429
4356.5 2.57143
4357.5 22.5714
4358.5 16.8571
4359.5 7
4360.5 18.8571
4361.5 16.5714
4362.5 24.1429
4363.5 12.1429
4364.5 12.7143
4365.5 -6.28571
4366.5 38.8571
4367.5 19.8571
4368.5 8.85714
4369.5 37.4286
4370.5 34.8571
4371.5 70.1429
4372.5 26.2857
4373.5 50.1429
4374.5 20.4286
4375.5 32.5714
4376.5 24.5714
4377.5 -10.1429
4378.5 10.2857
4379.5 -16.1429
4380.5 -6.57143
4381.5 -38.2857
4382.5 -17.8571
4383.5 -56
4384.5 -10.2857
4385.5 16.2857
4386.5 20
4387.5 0.142859
4388.5 11.8571
4389.5 13.7143
4390.5 52.7143
4391.5 5.71429
4392.5 8.42857
4393.5 13.2857
4394.5 13.4286
4395.5 11.2857
4396.5 12
4397.5 32.2857
4398.5 2.71429
4399.5 14.1429
4400.5 17.2857
4401.5 12.8571
4402.5 15.7143
4403.5 15.5714
4404.5 -12.2857
4405.5 14.2857
4406.5 20.7143
4407.5 2.28572
4408.5 6.42857
4409.5 -6
4410.5 15.2857
4411.5 18.8571
4412.5 -3
4413.5 6.28572
4414.5 43.4286
4415.5 0.142859
4416.5 4.71429
4417.5 17.7143
4418.5 2.71429
4419.5 13
4420.5 26.1429
4421.5 21.5714
4422.5 8.28572
4423.5 15.1429
4424.5 16.8571
4425.5 -0.285713
4426.5 33.8571
4427.5 23.4286
4428.5 19.8571
4429.5 23.2857
4430.5 23.2857
4431.5 17
4432.5 1.28572
4433.5 14.7143
4434.5 25.7143
4435.5 15.2857
4436.5 41.1429
4437.5 0.57143
4438.5 42.5714
4439.5 16.2857
4440.5 28.8571
4441.5 33.5714
4442.5 -1.57143
4443.5 9.85714
4444.5 30.7143
4445.5 13.2857
4446.5 23.1429
4447.5 42.2857
4448.5 10
4449.5 19.5714
4450.5 18.5714
4451.5 12.4286
4452.5 23.2857
4453.5 53.4286
4454.5 64.4286
4455.5 110.857
4456.5 150
4457.5 406.429
4458.5 751
4459.5 1194.71
4460.5 1631.29
4461.5 1694
4462.5 1285.57
4463.5 780.714
4464.5 304.857
4465.5 146.571
4466.5 92
4467.5 48.1429
4468.5 26.5714
4469.5 43.5714
4470.5 38.7143
4471.5 22.8571
4472.5 8.85714
4473.5 12.2857
4474.5 6.42857
4475.5 6.71429
4476.5 9.42857
4477.5 9.71429
4478.5 2
4479.5 -6.42857
4480.5 8.85714
4481.5 -3.57143
4482.5 -21.1429
4483.5 9.28572
4484.5 12.4286
4485.5 -8.14286
4486.5 -10.2857
4487.5 19.8571
4488.5 6.42857
4489.5 2.28572
4490.5 5.57143
4491.5 -13.5714
4492.5 -0.285713
4493.5 16.8571
4494.5 14.1429
4495.5 -15.7143
4496.5 -8.28571
4497.5 -5.85714
4498.5 23.7143
4499.5 25.4286
4500.5 11.7143
4501.5 17.5714
4502.5 9.28572
4503.5 -6.71428
4504.5 34.5714
4505.5 -9.14286
4506.5 2.28572
4507.5 -6.28571
4508.5 15.1429
4509.5 -9.57143
4510.5 16.1429
4511.5 16.1429
4512.5 27.1429
4513.5 17.4286
4514.5 16
4515.5 -11.2857
4516.5 3.42857
4517.5 25.8571
4518.5 12.4286
4519.5 1.57143
4520.5 9.28572
4521.5 5.14286
4522.5 -30.8571
4523.5 -4.71428
4524.5 -10.4286
4525.5 -28.8571
4526.5 22
4527.5 -11.5714
4528.5 25.8571
4529.5 -15.7143
4530.5 9.85714
4531.5 13.1429
4532.5 0.57143
4533.5 -6.71428
4534.5 9.85714
4535.5 2.85714
4536.5 18.5714
4537.5 -0.999999
4538.5 9.85714
4539.5 1.42857
4540.5 9.42857
4541.5 -14.1429
4542.5 -5.14286
4543.5 -14.4286
4544.5 -10.2857
4545.5 -13.8571
4546.5 -9.28571
4547.5 -22.2857
4548.5 -26.7143
4549.5 1.57143
4550.5 20.4286
4551.5 -9
4552.5 13
4553.5 41
4554.5 6.42857
4555.5 -9.57143
4556.5 24.5714
4557.5 21
4558.5 17.2857
4559.5 32.2857
4560.5 47.2857
4561.5 32
4562.5 35.4286
4563.5 45.8571
4564.5 108.429
4565.5 72.4286
4566.5 66.7143
4567.5 29.4286
4568.5 16.5714
4569.5 -0.714284
4570.5 18.4286
4571.5 3.42857
4572.5 10.5714
4573.5 -8
4574.5 19.7143
4575.5 10.5714
4576.5 1.57143
4577.5 -20.7143
4578.5 -1.57143
4579.5 -23
4580.5 -6
4581.5 -5.42857
4582.5 -6.57143
4583.5 10.4286
4584.5 11.2857
4585.5 6.85714
4586.5 2.85714
4587.5 13.4286
4588.5 -7.57143
4589.5 -8.42857
4590.5 21.2857
4591.5 -13.8571
4592.5 22.5714
4593.5 14.1429
4594.5 21.1429
4595.5 0.57143
4596.5 21.5714
4597.5 18.2857
4598.5 18.8571
4599.5 12.8571
4600.5 21.5714
4601.5 32.8571
4602.5 30.1429
4603.5 38.2857
4604.5 46.4286
4605.5 36.8571
4606.5 12.5714
4607.5 33.5714
4608.5 44.2857
4609.5 21.5714
4610.5 13.7143
4611.5 22.4286
4612.5 11.4286
4613.5 17.4286
4614.5 10
4615.5 11.5714
4616.5 -2.71428
4617.5 10.2857
4618.5 17.2857
4619.5 36.8571
4620.5 27.2857
4621.5 24.4286
4622.5 10.7143
4623.5 -12.5714
4624.5 53.4286
4625.5 -6.85714
4626.5 11.1429
4627.5 24.4286
4628.5 20.5714
4629.5 -5.57143
4630.5 -10.1429
4631.5 -2.71428
4632.5 2.42857
4633.5 7.71429
4634.5 12.1429
4635.5 8
4636.5 14.2857
4637.5 18.2857
4638.5 12.5714
4639.5 1.42857
4640.5 -18.5714
4641.5 9
4642.5 15.7143
4643.5 -18.7143
4644.5 -6.28571
4645.5 -5.85714
4646.5 2.85714
4647.5 20.1429
4648.5 -17.7143
4649.5 -0.571426
4650.5 -0.714283
4651.5 -17.2857
4652.5 -26
4653.5 4.85714
4654.5 -13.7143
4655.5 -13.5714
4656.5 -1.14286
4657.5 13.8571
4658.5 19.1429
4659.5 6
4660.5 30.2857
4661.5 21.5714
4662.5 23.8571
4663.5 20.7143
4664.5 8.14286
4665.5 27.7143
4666.5 28.2857
4667.5 48.4286
4668.5 45.2857
4669.5 24
4670.5 47.8571
4671.5 24.2857
4672.5 35
4673.5 3.85714
4674.5 4
4675.5 -14.2857
4676.5 -12.2857
4677.5 -16
4678.5 -10.8571
4679.5 -3.71428
4680.5 -15.7143
4681.5 2.28572
4682.5 -10.1429
4683.5 0.285716
4684.5 9.14286
4685.5 7.28572
4686.5 29
4687.5 -5.85714
4688.5 -10.5714
4689.5 -0.999999
4690.5 7
4691.5 -2.28571
4692.5 16.1429
4693.5 16.7143
4694.5 -9.42857
4695.5 12.8571
4696.5 1.28572
4697.5 17.7143
4698.5 8.28572
4699.5 -5
4700.5 3.28572
4701.5 -3.85714
4702.5 33.7143
4703.5 25.8571
4704.5 14.8571
4705.5 8.71429
4706.5 16.8571
4707.5 -0.285713
4708.5 5.28572
4709.5 27
4710.5 5.28572
4711.5 11.4286
4712.5 4.28572
4713.5 12.7143
4714.5 -5.42857
4715.5 8.28572
4716.5 3.57143
4717.5 3.85714
4718.5 11.2857
4719.5 11.5714
4720.5 -6.42857
4721.5 11.5714
4722.5 27.2857
4723.5 17.2857
4724.5 10.7143
4725.5 -2.14286
4726.5 -23.8571
4727.5 -26.7143
4728.5 9.42857
4729.5 9.85714
4730.5 3.85714
4731.5 -0.285713
4732.5 -9.28571
4733.5 4
4734.5 -8
4735.5 20.7143
4736.5 21.7143
4737.5 -4.28571
4738.5 13.2857
4739.5 -13.5714
4740.5 12.7143
4741.5 26.8571
4742.5 13.1429
4743.5 1.14286
4744.5 17.1429
4745.5 -0.285713
4746.5 7.57143
4747.5 27.7143
4748.5 -16.2857
4749.5 16.2857
4750.5 3.85714
4751.5 14.4286
4752.5 30.5714
4753.5 5.85714
4754.5 27
4755.5 15.2857
4756.5 -6.14286
4757.5 27.4286
4758.5 20.4286
4759.5 4.71429
4760.5 22
4761.5 22.5714
4762.5 1.14286
4763.5 -4.85714
4764.5 5.57143
4765.5 -22
4766.5 1.28572
4767.5 1.19209e-06
4768.5 4.71429
4769.5 20
4770.5 9.85714
4771.5 10.2857
4772.5 0.57143
4773.5 -9.85714
4774.5 19.1429
4775.5 -1.57143
4776.5 8.57143
4777.5 10.2857
4778.5 8.71429
4779.5 0.857144
4780.5 16
4781.5 -9.42857
4782.5 -4.57143
4783.5 7.14286
4784.5 0.285716
4785.5 13.8571
4786.5 -2.14286
4787.5 0.714287
4788.5 -17.4286
4789.5 23.1429
4790.5 3.85714
4791.5 11.4286
4792.5 21.7143
4793.5 -21.2857
4794.5 15.8571
4795.5 -6.28571
4796.5 21.2857
4797.5 9.42857
4798.5 1.14286
4799.5 -14.4286
4800.5 12.4286
4801.5 -14.2857
4802.5 0.857144
4803.5 5.42857
4804.5 -2.42857
4805.5 1.71429
4806.5 23.1429
4807.5 -17.2857
4808.5 -8.28571
4809.5 -3.28571
4810.5 7.28572
4811.5 -1.85714
4812.5 24.7143
4813.5 5.42857
4814.5 9.42857
4815.5 21.4286
4816.5 4.28572
4817.5 31
4818.5 16.1429
4819.5 10.8571
4820.5 -16
4821.5 27
4822.5 11.8571
4823.5 16.7143
4824.5 25.7143
4825.5 27.1429
4826.5 11.2857
4827.5 3.57143
4828.5 24.5714
4829.5 21.8571
4830.5 12.4286
4831.5 -13.4286
4832.5 20.5714
4833.5 2.42857
4834.5 -3.28571
4835.5 4.71429
4836.5 18.5714
4837.5 15.1429
4838.5 -7
4839.5 -17.5714
4840.5 -17.8571
4841.5 -10.2857
4842.5 22.2857
4843.5 16.4286
4844.5 -3.14285
4845.5 11.2857
4846.5 -6
4847.5 -4.85714
4848.5 -20.1429
4849.5 10
4850.5 17.7143
4851.5 32
4852.5 12
4853.5 16.2857
4854.5 -0.571427
4855.5 3.42857
4856.5 24
4857.5 13.5714
4858.5 10.8571
4859.5 20.1429
4860.5 -10.2857
4861.5 5.85714
4862.5 5.14286
4863.5 22.2857
4864.5 -8.42857
4865.5 -13.1429
4866.5 -17.8571
4867.5 3.71429
4868.5 12.2857
4869.5 25.1429
4870.5 -17
4871.5 -22.7143
4872.5 -1.28571
4873.5 -23.4286
4874.5 -9.57143
4875.5 4.28572
4876.5 4.42857
4877.5 17.1429
4878.5 21.1429
4879.5 37
4880.5 21.8571
4881.5 -5
4882.5 13
4883.5 28
4884.5 39.2857
4885.5 21.4286
4886.5 -17
4887.5 7
4888.5 19
4889.5 2.71429
4890.5 7.85714
4891.5 -9.14286
4892.5 24.2857
4893.5 11.1429
4894.5 -12.5714
4895.5 1
4896.5 21.4286
4897.5 14
4898.5 21.8571
4899.5 9.57143
4900.5 8.57143
4901.5 -9.57143
4902.5 5.42857
4903.5 23.4286
4904.5 30.1429
4905.5 17.4286
4906.5 14.1429
4907.5 8.42857
4908.5 5.57143
4909.5 -13.1429
4910.5 10.1429
4911.5 2.28572
4912.5 2.71429
4913.5 0.857144
4914.5 -5.71428
4915.5 -2.57143
4916.5 33
4917.5 -0.571427
4918.5 -0.142855
4919.5 -11.7143
4920.5 -6.28571
4921.5 -9.14286
4922.5 -6.42857
4923.5 12.8571
4924.5 10
4925.5 33.7143
4926.5 22.5714
4927.5 34.7143
4928.5 5.42857
4929.5 11.7143
4930.5 9
4931.5 0.57143
4932.5 8
4933.5 11.2857
4934.5 13.8571
4935.5 -1.85714
4936.5 -5.85714
4937.5 7.42857
4938.5 -19.2857
4939.5 -2.71428
4940.5 4.57143
4941.5 6.28572
4942.5 8.71429
4943.5 -3.71428
4944.5 24.2857
4945.5 -6.85714
4946.5 -3.71428
4947.5 6
4948.5 16.5714
4949.5 7.57143
4950.5 9.71429
4951.5 -2.57143
4952.5 13.1429
4953.5 18.2857
4954.5 2.28572
4955.5 25.5714
4956.5 -0.571428
4957.5 -0.142856
4958.5 15.2857
4959.5 19.5714
4960.5 -10.5714
4961.5 -8.85714
4962.5 1.42857
4963.5 15.4286
4964.5 -20
4965.5 15.5714
4966.5 8.42857
4967.5 0.142858
4968.5 35
4969.5 28.5714
4970.5 9.71429
4971.5 -6.85714
4972.5 8.42857
4973.5 7.14286
4974.5 20.1429
4975.5 15
4976.5 32.4286
4977.5 -1.71428
4978.5 -1.14286
4979.5 -9.42857
4980.5 27.5714
4981.5 28.1429
4982.5 9.71429
4983.5 12
4984.5 25.2857
4985.5 9
4986.5 -16.4286
4987.5 14.4286
4988.5 -10.4286
4989.5 11.4286
4990.5 11.7143
4991.5 4
4992.5 6.28572
4993.5 -0.999999
4994.5 18.5714
4995.5 14.4286
4996.5 1
4997.5 -5.57143
4998.5 -4.57143
4999.5 23.7143
5000.5 -11.2857
5001.5 26.5714
5002.5 6
5003.5 2.57143
5004.5 -3
5005.5 -24.5714
5006.5 1
5007.5 -27.1429
5008.5 5
5009.5 -5.57143
5010.5 -9.42857
5011.5 5.85714
5012.5 11.2857
5013.5 15
5014.5 6.28572
5015.5 5
5016.5 23.5714
5017.5 7.28572
5018.5 2.85714
5019.5 19
5020.5 6.57143
5021.5 16.7143
5022.5 38
5023.5 2
5024.5 14.5714
5025.5 13.1429
5026.5 34
5027.5 6.42857
5028.5 -19.2857
5029.5 4.42857
5030.5 23.1429
5031.5 -4.28571
5032.5 0.142858
5033.5 3.28572
5034.5 -1.57143
5035.5 9.57143
5036.5 3.42857
5037.5 -16.5714
5038.5 -3.71428
5039.5 -10
5040.5 7.28572
5041.5 10.8571
5042.5 6.42857
5043.5 -0.142856
5044.5 -5
5045.5 16
5046.5 17.1429
5047.5 3.42857
5048.5 19.7143
5049.5 8.42857
5050.5 -4.14286
5051.5 13.7143
5052.5 -6.57143
5053.5 -12.1429
5054.5 -22.1429
5055.5 10.5714
5056.5 -34.7143
5057.5 -13
5058.5 -22.2857
5059.5 -23.4286
5060.5 -25.5714
5061.5 5
5062.5 -10.4286
5063.5 9
5064.5 -3
5065.5 27.5714
5066.5 26.4286
5067.5 -5
5068.5 17.7143
5069.5 25
5070.5 56.7143
5071.5 23.8571
5072.5 16.1429
5073.5 7.42857
5074.5 29.7143
5075.5 39.2857
5076.5 30.2857
5077.5 36.5714
5078.5 10.8571
5079.5 34.1429
5080.5 37.5714
5081.5 32.5714
5082.5 40.7143
5083.5 28.1429
5084.5 32
5085.5 -7.57143
5086.5 -20.7143
5087.5 3.57143
5088.5 3.14286
5089.5 -11.7143
5090.5 -5.42857
5091.5 -44.2857
5092.5 -8
5093.5 9.42857
5094.5 18.8571
5095.5 23.1429
5096.5 13.7143
5097.5 0.142858
5098.5 14.2857
5099.5 10.5714
5100.5 -3
5101.5 7.57143
5102.5 4
5103.5 15.4286
5104.5 -4
5105.5 31.5714
5106.5 -0.142856
5107.5 9.28572
5108.5 13.4286
5109.5 34.7143
5110.5 17.7143
5111.5 27.4286
5112.5 16
5113.5 27.1429
5114.5 17.8571
5115.5 5.57143
5116.5 18
5117.5 13.5714
5118.5 17.7143
5119.5 13.2857
5120.5 10.4286
5121.5 17
5122.5 17.7143
5123.5 -4.85714
5124.5 -5.57143
5125.5 3.42857
5126.5 -7.28571
5127.5 18.2857
5128.5 9.42857
5129.5 -9.14286
5130.5 6
5131.5 18.7143
5132.5 33.7143
5133.5 1
5134.5 10.1429
5135.5 3.28572
5136.5 -17.5714
5137.5 19.2857
5138.5 19.1429
5139.5 5.85714
5140.5 4
5141.5 12.8571
5142.5 9.71429
5143.5 8.85714
5144.5 -3.14286
5145.5 2.57143
5146.5 -2.42857
5147.5 38.4286
5148.5 1.42857
5149.5 1
5150.5 8
5151.5 -0.999999
5152.5 10.4286
5153.5 24.2857
5154.5 14.7143
5155.5 28.2857
5156.5 7.85714
5157.5 4
5158.5 1.14286
5159.5 18
5160.5 -27.5714
5161.5 -7.14286
5162.5 9.57143
5163.5 21
5164.5 9
5165.5 12.1429
5166.5 6.85714
5167.5 29.2857
5168.5 19.4286
5169.5 15.4286
5170.5 14.2857
5171.5 -29
5172.5 4.42857
5173.5 20.1429
5174.5 -11.4286
5175.5 7
5176.5 10.5714
5177.5 -11.4286
5178.5 15.1429
5179.5 23.8571
5180.5 11.4286
5181.5 4.14286
5182.5 14.8571
5183.5 -1.28571
5184.5 20.8571
5185.5 12.7143
5186.5 7.85714
5187.5 20.5714
5188.5 31.7143
5189.5 12.7143
5190.5 -4.85714
5191.5 12
5192.5 17.7143
5193.5 6.42857
5194.5 5.57143
5195.5 -14.7143
5196.5 -11.7143
5197.5 9.14286
5198.5 15
5199.5 5.57143
5200.5 2.85714
5201.5 0.428573
5202.5 -0.999999
5203.5 20
5204.5 23.8571
5205.5 17.4286
5206.5 0.285716
5207.5 14.5714
5208.5 33
5209.5 22.4286
5210.5 26
5211.5 24.8571
5212.5 29
5213.5 26.8571
5214.5 43
5215.5 36.7143
5216.5 23.2857
5217.5 19.4286
5218.5 19.4286
5219.5 9.71429
5220.5 -19.7143
5221.5 9.42857
5222.5 6.85714
5223.5 -4
5224.5 38.4286
5225.5 7.42857
5226.5 15
5227.5 25.1429
5228.5 14.7143
5229.5 8
5230.5 9.57143
5231.5 21.8571
5232.5 15.1429
5233.5 7.71429
5234.5 -14.2857
5235.5 19
5236.5 5.71429
5237.5 -4.71428
5238.5 10.8571
5239.5 -15.5714
5240.5 -15.1429
5241.5 19
5242.5 25.7143
5243.5 2.57143
5244.5 5.14286
5245.5 -9.42857
5246.5 29.7143
5247.5 -5.28571
5248.5 5.14286
5249.5 12.2857
5250.5 12.8571
5251.5 15.8571
5252.5 20.2857
5253.5 6.57143
5254.5 32.1429
5255.5 5.57143
5256.5 -1.42857
5257.5 10.1429
5258.5 11.4286
5259.5 7.71429
5260.5 3.71429
5261.5 26.5714
5262.5 1.14286
5263.5 11.8571
5264.5 15.4286
5265.5 21.7143
5266.5 8
5267.5 26.2857
5268.5 0.428572
5269.5 12.5714
5270.5 8.71429
5271.5 26.7143
5272.5 24.8571
5273.5 29.2857
5274.5 -20.5714
5275.5 14.2857
5276.5 20.7143
5277.5 17.8571
5278.5 12.5714
5279.5 27.4286
5280.5 3.57143
5281.5 -6.57143
5282.5 20.5714
5283.5 12.5714
5284.5 14.7143
5285.5 8.28572
5286.5 0.714287
5287.5 4.14286
5288.5 -3.57143
5289.5 -11.7143
5290.5 -6.71428
5291.5 8.28572
5292.5 17.1429
5293.5 3.71429
5294.5 14.2857
5295.5 19.4286
5296.5 -18.4286
5297.5 -4.57143
5298.5 8.57143
5299.5 8.28572
5300.5 12.5714
5301.5 15.4286
5302.5 12.4286
5303.5 6.57143
5304.5 20.7143
5305.5 -14
5306.5 -6.57143
5307.5 19.4286
5308.5 0.428572
5309.5 19.2857
5310.5 14.7143
5311.5 14.2857
5312.5 9.57143
5313.5 23.2857
5314.5 5
5315.5 9.71429
5316.5 -10.5714
5317.5 3.85714
5318.5 20.2857
5319.5 12.5714
5320.5 14.2857
5321.5 16.2857
5322.5 -7.14286
5323.5 26.1429
5324.5 15.4286
5325.5 -3.42857
5326.5 12.2857
5327.5 -16.8571
5328.5 9.42857
5329.5 21.2857
5330.5 8.42857
5331.5 6
5332.5 37.1429
5333.5 22.5714
5334.5 40.8571
5335.5 43.2857
5336.5 40.1429
5337.5 31.7143
5338.5 30.5714
5339.5 23.7143
5340.5 35.4286
5341.5 24.7143
5342.5 11.4286
5343.5 9.53674e-07
5344.5 23.1429
5345.5 4
5346.5 15
5347.5 13
5348.5 34
5349.5 10.8571
5350.5 7.28572
5351.5 9
5352.5 -2
5353.5 27.1429
5354.5 -28.7143
5355.5 -29.5714
5356.5 -1.42857
5357.5 -17.5714
5358.5 3.14286
5359.5 29.1429
5360.5 18.4286
5361.5 13.4286
5362.5 3.14286
5363.5 4.57143
5364.5 19.7143
5365.5 -7.85714
5366.5 7.42857
5367.5 12.4286
5368.5 -0.142856
5369.5 13.1429
5370.5 5.71429
5371.5 3.57143
5372.5 17.1429
5373.5 6.57143
5374.5 12.5714
5375.5 11.1429
5376.5 16.8571
5377.5 -9.71428
5378.5 14.8571
5379.5 4.71429
5380.5 25.1429
5381.5 13
5382.5 24.4286
5383.5 9.28572
5384.5 23.2857
5385.5 18.4286
5386.5 1.42857
5387.5 -1.71428
5388.5 -13
5389.5 14
5390.5 7.42858
5391.5 -4
5392.5 0.285717
5393.5 11.4286
5394.5 11.4286
5395.5 -0.428567
5396.5 4.85715
5397.5 6.42858
5398.5 -4.28571
5399.5 7.14286
5400.5 6.14286
5401.5 26.7143
5402.5 14.8571
5403.5 -12.4286
5404.5 5.14286
5405.5 8.42857
5406.5 21.8571
5407.5 0.857144
5408.5 18.5714
5409.5 -12.8571
5410.5 10.1429
5411.5 36.8571
5412.5 13.8571
5413.5 20
5414.5 -5
5415.5 12.1429
5416.5 -1.85714
5417.5 -33.1429
5418.5 20.5714
5419.5 15.1429
5420.5 9.28572
5421.5 5.28572
5422.5 21.1429
5423.5 8.85714
5424.5 -5.85714
5425.5 16.8571
5426.5 13.1429
5427.5 15.1429
5428.5 4.14286
5429.5 13.5714
5430.5 12.5714
5431.5 5.71429
5432.5 -0.857142
5433.5 17.1429
5434.5 -7.42857
5435.5 12.2857
5436.5 17
5437.5 7.57143
5438.5 13
5439.5 -12
5440.5 8.42857
5441.5 1.71429
5442.5 16.1429
5443.5 1.14286
5444.5 14.5714
5445.5 15.8571
5446.5 5.85714
5447.5 5.14286
5448.5 1.85714
5449.5 -5.28571
5450.5 14.7143
5451.5 10
5452.5 -4.28571
5453.5 3
5454.5 -4.14286
5455.5 14.2857
5456.5 12
5457.5 -13.8571
5458.5 8.14286
5459.5 5
5460.5 14.5714
5461.5 9.28571
5462.5 -2.28571
5463.5 16
5464.5 7.28572
5465.5 -2.85714
5466.5 7.14286
5467.5 17.8571
5468.5 15.2857
5469.5 1.71429
5470.5 7.28572
5471.5 17.2857
5472.5 14
5473.5 -13.2857
5474.5 -2.14286
5475.5 16.8571
5476.5 -7.42857
5477.5 -8.42857
5478.5 3.71429
5479.5 5.42857
5480.5 1.42857
5481.5 20.4286
5482.5 9.57143
5483.5 3.57143
5484.5 4.85714
5485.5 11.8571
5486.5 1
5487.5 1.14286
5488.5 9.28572
5489.5 -5.14285
5490.5 -15.4286
5491.5 22.5714
5492.5 17
5493.5 12.5714
5494.5 12.5714
5495.5 -2.57143
5496.5 -0.428571
5497.5 1.42857
5498.5 2.14286
5499.5 -6.42857
5500.5 25.7143
5501.5 16.7143
5502.5 19.8571
5503.5 -5.71428
5504.5 21.4286
5505.5 21.7143
5506.5 9.57143
5507.5 -11
5508.5 7.85714
5509.5 10.1429
5510.5 13
5511.5 5.85714
5512.5 -3.42857
5513.5 10.8571
5514.5 1.42857
5515.5 -2
5516.5 2.14286
5517.5 12.5714
5518.5 23.2857
5519.5 14.8571
5520.5 17.5714
5521.5 -8.57143
5522.5 12
5523.5 -2.71428
5524.5 15.1429
5525.5 13.1429
5526.5 2.71429
5527.5 5.85714
5528.5 7.14286
5529.5 22.7143
5530.5 7.28571
5531.5 12
5532.5 -4.28571
5533.5 -12.2857
5534.5 7.85714
5535.5 5.42857
5536.5 5.28572
5537.5 3
5538.5 17.4286
5539.5 -3
5540.5 26.8571
5541.5 -0.571428
5542.5 -6.14286
5543.5 20.2857
5544.5 12.7143
5545.5 -13.5714
5546.5 22.8571
5547.5 -17.4286
5548.5 20.2857
5549.5 10.7143
5550.5 10.7143
5551.5 -3.42857
5552.5 9.14286
5553.5 3.71429
5554.5 8.28572
5555.5 -2.71428
5556.5 4.42857
5557.5 4.14286
5558.5 34.4286
5559.5 15.1429
5560.5 -2.28571
5561.5 14.7143
5562.5 26.7143
5563.5 16.2857
5564.5 7.28572
5565.5 14.5714
5566.5 9.57143
5567.5 1.71429
5568.5 -4
5569.5 27
5570.5 17
5571.5 1.42857
5572.5 12
5573.5 -5.57143
5574.5 -6.57143
5575.5 12
5576.5 8.42857
5577.5 1.71429
5578.5 18.1429
5579.5 0.142859
5580.5 41.7143
5581.5 26.4286
5582.5 44.8571
5583.5 46.2857
5584.5 56.8571
5585.5 52.4286
5586.5 37.7143
5587.5 47.5714
5588.5 53.7143
5589.5 61.5714
5590.5 63.7143
5591.5 88.8571
5592.5 76.8571
5593.5 47.5714
5594.5 69.8571
5595.5 21.1429
5596.5 21.1429
5597.5 -14.5714
5598.5 8.28572
5599.5 4.57143
5600.5 -13.7143
5601.5 -1.85714
5602.5 7.28572
5603.5 16.1429
5604.5 6
5605.5 1.85714
5606.5 18.7143
5607.5 -9.57143
5608.5 16.7143
5609.5 4.42857
5610.5 6.28572
5611.5 11
5612.5 12.8571
5613.5 6.42857
5614.5 1.85714
5615.5 16
5616.5 17.5714
5617.5 4.57143
5618.5 6.42857
5619.5 -1.42857
5620.5 12.8571
5621.5 12.5714
5622.5 -7.57143
5623.5 3.85714
5624.5 -7.42857
5625.5 6.85714
5626.5 4.57143
5627.5 4
5628.5 8.14286
5629.5 -11.8571
5630.5 9.42857
5631.5 9.57143
5632.5 -18.5714
5633.5 10.2857
5634.5 0.428572
5635.5 -12
5636.5 -4.42857
5637.5 8.57143
5638.5 4
5639.5 7.28571
5640.5 0.142858
5641.5 7.14286
5642.5 15.8571
5643.5 12.4286
5644.5 14.7143
5645.5 7.57143
5646.5 7.85714
5647.5 -1.42857
5648.5 9.28571
5649.5 2
5650.5 20.2857
5651.5 11.1429
5652.5 8.57143
5653.5 7.71429
5654.5 13.4286
5655.5 19.8571
5656.5 8.57143
5657.5 -4.14286
5658.5 5.71429
5659.5 15.1429
5660.5 6.57143
5661.5 -12.7143
5662.5 14.8571
5663.5 8.28572
5664.5 6.85714
5665.5 -0.857142
5666.5 7.15256e-07
5667.5 15.1429
5668.5 -10.5714
5669.5 -10.1429
5670.5 2.71429
5671.5 1.43051e-06
5672.5 0.857144
5673.5 9.71429
5674.5 1.28572
5675.5 3.57143
5676.5 1.28572
5677.5 9.57143
5678.5 4.71429
5679.5 1.14286
5680.5 -10.8571
5681.5 -2.14286
5682.5 7.71429
5683.5 6.57143
5684.5 4
5685.5 2.28572
5686.5 -3.57143
5687.5 8.42857
5688.5 -0.571428
5689.5 16.1429
5690.5 -13.4286
5691.5 -3
5692.5 12.8571
5693.5 10.5714
5694.5 2.14286
5695.5 19.2857
5696.5 17
5697.5 -0.857142
5698.5 4.28572
5699.5 -6.71428
5700.5 12.5714
5701.5 4
5702.5 2.57143
5703.5 16
5704.5 23.7143
5705.5 24.1429
5706.5 10.2857
5707.5 -19.2857
5708.5 2.14286
5709.5 15.7143
5710.5 -1.57143
5711.5 9.71429
5712.5 19
5713.5 11.4286
5714.5 15.1429
5715.5 10.5714
5716.5 16.7143
5717.5 20.2857
5718.5 19.5714
5719.5 16
5720.5 24.2857
5721.5 18.1429
5722.5 57.8571
5723.5 66
5724.5 81
5725.5 76.8571
5726.5 76.8571
5727.5 50.8571
5728.5 46.2857
5729.5 5.57143
5730.5 7.85714
5731.5 16
5732.5 18.2857
5733.5 -0.714285
5734.5 -0.42857
5735.5 2.57143
5736.5 16.4286
5737.5 13.7143
5738.5 -0.857142
5739.5 14.2857
5740.5 7.14286
5741.5 -6.42857
5742.5 16.4286
5743.5 9.85714
5744.5 3.42857
5745.5 -4.28571
5746.5 14.7143
5747.5 3.14286
5748.5 2.42857
5749.5 -9.42857
5750.5 13.7143
5751.5 23.1429
5752.5 9.71429
5753.5 -8.71428
5754.5 -11
5755.5 5.71429
5756.5 10.1429
5757.5 8.14286
5758.5 5.71429
5759.5 16.5714
5760.5 11.1429
5761.5 5.85714
5762.5 -0.999999
5763.5 15.8571
5764.5 2.71429
5765.5 21.8571
5766.5 2.71429
5767.5 6.85714
5768.5 10.7143
5769.5 7.71429
5770.5 6.14286
5771.5 18.5714
5772.5 -6.28571
5773.5 -1.71428
5774.5 9.14286
5775.5 0.285715
5776.5 8.57143
5777.5 18.8571
5778.5 -2.85714
5779.5 14.7143
5780.5 14
5781.5 0.571429
5782.5 10.4286
5783.5 -13.1429
5784.5 6.28571
5785.5 1.71429
5786.5 25
5787.5 -3.42857
5788.5 3.85714
5789.5 0.857144
5790.5 -1.85714
5791.5 2.57143
5792.5 13.8571
5793.5 6.57143
5794.5 -10
5795.5 7.42857
5796.5 0.571429
5797.5 -3.42857
5798.5 2.85714
5799.5 0.428572
5800.5 9.42857
5801.5 20.5714
5802.5 3.28571
5803.5 4.57143
5804.5 -4.85714
5805.5 2.85714
5806.5 6
5807.5 9.57143
5808.5 -11.5714
5809.5 11.7143
5810.5 20.7143
5811.5 5.57143
5812.5 9
5813.5 2
5814.5 15.4286
5815.5 -3.14286
5816.5 -3.42857
5817.5 4.57143
5818.5 3.28571
5819.5 27.8571
5820.5 8.71429
5821.5 4.85714
5822.5 11.7143
5823.5 8.71429
5824.5 6.14286
5825.5 9.28571
5826.5 0.857143
5827.5 14.5714
5828.5 8.28571
5829.5 6.28572
5830.5 23.7143
5831.5 8.14286
5832.5 7.57143
5833.5 7.28572
5834.5 0.714287
5835.5 0.571429
5836.5 -2.71428
5837.5 22.2857
5838.5 -15.4286
5839.5 -11.8571
5840.5 9.71429
5841.5 -2
5842.5 22.1429
5843.5 -3
5844.5 -9.42857
5845.5 -10
5846.5 -4.57143
5847.5 12.5714
5848.5 10
5849.5 0.714286
5850.5 4.42857
5851.5 22.7143
5852.5 6.71429
5853.5 12.2857
5854.5 5.42857
5855.5 4.71429
5856.5 5.42857
5857.5 11.2857
5858.5 -3.71429
5859.5 16.4286
5860.5 -3.85714
5861.5 1.57143
5862.5 17.7143
5863.5 8.28571
5864.5 11.4286
5865.5 -2.57143
5866.5 6.28571
5867.5 3.42857
5868.5 5.42857
5869.5 4.57143
5870.5 12.7143
5871.5 -1.14286
5872.5 -0.857142
5873.5 -6
5874.5 9
5875.5 8.42857
5876.5 15.5714
5877.5 3
5878.5 14.1429
5879.5 17.4286
5880.5 6.57143
5881.5 10.4286
5882.5 2.14286
5883.5 4.14286
5884.5 -7
5885.5 19.8571
5886.5 -1.42857
5887.5 7.85714
5888.5 20.5714
5889.5 3.28571
5890.5 4.85714
5891.5 -7.85714
5892.5 4.85714
5893.5 19
5894.5 -30.4286
5895.5 14
5896.5 -7.57142
5897.5 24.8571
5898.5 -13.7143
5899.5 34.8572
5900.5 -22.4286
5901.5 62.5714
5902.5 -10.7143
5903.5 19
5904.5 -8.85714
5905.5 -7
5906.5 3.28572
5907.5 -1.28571
5908.5 6.42857
5909.5 3.42857
5910.5 27
5911.5 2.57143
5912.5 15.4286
5913.5 15
5914.5 -11.5714
5915.5 4.85714
5916.5 2
5917.5 2.57143
5918.5 4.85714
5919.5 1.71429
5920.5 7.14286
5921.5 2
5922.5 -3.57143
5923.5 0.428572
5924.5 11.1429
5925.5 6.57143
5926.5 6.85714
5927.5 -3.71429
5928.5 5.57143
5929.5 -6.14286
5930.5 6.28571
5931.5 12.2857
5932.5 13.4286
5933.5 5.57143
5934.5 2
5935.5 3.71429
5936.5 9.28571
5937.5 2
5938.5 8.85714
5939.5 8.57143
5940.5 22.2857
5941.5 -3.42857
5942.5 -1.71429
5943.5 11
5944.5 -5.28571
5945.5 -10.7143
5946.5 10.4286
5947.5 -0.428571
5948.5 1
5949.5 -7.85714
5950.5 2.42857
5951.5 7.28571
5952.5 4.42857
5953.5 -1.28571
5954.5 4.42857
5955.5 3.71429
5956.5 -10.1429
5957.5 15.4286
5958.5 4.71429
5959.5 8.28571
5960.5 7.14286
5961.5 9.71429
5962.5 -3
5963.5 3
5964.5 -4.71428
5965.5 -5
5966.5 9.57143
5967.5 -15.2857
5968.5 3.42857
5969.5 6.42857
5970.5 10.7143
5971.5 -5.28571
5972.5 8.71429
5973.5 4.57143
5974.5 -1.85714
5975.5 5.42857
5976.5 12
5977.5 4.57143
5978.5 11.4286
5979.5 -0.285714
5980.5 6.85714
5981.5 -1.85714
5982.5 5.28571
5983.5 -10.7143
5984.5 -2.28571
5985.5 -0.571428
5986.5 4.76837e-07
5987.5 6.57143
5988.5 0.714286
5989.5 4
5990.5 2
5991.5 10
5992.5 8.57143
5993.5 -9.85714
5994.5 -12.7143
5995.5 -8.14286
5996.5 7.85714
5997.5 10.1429
5998.5 11.4286
5999.5 9.14286
6000.5 -7.85714
6001.5 -16.5714
6002.5 -22.4286
6003.5 20.5714
6004.5 14.8571
6005.5 20.4286
6006.5 -1.57143
6007.5 -0.857142
6008.5 10.5714
6009.5 14
6010.5 -1.14286
6011.5 4.71429
6012.5 0.428572
6013.5 10
6014.5 -0.142857
6015.5 1.14286
6016.5 4.71429
6017.5 5.28571
6018.5 17.2857
6019.5 9.14286
6020.5 6.85714
6021.5 12.8571
6022.5 -1.57143
6023.5 2.85714
6024.5 -0.142857
6025.5 4.57143
6026.5 -3.14286
6027.5 3.28571
6028.5 -3.57143
6029.5 -7.85714
6030.5 -3.42857
6031.5 -0.285713
6032.5 -6.85714
6033.5 1.71429
6034.5 -8.14286
6035.5 13.1429
6036.5 1.28572
6037.5 -2.14286
6038.5 -7.14286
6039.5 13.5714
6040.5 3.42857
6041.5 -3
6042.5 -8.14286
6043.5 9.14286
6044.5 1
6045.5 2
6046.5 2.42857
6047.5 2.38419e-07
6048.5 10
6049.5 0.571429
6050.5 4.85714
6051.5 -11.4286
6052.5 3.57143
6053.5 3
6054.5 14.2857
6055.5 10
6056.5 0.428572
6057.5 -2.42857
6058.5 4.28571
6059.5 5
6060.5 -6.42857
6061.5 1.42857
6062.5 6.71429
6063.5 -0.571428
6064.5 -0.714285
6065.5 6.42857
6066.5 7
6067.5 8
6068.5 -6
6069.5 5.28571
6070.5 4.28571
6071.5 19.7143
6072.5 4.14286
6073.5 3.14286
6074.5 4.42857
6075.5 13.5714
6076.5 0.714286
6077.5 -5
6078.5 -3.85714
6079.5 -10.1429
6080.5 -10.1429
6081.5 -0.285714
6082.5 4.85714
6083.5 10
6084.5 -1.85714
6085.5 18.1429
6086.5 -5
6087.5 3.14286
6088.5 -1.71429
6089.5 4.71429
6090.5 8.28571
6091.5 8.57143
6092.5 13
6093.5 18.2857
6094.5 29.1429
6095.5 41
6096.5 63.8571
6097.5 52.8571
6098.5 67.1429
6099.5 69.8571
6100.5 81.8571
6101.5 108
6102.5 134
6103.5 182.571
6104.5 185.429
6105.5 163.429
6106.5 107.286
6107.5 49.5714
6108.5 25.5714
6109.5 -4.28571
6110.5 8.85714
6111.5 -2.42857
6112.5 7.28571
6113.5 10.7143
6114.5 4.76837e-07
6115.5 -6
6116.5 8.57143
6117.5 -0.714285
6118.5 -2.28571
6119.5 7.57143
6120.5 7.28571
6121.5 15
6122.5 0.142858
6123.5 25.5714
6124.5 -5.28571
6125.5 5
6126.5 -6.42857
6127.5 6.42857
6128.5 11.7143
6129.5 1.42857
6130.5 -3.28571
6131.5 -2.71429
6132.5 15.5714
6133.5 3.85714
6134.5 2.28571
6135.5 -0.571428
6136.5 -5.42857
6137.5 -12.4286
6138.5 8.42857
6139.5 -5.57143
6140.5 12
6141.5 6.28571
6142.5 -2
6143.5 0.714286
6144.5 -4.85714
6145.5 17.1429
6146.5 -16.2857
6147.5 5.42857
6148.5 3.85714
6149.5 8.57143
6150.5 0.428572
6151.5 3.71429
6152.5 -3.85714
6153.5 10.5714
6154.5 8.28571
6155.5 -6.14286
6156.5 4.71429
6157.5 -0.571428
6158.5 -10.2857
6159.5 -7.85714
6160.5 9.14286
6161.5 3.14286
6162.5 2.28571
6163.5 0.428572
6164.5 10.5714
6165.5 8.14286
6166.5 -3.71429
6167.5 10.2857
6168.5 -6.71429
6169.5 3
6170.5 -8.28571
6171.5 -3.42857
6172.5 6.57143
6173.5 11.5714
6174.5 3.85714
6175.5 -4.14286
6176.5 -4.71429
6177.5 -1.14286
6178.5 -1.71429
6179.5 -5
6180.5 5.71429
6181.5 3
6182.5 -10.8571
6183.5 10.2857
6184.5 -0.428571
6185.5 -3.28571
6186.5 0.428572
6187.5 -8.42857
6188.5 -4.42857
6189.5 -4.71429
6190.5 -1.14286
6191.5 0.285715
6192.5 4.57143
6193.5 7.85714
6194.5 14.4286
6195.5 -0.142857
6196.5 -3.28571
6197.5 -8
6198.5 15.2857
6199.5 11
6200.5 4.28571
6201.5 10.1429
6202.5 15.2857
6203.5 15.7143
6204.5 14.2857
6205.5 9.14286
6206.5 0.285715
6207.5 1.28571
6208.5 10
6209.5 -4
6210.5 2.42857
6211.5 9
6212.5 9.28571
6213.5 5.28571
6214.5 6
6215.5 -9
6216.5 -13.4286
6217.5 0.142858
6218.5 -4
6219.5 0.428572
6220.5 4.71429
6221.5 -8.85714
6222.5 0.142858
6223.5 6.57143
6224.5 1.57143
6225.5 3
6226.5 8.14286
6227.5 -16.7143
6228.5 8.71429
6229.5 -4.42857
6230.5 0.142858
6231.5 2.42857
6232.5 -9.42857
6233.5 -4.14286
6234.5 -3
6235.5 12.1429
6236.5 -2.28571
6237.5 -0.571428
6238.5 7.57143
6239.5 -0.571428
6240.5 10.7143
6241.5 15.8571
6242.5 4.14286
6243.5 6
6244.5 1
6245.5 -1.14286
6246.5 3.85714
6247.5 0.285715
6248.5 5.42857
6249.5 4
6250.5 5.14286
6251.5 6.14286
6252.5 -2
6253.5 0.857143
6254.5 -10.8571
6255.5 0.428572
6256.5 6.42857
6257.5 2.14286
6258.5 -3.14286
6259.5 -3.42857
6260.5 2.42857
6261.5 -3.28571
6262.5 -0.428571
6263.5 0.571429
6264.5 6
6265.5 -2.85714
6266.5 15.1429
6267.5 -5.14286
6268.5 -5.71429
6269.5 5.57143
6270.5 7.14286
6271.5 -5.71429
6272.5 -3.71429
6273.5 0.428572
6274.5 9.57143
6275.5 -5.42857
6276.5 4.71429
6277.5 -1.14286
6278.5 2.38419e-07
6279.5 -2.57143
6280.5 0.857143
6281.5 -3.28571
6282.5 2.38419e-07
6283.5 3.14286
6284.5 -4.85714
6285.5 7.71429
6286.5 -7
6287.5 3
6288.5 2.14286
6289.5 -0.142857
6290.5 -2.71429
6291.5 -0.428571
6292.5 -4.71429
6293.5 -10.7143
6294.5 -3.28571
6295.5 -6.28571
6296.5 -6.42857
6297.5 -7.42857
6298.5 7.85714
6299.5 10.7143
6300.5 -0.142857
6301.5 -5.85714
6302.5 6.57143
6303.5 -4.57143
6304.5 4.57143
6305.5 4.57143
6306.5 11.2857
6307.5 -5
6308.5 -1
6309.5 5
6310.5 2.28571
6311.5 1
6312.5 2.71429
6313.5 9.28571
6314.5 -0.857143
6315.5 6.28571
6316.5 3.14286
6317.5 6.71429
6318.5 4.42857
6319.5 3.57143
6320.5 1.57143
6321.5 -2.71429
6322.5 -4.42857
6323.5 0.428572
6324.5 -4.42857
6325.5 -5.85714
6326.5 8.42857
6327.5 2.42857
6328.5 -4.85714
6329.5 10.4286
6330.5 5.57143
6331.5 11.4286
6332.5 7.57143
6333.5 -0.142857
6334.5 -9.85714
6335.5 7.14286
6336.5 0.571429
6337.5 4.14286
6338.5 0.571429
6339.5 7.71429
6340.5 12.8571
6341.5 3.71429
6342.5 12.7143
6343.5 -1
6344.5 6
6345.5 -4.71429
6346.5 7.71429
6347.5 2.57143
6348.5 -2.85714
6349.5 5.42857
6350.5 -6.71429
6351.5 3.85714
6352.5 -2.85714
6353.5 18.5714
6354.5 10.5714
6355.5 -9
6356.5 -5.14286
6357.5 -6.28571
6358.5 6.14286
6359.5 7.42857
6360.5 -1.57143
6361.5 -0.571428
6362.5 7.28571
6363.5 5.57143
6364.5 13.8571
6365.5 5.71429
6366.5 -0.428571
6367.5 4.42857
6368.5 4
6369.5 5.14286
6370.5 4.57143
6371.5 1.71429
6372.5 10.4286
6373.5 -2
6374.5 13.2857
6375.5 0.714286
6376.5 3.14286
6377.5 2.57143
6378.5 -4.57143
6379.5 5.71429
6380.5 3.71429
6381.5 -2
6382.5 6.14286
6383.5 2.28571
6384.5 -0.571428
6385.5 3.71429
6386.5 6.28571
6387.5 5.14286
6388.5 2.57143
6389.5 -13
6390.5 1.14286
6391.5 -0.428571
6392.5 -3.42857
6393.5 8.14286
6394.5 -0.714285
6395.5 -5.14286
6396.5 4.85714
6397.5 -5.71429
6398.5 2.14286
6399.5 0.142857
6400.5 -5.28571
6401.5 7.14286
6402.5 -2
6403.5 6.85714
6404.5 5.14286
6405.5 -7.14286
6406.5 -1.57143
6407.5 8.71429
6408.5 8.85714
6409.5 -1
6410.5 0.428572
6411.5 1
6412.5 0.285715
6413.5 0.857143
6414.5 -3.57143
6415.5 -1.57143
6416.5 -2.85714
6417.5 8.71429
6418.5 -1.42857
6419.5 4.57143
6420.5 -9.14286
6421.5 -2.71428
6422.5 -6.28571
6423.5 0.857144
6424.5 3
6425.5 -11.2857
6426.5 -2.14286
6427.5 -3
6428.5 3.42857
6429.5 -2.71429
6430.5 -4.71429
6431.5 -6.28571
6432.5 7.71429
6433.5 -6.28571
6434.5 -7.85714
6435.5 15.7143
6436.5 -2.71429
6437.5 8.71429
6438.5 -18
6439.5 2.28571
6440.5 2.42857
6441.5 -21.7143
6442.5 -1.28571
6443.5 11.8571
6444.5 -1.14286
6445.5 3
6446.5 -1.57143
6447.5 8.57143
6448.5 7.28571
6449.5 3.14286
6450.5 6.71429
6451.5 5.71429
6452.5 -2.85714
6453.5 8.42857
6454.5 0.285714
6455.5 -4.57143
6456.5 4.14286
6457.5 -5
6458.5 -4.71429
6459.5 6.71429
6460.5 8.28571
6461.5 8.28571
6462.5 13.1429
6463.5 4
6464.5 0.571429
6465.5 -1.71429
6466.5 -2.85714
6467.5 -6.57143
6468.5 4.57143
6469.5 7
6470.5 12.2857
6471.5 -7.14286
6472.5 0.428572
6473.5 -1.28571
6474.5 2
6475.5 -27.4286
6476.5 -10.1429
6477.5 -8.71428
6478.5 -21.7143
6479.5 -14.2857
6480.5 -22.4286
6481.5 -19.5714
6482.5 -5.85714
6483.5 3.42857
6484.5 6.71429
6485.5 -0.285714
6486.5 -2.71429
6487.5 6.14286
6488.5 -0.428571
6489.5 -7.28571
6490.5 5.28571
6491.5 5.71429
6492.5 -4.28571
6493.5 -5.71429
6494.5 3.57143
6495.5 1.28571
6496.5 7.28571
6497.5 -3
6498.5 4.85714
6499.5 -2.42857
6500.5 3.57143
6501.5 -2.14286
6502.5 5.85714
6503.5 6.14286
6504.5 2.71429
6505.5 2.57143
6506.5 5.28571
6507.5 -0.428571
6508.5 2.14286
6509.5 -0.428571
6510.5 1.14286
6511.5 2.71429
6512.5 4.71429
6513.5 2.71429
6514.5 9.85714
6515.5 -8.42857
6516.5 8.71429
6517.5 -4.14286
6518.5 18.8571
6519.5 8.42857
6520.5 1.71429
6521.5 8.85714
6522.5 -3.42857
6523.5 1
6524.5 0.714286
6525.5 6.42857
6526.5 -7
6527.5 -3.57143
6528.5 2.14286
6529.5 -0.285714
6530.5 3.28571
6531.5 0.714286
6532.5 3.71429
6533.5 0.142857
6534.5 -4.14286
6535.5 3.14286
6536.5 1.85714
6537.5 -1.85714
6538.5 2
6539.5 3.71429
6540.5 -9
6541.5 4.71429
6542.5 2
6543.5 3.57143
6544.5 -2.42857
6545.5 -0.857141
6546.5 16.5714
6547.5 7.42857
6548.5 5.57143
6549.5 -11.4286
6550.5 6.14286
6551.5 4.28571
6552.5 2
6553.5 10.8571
6554.5 -1.28571
6555.5 -1
6556.5 2.14286
6557.5 2.71429
6558.5 -6
6559.5 1.28571
6560.5 8.28571
6561.5 -1
6562.5 2.14286
6563.5 6.85714
6564.5 6.71429
6565.5 1.71429
6566.5 0.571429
6567.5 -5.42857
6568.5 -1.42857
6569.5 2.85714
6570.5 3.57143
6571.5 3.71429
6572.5 4.28571
6573.5 7.85714
6574.5 -3.42857
6575.5 6.28571
6576.5 4.28571
6577.5 5.28571
6578.5 -3
6579.5 10
6580.5 7.28571
6581.5 6.71429
6582.5 13.8571
6583.5 5.28571
6584.5 4.14286
6585.5 15
6586.5 0.142857
6587.5 -3.71429
6588.5 10.4286
6589.5 4.57143
6590.5 1.42857
6591.5 7.28571
6592.5 6.57143
6593.5 5.85714
6594.5 0.142857
6595.5 9.28571
6596.5 -3.85714
6597.5 5.28571
6598.5 6.28571
6599.5 0.285714
6600.5 0.571429
6601.5 -2.42857
6602.5 2.42857
6603.5 6.28571
6604.5 0.428572
6605.5 1.71429
6606.5 4.14286
6607.5 -1
6608.5 1.71429
6609.5 1.71429
6610.5 -2.28571
6611.5 4.85714
6612.5 -2.57143
6613.5 4.28571
6614.5 -2.28571
6615.5 0.714286
6616.5 4.14286
6617.5 1.71429
6618.5 -0.428571
6619.5 6.14286
6620.5 -0.285714
6621.5 3.28571
6622.5 7.85714
6623.5 -3.42857
6624.5 6.85714
6625.5 -4.85714
6626.5 -1.42857
6627.5 -2.42857
6628.5 8.85714
6629.5 3.14286
6630.5 1.14286
6631.5 -0.428571
6632.5 7.42857
6633.5 -3.42857
6634.5 5.28571
6635.5 3.28571
6636.5 9.42857
6637.5 -0.285714
6638.5 -0.285714
6639.5 0.285714
6640.5 4
6641.5 -8
6642.5 2.28571
6643.5 -1.85714
6644.5 0.428572
6645.5 1
6646.5 8.14286
6647.5 2
6648.5 -5.57143
6649.5 6.85714
6650.5 -0.857142
6651.5 -3.85714
6652.5 4.42857
6653.5 3.42857
6654.5 4.42857
6655.5 3.57143
6656.5 3.57143
6657.5 2.42857
6658.5 8.28571
6659.5 0.571429
6660.5 -0.714286
6661.5 2.14286
6662.5 -1.42857
6663.5 4.42857
6664.5 -3.85714
6665.5 -4.28571
6666.5 -0.857143
6667.5 7.71429
6668.5 4.85714
6669.5 7
6670.5 4
6671.5 3.71429
6672.5 1.71429
6673.5 -3.42857
6674.5 6.28571
6675.5 -3.28571
6676.5 10
6677.5 7.42857
6678.5 -3.85714
6679.5 1.28571
6680.5 6.85714
6681.5 5.28571
6682.5 -3.85714
6683.5 0.142857
6684.5 8
6685.5 5.71429
6686.5 -2.85714
6687.5 1.71429
6688.5 3.28571
6689.5 0.714286
6690.5 3.71429
6691.5 -1.42857
6692.5 3.14286
6693.5 -6.57143
6694.5 -3.42857
6695.5 3.57143
6696.5 7.85714
6697.5 3.14286
6698.5 0.571429
6699.5 0.285714
6700.5 -6
6701.5 7.28571
6702.5 -4.42857
6703.5 3.14286
6704.5 0.285714
6705.5 3.14286
6706.5 1.28571
6707.5 4
6708.5 15.7143
6709.5 15.8571
6710.5 16.2857
6711.5 34.1429
6712.5 40.5714
6713.5 50.8571
6714.5 47.7143
6715.5 38.7143
6716.5 26.7143
6717.5 16.2857
6718.5 19.5714
6719.5 13.1429
6720.5 12.1429
6721.5 20.2857
6722.5 5.71429
6723.5 5
6724.5 -1.85714
6725.5 -0.428571
6726.5 -0.285714
6727.5 2.28571
6728.5 4.71429
6729.5 5.71429
6730.5 -6.57143
6731.5 -3.57143
6732.5 1.85714
6733.5 -2
6734.5 11.8571
6735.5 7
6736.5 4.28571
6737.5 -2.42857
6738.5 -2.71429
6739.5 2.28571
6740.5 5.28571
6741.5 1.85714
6742.5 -5.57143
6743.5 0.285714
6744.5 4.42857
6745.5 2.71429
6746.5 -0.714286
6747.5 3.28571
6748.5 5.28571
6749.5 -2.85714
6750.5 5.28571
6751.5 5.85714
6752.5 -2.85714
6753.5 2.71429
6754.5 1.85714
6755.5 1.28571
6756.5 -0.285714
6757.5 2.85714
6758.5 4
6759.5 -3.42857
6760.5 0.285714
6761.5 7.42857
6762.5 1.14286
6763.5 -3.28571
6764.5 7.71429
6765.5 -1
6766.5 -0.857143
6767.5 -6.71429
6768.5 0.714286
6769.5 5.14286
6770.5 23
6771.5 -4.28571
6772.5 14
6773.5 2.42857
6774.5 -7.57143
6775.5 3.57143
6776.5 -4.42857
6777.5 2.28571
6778.5 -1.85714
6779.5 3.14286
6780.5 2.28571
6781.5 4.85714
6782.5 -1.42857
6783.5 2.85714
6784.5 -2.85714
6785.5 -1
6786.5 -5.42857
6787.5 2.28571
6788.5 0.857143
6789.5 4.42857
6790.5 3.42857
6791.5 1.85714
6792.5 -0.285714
6793.5 -5.28571
6794.5 2
6795.5 4.42857
6796.5 0.857143
6797.5 4.42857
6798.5 -0.142857
6799.5 3.85714
6800.5 -3.71429
6801.5 3.42857
6802.5 7.42857
6803.5 -2.85714
6804.5 -7.57143
6805.5 5
6806.5 -3.28571
6807.5 2.14286
6808.5 1.71429
6809.5 4.85714
6810.5 5.28571
6811.5 5.28571
6812.5 0.285714
6813.5 1.71429
6814.5 -0.857143
6815.5 -1
6816.5 0.857143
6817.5 8.42857
6818.5 1.42857
6819.5 5.42857
6820.5 -0.142857
6821.5 2
6822.5 8.42857
6823.5 1.85714
6824.5 -3.42857
6825.5 2.85714
6826.5 1.42857
6827.5 -2.71429
6828.5 6
6829.5 2.85714
6830.5 0.714286
6831.5 6.42857
6832.5 1.28571
6833.5 -0.571429
6834.5 -0.714286
6835.5 5
6836.5 5.42857
6837.5 3.42857
6838.5 -1.14286
6839.5 -0.571429
6840.5 3.42857
6841.5 1.28571
6842.5 -2.71429
6843.5 -2.71429
6844.5 -1.14286
6845.5 -5.28571
6846.5 3.42857
6847.5 3.42857
6848.5 -1.28571
6849.5 1.85714
6850.5 2.85714
6851.5 4.42857
6852.5 1
6853.5 -2.28571
6854.5 5.42857
6855.5 1.42857
6856.5 1.71429
6857.5 -0.285714
6858.5 -1.85714
6859.5 5.42857
6860.5 5.42857
6861.5 2.57143
6862.5 -2.85714
6863.5 1.28571
6864.5 8
6865.5 -2.85714
6866.5 1.85714
6867.5 6.42857
6868.5 1.42857
6869.5 -3.57143
6870.5 -4.42857
6871.5 4.85714
6872.5 1.28571
6873.5 5.85714
6874.5 -1.85714
6875.5 2.42857
6876.5 -5
6877.5 9.42857
6878.5 0.285714
6879.5 2.28571
6880.5 -3.28571
6881.5 4.28571
6882.5 4.85714
6883.5 3.85714
6884.5 -2.71429
6885.5 -1.14286
6886.5 1.85714
6887.5 3.28571
6888.5 1.42857
6889.5 0.857143
6890.5 3
6891.5 2
6892.5 1.42857
6893.5 2.42857
6894.5 -8.42857
6895.5 4.42857
6896.5 3.85714
6897.5 -1.71429
6898.5 6.42857
6899.5 7
6900.5 2.85714
6901.5 1.42857
6902.5 9
6903.5 1.14286
6904.5 1.42857
6905.5 -0.285714
6906.5 -3.42857
6907.5 -5
6908.5 3.42857
6909.5 3.85714
6910.5 2.85714
6911.5 5.42857
6912.5 1.28571
6913.5 5.85714
6914.5 -2.28571
6915.5 4.42857
6916.5 2.85714
6917.5 4.42857
6918.5 4.42857
6919.5 -2.71429
6920.5 0.142857
6921.5 -2.85714
6922.5 -4.28571
6923.5 3.28571
6924.5 1.71429
6925.5 9.42857
6926.5 2.85714
6927.5 3.57143
6928.5 -0.428571
6929.5 8
6930.5 13
6931.5 -4.71428
6932.5 4
6933.5 4.14286
6934.5 12.5714
6935.5 -20
6936.5 1.19209e-06
6937.5 0.285715
6938.5 6.57143
6939.5 4.14286
6940.5 -5.14286
6941.5 6.42857
6942.5 2.28571
6943.5 3.85714
6944.5 -2.85714
6945.5 3.42857
6946.5 3.85714
6947.5 -0.142857
6948.5 -0.142857
6949.5 2.42857
6950.5 4
6951.5 5.42857
6952.5 1.85714
6953.5 3.42857
6954.5 3
6955.5 6
6956.5 0.285714
6957.5 2.42857
6958.5 2.42857
6959.5 -4.28571
6960.5 -0.142857
6961.5 -2.28571
6962.5 1.42857
6963.5 4.42857
6964.5 3.85714
6965.5 1.85714
6966.5 -1.71429
6967.5 0.857143
6968.5 -2.85714
6969.5 -0.142857
6970.5 0.857143
6971.5 3.42857
6972.5 1.85714
6973.5 3.42857
6974.5 1.85714
6975.5 1.85714
6976.5 4.28571
6977.5 0.142857
6978.5 -0.714286
6979.5 -1.57143
6980.5 3.85714
6981.5 4.57143
6982.5 -3.28571
6983.5 -0.285714
6984.5 3.85714
6985.5 1.42857
6986.5 5
6987.5 3.42857
6988.5 4.42857
6989.5 1.85714
6990.5 1.85714
6991.5 1.85714
6992.5 -0.142857
6993.5 1.42857
6994.5 -0.142857
6995.5 -0.142857
6996.5 1.42857
6997.5 -0.714286
6998.5 -0.285714
6999.5 0.857143
7000.5 -1.28571
7001.5 5
7002.5 -0.285714
7003.5 3
7004.5 2.28571
7005.5 -4.71429
7006.5 -3.71429
7007.5 -2.14286
7008.5 1.42857
7009.5 1
7010.5 4
7011.5 2.42857
7012.5 -1.28571
7013.5 0.428571
7014.5 3
7015.5 0
7016.5 -0.714286
7017.5 -0.714286
7018.5 -0.571429
7019.5 -2.14286
7020.5 1.85714
7021.5 -0.142857
7022.5 -1.14286
7023.5 1.85714
7024.5 0.857143
7025.5 2.42857
7026.5 1.85714
7027.5 -2.71429
7028.5 2.42857
7029.5 5
7030.5 0.857143
7031.5 4
7032.5 4.42857
7033.5 -0.142857
7034.5 2.42857
7035.5 3.85714
7036.5 -0.285714
7037.5 3
7038.5 -2.71429
7039.5 -2.71429
7040.5 -0.142857
7041.5 1.28571
7042.5 -0.142857
7043.5 2.42857
7044.5 4.85714
7045.5 0.428571
7046.5 1.85714
7047.5 0.428571
7048.5 2.42857
7049.5 2.85714
7050.5 2.42857
7051.5 4
7052.5 3
7053.5 4.42857
7054.5 8.42857
7055.5 5.42857
7056.5 8
7057.5 -3.85714
7058.5 2.42857
7059.5 0.857143
7060.5 3.42857
7061.5 4.85714
7062.5 -3.14286
7063.5 1.85714
7064.5 1.85714
7065.5 5
7066.5 0.428571
7067.5 5
7068.5 4.42857
7069.5 5
7070.5 0.857143
7071.5 -0.571429
7072.5 0.857143
7073.5 -0.142857
7074.5 2.42857
7075.5 6
7076.5 0.857143
7077.5 2.28571
7078.5 0.714286
7079.5 -1.14286
7080.5 -2.85714
7081.5 -3.28571
7082.5 5.85714
7083.5 -0.714286
7084.5 5
7085.5 2.85714
7086.5 -1.71429
7087.5 0.285714
7088.5 3
7089.5 0.285714
7090.5 -3.71429
7091.5 2.42857
7092.5 -0.285714
7093.5 0.428571
7094.5 -1.14286
7095.5 2
7096.5 1.42857
7097.5 3
7098.5 3
7099.5 2
7100.5 -0.571429
7101.5 2
7102.5 -1.14286
7103.5 0.857143
7104.5 2
7105.5 3.42857
7106.5 3.42857
7107.5 3
7108.5 2
7109.5 2
7110.5 1.42857
7111.5 1
7112.5 0.428571
7113.5 -0.571429
7114.5 1
7115.5 1.42857
7116.5 -1.57143
7117.5 -0.571429
7118.5 5
7119.5 0.428571
7120.5 0.428571
7121.5 -2.14286
7122.5 -4.71429
7123.5 3.42857
7124.5 -2.14286
7125.5 -2.28571
7126.5 -3.14286
7127.5 -2.14286
7128.5 2
7129.5 1
7130.5 0.428571
7131.5 1
7132.5 2
7133.5 -4.85714
7134.5 -4.85714
7135.5 -2.14286
7136.5 0.428571
7137.5 3
7138.5 5
7139.5 -3.28571
7140.5 2
7141.5 1.42857
7142.5 -1.14286
7143.5 2.42857
7144.5 -0.571429
7145.5 -0.714286
7146.5 2.42857
7147.5 3.42857
7148.5 1
7149.5 4
7150.5 -1.57143
7151.5 -0.571429
7152.5 -0.142857
7153.5 -0.571429
7154.5 1.42857
7155.5 1.42857
7156.5 -2.71429
7157.5 3
7158.5 -1.14286
7159.5 -0.142857
7160.5 2
7161.5 -0.571429
7162.5 1.42857
7163.5 3.42857
7164.5 1.42857
7165.5 -5.85714
7166.5 -1.14286
7167.5 -1.14286
7168.5 1.85714
7169.5 1.42857
7170.5 2
7171.5 0.428571
7172.5 1.42857
7173.5 1.42857
7174.5 2
7175.5 4
7176.5 2
7177.5 -1.14286
7178.5 2
7179.5 3.42857
7180.5 4
7181.5 -2.14286
7182.5 0
7183.5 1.42857
7184.5 1.42857
7185.5 -0.142857
7186.5 2
7187.5 -0.142857
7188.5 2
7189.5 -1.57143
7190.5 -2.14286
7191.5 3
7192.5 -1.57143
7193.5 -0.142857
7194.5 0.428571
7195.5 -1.14286
7196.5 -2.71429
7197.5 -1.71429
7198.5 0.428571
7199.5 2.42857
7200.5 1.42857
7201.5 1
7202.5 -2.28571
7203.5 -0.571429
7204.5 -1.28571
7205.5 -2.28571
7206.5 4.85714
7207.5 -5.28571
7208.5 -0.142857
7209.5 0.714286
7210.5 3
7211.5 5
7212.5 1
7213.5 -0.571429
7214.5 3.85714
7215.5 -0.714286
7216.5 6.42857
7217.5 3.28571
7218.5 10.4286
7219.5 13.8571
7220.5 22
7221.5 24
7222.5 32.8571
7223.5 33.2857
7224.5 51.4286
7225.5 61
7226.5 36.2857
7227.5 37.1429
7228.5 33.4286
7229.5 29.8571
7230.5 11.1429
7231.5 17.8571
7232.5 11.4286
7233.5 7
7234.5 7.42857
7235.5 4
7236.5 3.42857
7237.5 0.428571
7238.5 1.42857
7239.5 -0.142857
7240.5 -3.71429
7241.5 2.42857
7242.5 0.857143
7243.5 -1.57143
7244.5 -6.42857
7245.5 -3.71429
7246.5 0.428571
7247.5 -0.571429
7248.5 -0.571429
7249.5 1
7250.5 -0.571429
7251.5 -0.571429
7252.5 -1.57143
7253.5 4
7254.5 1
7255.5 0.857143
7256.5 1
7257.5 -1.14286
7258.5 5.42857
7259.5 2
7260.5 -1.14286
7261.5 -0.285714
7262.5 -1.14286
7263.5 0.285714
7264.5 2.42857
7265.5 2
7266.5 -2.28571
7267.5 -0.571429
7268.5 1.42857
7269.5 1
7270.5 -0.142857
7271.5 -2.71429
7272.5 -0.571429
7273.5 1
7274.5 -1.57143
7275.5 -2.14286
7276.5 1
7277.5 2
7278.5 3
7279.5 -1.57143
7280.5 1
7281.5 -0.571429
7282.5 -2.14286
7283.5 -1.14286
7284.5 -0.571429
7285.5 -0.571429
7286.5 4
7287.5 1
7288.5 1
7289.5 -0.571429
7290.5 1
7291.5 -1.57143
7292.5 2
7293.5 -0.571429
7294.5 2
7295.5 3
7296.5 2
7297.5 -0.571429
7298.5 3
7299.5 -0.571429
7300.5 0
7301.5 1
7302.5 0
7303.5 1
7304.5 2
7305.5 -0.571429
7306.5 1
7307.5 0.857143
7308.5 -0.142857
7309.5 -3.14286
7310.5 1
7311.5 5
7312.5 -0.142857
7313.5 -1.14286
7314.5 1.28571
7315.5 -1.71429
7316.5 -1.14286
7317.5 -7.42857
7318.5 3.28571
7319.5 -6.14286
7320.5 -3.28571
7321.5 2
7322.5 1.42857
7323.5 3
7324.5 2
7325.5 -1.14286
7326.5 0
7327.5 -0.571429
7328.5 1
7329.5 0.428571
7330.5 1
7331.5 1
7332.5 3
7333.5 1
7334.5 0
7335.5 2
7336.5 1
7337.5 0
7338.5 -0.571429
7339.5 -0.571429
7340.5 2
7341.5 0
7342.5 2
7343.5 0
7344.5 -1.57143
7345.5 0.428571
7346.5 -0.571429
7347.5 1
7348.5 1.42857
7349.5 1
7350.5 2
7351.5 -2.14286
7352.5 1.42857
7353.5 1.28571
7354.5 0.428571
7355.5 0.285714
7356.5 -2.14286
7357.5 0
7358.5 3
7359.5 1
7360.5 3
7361.5 4
7362.5 2
7363.5 1
7364.5 0
7365.5 1
7366.5 4
7367.5 0.428571
7368.5 -0.142857
7369.5 1.42857
7370.5 -0.571429
7371.5 1
7372.5 2
7373.5 -0.571429
7374.5 -3.71429
7375.5 -1.57143
7376.5 3
7377.5 1.42857
7378.5 0
7379.5 -1.57143
7380.5 -3.14286
7381.5 2
7382.5 -1.71429
7383.5 -2.71429
7384.5 1.42857
7385.5 -1.57143
7386.5 0
7387.5 0
7388.5 0
7389.5 -1.57143
7390.5 3
7391.5 1
7392.5 -1.57143
7393.5 1
7394.5 1.42857
7395.5 1
7396.5 1.42857
7397.5 -0.571429
7398.5 -1.57143
7399.5 1
7400.5 0
7401.5 -0.571429
7402.5 -0.142857
7403.5 -0.571429
7404.5 4
7405.5 1
7406.5 3
7407.5 1.42857
7408.5 2
7409.5 0.428571
7410.5 -1.57143
7411.5 2.42857
7412.5 1.42857
7413.5 1
7414.5 -1.85714
7415.5 4.42857
7416.5 -0.714286
7417.5 1
7418.5 -2.14286
7419.5 1.42857
7420.5 -0.571429
7421.5 3
7422.5 0
7423.5 -1.57143
7424.5 -1.57143
7425.5 0
7426.5 1
7427.5 -1.14286
7428.5 0
7429.5 0
7430.5 -6.28571
7431.5 -4.28571
7432.5 1
7433.5 -3.71429
7434.5 0.428571
7435.5 -1.57143
7436.5 1
7437.5 2
7438.5 0
7439.5 2
7440.5 0
7441.5 -0.571429
7442.5 -2.14286
7443.5 -0.571429
7444.5 3
7445.5 0
7446.5 2
7447.5 1
7448.5 0
7449.5 0.428571
7450.5 0
7451.5 -0.571429
7452.5 0
7453.5 -1.14286
7454.5 -0.142857
7455.5 -0.571429
7456.5 -0.571429
7457.5 1
7458.5 -0.571429
7459.5 1
7460.5 -0.571429
7461.5 -2.14286
7462.5 1
7463.5 1
7464.5 1
7465.5 2
7466.5 0
7467.5 -3.71429
7468.5 -1.71429
7469.5 3.42857
7470.5 -2.71429
7471.5 0.428571
7472.5 -1.57143
7473.5 2
7474.5 1
7475.5 0.428571
7476.5 1
7477.5 -3.71429
7478.5 -1.57143
7479.5 0.428571
7480.5 0
7481.5 -1.14286
7482.5 1
7483.5 -3.14286
7484.5 -2.14286
7485.5 2
7486.5 -0.571429
7487.5 -3.14286
7488.5 -1.57143
7489.5 -2.14286
7490.5 1
7491.5 0
7492.5 1
7493.5 0.428571
7494.5 1
7495.5 2
7496.5 -3.14286
7497.5 2
7498.5 0
7499.5 -1.57143
7500.5 2
7501.5 1
7502.5 2
7503.5 0
7504.5 0
7505.5 0.428571
7506.5 0
7507.5 0
7508.5 1
7509.5 -2.14286
7510.5 0
7511.5 -1.57143
7512.5 0
7513.5 -0.571429
7514.5 -3.14286
7515.5 -0.571429
7516.5 3
7517.5 -1.14286
7518.5 -1.57143
7519.5 0
7520.5 0
7521.5 1
7522.5 2
7523.5 -0.571429
7524.5 -1.57143
7525.5 0.428571
7526.5 2
7527.5 -3.14286
7528.5 0
7529.5 0
7530.5 0
7531.5 0
7532.5 0.428571
7533.5 -3.71429
7534.5 1
7535.5 0
7536.5 2
7537.5 0.428571
7538.5 3
7539.5 0.428571
7540.5 -0.571429
7541.5 0
7542.5 0
7543.5 0
7544.5 3
7545.5 0
7546.5 2
7547.5 2
7548.5 -0.571429
7549.5 -3.14286
7550.5 1
7551.5 0
7552.5 -1.57143
7553.5 1
7554.5 0
7555.5 0
7556.5 -0.571429
7557.5 -3.14286
7558.5 -3.14286
7559.5 0
7560.5 -1.14286
7561.5 -1.57143
7562.5 3
7563.5 -0.571429
7564.5 1
7565.5 1
7566.5 2
7567.5 0
7568.5 1
7569.5 0
7570.5 -0.571429
7571.5 -2.14286
7572.5 1
7573.5 -1.71429
7574.5 -1.57143
7575.5 1
7576.5 -0.571429
7577.5 -0.571429
7578.5 0
7579.5 -1.57143
7580.5 1
7581.5 1
7582.5 2
7583.5 0.428571
7584.5 0
7585.5 1
7586.5 -0.571429
7587.5 0
7588.5 -3.14286
7589.5 1
7590.5 1
7591.5 0
7592.5 1.42857
7593.5 -2.14286
7594.5 1
7595.5 -3.14286
7596.5 0
7597.5 0
7598.5 -0.571429
7599.5 -1.57143
7600.5 0.428571
7601.5 0
7602.5 0.428571
7603.5 1.42857
7604.5 2
7605.5 -0.571429
7606.5 0
7607.5 0
7608.5 -0.571429
7609.5 0
7610.5 -2.14286
7611.5 0
7612.5 -3.14286
7613.5 -0.571429
7614.5 -1.57143
7615.5 1
7616.5 2
7617.5 -0.571429
7618.5 1
7619.5 -1.57143
7620.5 0
7621.5 0
7622.5 2
7623.5 0
7624.5 -1.57143
7625.5 -0.571429
7626.5 0
7627.5 1
7628.5 0
7629.5 0
7630.5 0.428571
7631.5 -3.14286
7632.5 1
7633.5 1.42857
7634.5 2
7635.5 0
7636.5 1.42857
7637.5 2
7638.5 0
7639.5 0.428571
7640.5 2
7641.5 -1.57143
7642.5 0
7643.5 -0.571429
7644.5 1
7645.5 -3.14286
7646.5 0.428571
7647.5 0.428571
7648.5 1
7649.5 0
7650.5 1
7651.5 5
7652.5 -2.71429
7653.5 0
7654.5 0
7655.5 0
7656.5 3
7657.5 -0.571429
7658.5 0
7659.5 -1.14286
7660.5 -1.57143
7661.5 0
7662.5 2
7663.5 0
7664.5 0
7665.5 -1.57143
7666.5 0
7667.5 1
7668.5 1
7669.5 4
7670.5 1
7671.5 2
7672.5 2
7673.5 -1.57143
7674.5 -3.14286
7675.5 0
7676.5 -1.57143
7677.5 0
7678.5 -2.71429
7679.5 -1.57143
7680.5 -1.57143
7681.5 0
7682.5 -0.571429
7683.5 -0.571429
7684.5 0
7685.5 0.428571
7686.5 0.428571
7687.5 1
7688.5 -1.57143
7689.5 0
7690.5 0
7691.5 0
7692.5 0
7693.5 0.428571
7694.5 0.428571
7695.5 4
7696.5 0
7697.5 0
7698.5 1
7699.5 0
7700.5 1
7701.5 0
7702.5 2
7703.5 2
7704.5 3
7705.5 2
7706.5 -3.14286
7707.5 -0.571429
7708.5 1
7709.5 0
7710.5 1
7711.5 0
7712.5 1
7713.5 0
7714.5 1
7715.5 -1.57143
7716.5 -1.14286
7717.5 1
7718.5 -0.571429
7719.5 1
7720.5 -0.571429
7721.5 -1.57143
7722.5 1
7723.5 1
7724.5 0.428571
7725.5 2
7726.5 -2.14286
7727.5 0
7728.5 4
7729.5 0
7730.5 -2.14286
7731.5 -2.14286
7732.5 2
7733.5 1
7734.5 0.428571
7735.5 0
7736.5 1
7737.5 0
7738.5 0
7739.5 2
7740.5 -1.57143
7741.5 1
7742.5 -1.14286
7743.5 0
7744.5 1
7745.5 1
7746.5 2
7747.5 -1.57143
7748.5 0
7749.5 1
7750.5 0.428571
7751.5 -3.14286
7752.5 1
7753.5 -1.57143
7754.5 2
7755.5 0.428571
7756.5 1
7757.5 -1.57143
7758.5 1
7759.5 0
7760.5 1
7761.5 1
7762.5 0
7763.5 0
7764.5 -3.14286
7765.5 0
7766.5 1.42857
7767.5 2
7768.5 1
7769.5 2.85714
7770.5 5.85714
7771.5 3.85714
7772.5 1.28571
7773.5 5.42857
7774.5 3.42857
7775.5 -0.142857
7776.5 -5.28571
7777.5 1
7778.5 0
7779.5 0
7780.5 0
7781.5 2
7782.5 -1.14286
7783.5 1
7784.5 0
7785.5 1
7786.5 1
7787.5 0
7788.5 2
7789.5 -0.571429
7790.5 -3.14286
7791.5 1
7792.5 -0.142857
7793.5 -2.14286
7794.5 0
7795.5 1
7796.5 0
7797.5 0
7798.5 2
7799.5 -1.14286
7800.5 0
7801.5 0
7802.5 1
7803.5 0
7804.5 1
7805.5 -0.571429
7806.5 1
7807.5 0.428571
7808.5 0.428571
7809.5 0
7810.5 0
7811.5 0
7812.5 0
7813.5 -1.57143
7814.5 0
7815.5 -1.57143
7816.5 1
7817.5 1
7818.5 0
7819.5 1
7820.5 0.428571
7821.5 3.42857
7822.5 1.42857
7823.5 -3.85714
7824.5 -5.85714
7825.5 -4.42857
7826.5 -1.71429
7827.5 4.85714
7828.5 2.57143
7829.5 -2.42857
7830.5 5.28571
7831.5 2.42857
7832.5 -2.14286
7833.5 2
7834.5 1
7835.5 -0.571429
7836.5 0
7837.5 -1.57143
7838.5 -0.571429
7839.5 -1.57143
7840.5 -1.57143
7841.5 0
7842.5 1
7843.5 -0.571429
7844.5 0
7845.5 2
7846.5 0
7847.5 0
7848.5 1
7849.5 0
7850.5 0
7851.5 -0.571429
7852.5 0
7853.5 1
7854.5 0
7855.5 1
7856.5 0
7857.5 0
7858.5 1
7859.5 0
7860.5 0
7861.5 1
7862.5 1
7863.5 0
7864.5 0
7865.5 -0.571429
7866.5 0
7867.5 0.428571
7868.5 1
7869.5 0
7870.5 -0.571429
7871.5 3
7872.5 0
7873.5 -0.571429
7874.5 0
7875.5 0
7876.5 0
7877.5 -0.571429
7878.5 1
7879.5 0
7880.5 0
7881.5 -1.57143
7882.5 0
7883.5 0
7884.5 -0.571429
7885.5 -0.571429
7886.5 -1.57143
7887.5 0
7888.5 0
7889.5 0
7890.5 1
7891.5 -0.571429
7892.5 0
7893.5 0
7894.5 -1.57143
7895.5 1
7896.5 -1.57143
7897.5 0
7898.5 0
7899.5 0
7900.5 -0.571429
7901.5 -1.57143
7902.5 0
7903.5 0
7904.5 1
7905.5 0
7906.5 -1.57143
7907.5 0
7908.5 1
7909.5 0
7910.5 0
7911.5 -1.57143
7912.5 0
7913.5 0.428571
7914.5 0
7915.5 -1.57143
7916.5 1
7917.5 -1.57143
7918.5 -3.14286
7919.5 0
7920.5 1
7921.5 1
7922.5 0
7923.5 0
7924.5 -1.57143
7925.5 -0.571429
7926.5 -0.571429
7927.5 1
7928.5 0
7929.5 1
7930.5 0
7931.5 1
7932.5 -1.57143
7933.5 -0.571429
7934.5 0
7935.5 0
7936.5 0
7937.5 0
7938.5 0
7939.5 0
7940.5 0
7941.5 0
7942.5 0
7943.5 -1.57143
7944.5 0
7945.5 2
7946.5 1
7947.5 0
7948.5 0
7949.5 0
7950.5 2
7951.5 -3.14286
7952.5 1
7953.5 -1.57143
7954.5 0
7955.5 0
7956.5 1
7957.5 1
7958.5 0
7959.5 0
7960.5 0
7961.5 1
7962.5 2
7963.5 -2.14286
7964.5 0
7965.5 1
7966.5 -0.571429
7967.5 1
7968.5 1
7969.5 -1.57143
7970.5 -0.571429
7971.5 1
7972.5 0
7973.5 1
7974.5 0
7975.5 0
7976.5 -0.571429
7977.5 0
7978.5 1
7979.5 0
7980.5 0
7981.5 1
7982.5 1
7983.5 -1.57143
7984.5 0
7985.5 -1.57143
7986.5 0
7987.5 0
7988.5 0
7989.5 1
7990.5 0
7991.5 1
7992.5 2
7993.5 0
7994.5 1
7995.5 0
7996.5 -3.14286
7997.5 2
7998.5 0
7999.5 0
8000.5 0
8001.5 1
8002.5 -0.571429
8003.5 -1.57143
8004.5 0
8005.5 0
8006.5 -0.571429
8007.5 -1.57143
8008.5 1
8009.5 2
8010.5 1
8011.5 0
8012.5 0
8013.5 -1.57143
8014.5 0
8015.5 1
8016.5 1
8017.5 0
8018.5 -1.57143
8019.5 0
8020.5 0
8021.5 0
8022.5 -1.57143
8023.5 2
8024.5 0
8025.5 0
8026.5 0
8027.5 -2.14286
8028.5 0
8029.5 1
8030.5 1
8031.5 0
8032.5 1
8033.5 -1.57143
8034.5 0
8035.5 -2.14286
8036.5 1
8037.5 -0.571429
8038.5 0
8039.5 1
8040.5 0
8041.5 0
8042.5 -0.571429
8043.5 -1.57143
8044.5 1
8045.5 1
8046.5 0
8047.5 0
8048.5 1
8049.5 2
8050.5 0
8051.5 0
8052.5 -1.57143
8053.5 0
8054.5 -0.571429
8055.5 0
8056.5 -1.57143
8057.5 1
8058.5 0
8059.5 0
8060.5 0
8061.5 1
8062.5 1
8063.5 1
8064.5 0
8065.5 0
8066.5 -1.57143
8067.5 0
8068.5 -0.571429
8069.5 0
8070.5 0
8071.5 -3.14286
8072.5 0
8073.5 1
8074.5 0
8075.5 0
8076.5 0
8077.5 0
8078.5 1
8079.5 0
8080.5 0
8081.5 1
8082.5 -0.571429
8083.5 -1.14286
8084.5 -0.571429
8085.5 2
8086.5 0.428571
8087.5 4
8088.5 0
8089.5 -1.57143
8090.5 1
8091.5 0
8092.5 -1.57143
8093.5 -2.14286
8094.5 0
8095.5 0
8096.5 0
8097.5 0
8098.5 1
8099.5 0
8100.5 0
8101.5 1
8102.5 -0.571429
8103.5 -1.57143
8104.5 0
8105.5 0
8106.5 -1.57143
8107.5 1
8108.5 0
8109.5 0
8110.5 0
8111.5 1
8112.5 0
8113.5 1
8114.5 0
8115.5 2
8116.5 0
8117.5 0
8118.5 0
8119.5 -0.571429
8120.5 -1.57143
8121.5 0
8122.5 -1.57143
8123.5 1
8124.5 0
8125.5 0
8126.5 1
8127.5 1
8128.5 0
8129.5 -1.57143
8130.5 1
8131.5 0
8132.5 0
8133.5 3
8134.5 0
8135.5 2
8136.5 1
8137.5 -2.14286
8138.5 1
8139.5 1
8140.5 0
8141.5 1
8142.5 -1.57143
8143.5 -1.57143
8144.5 1
8145.5 0
8146.5 0
8147.5 0
8148.5 0
8149.5 0
8150.5 2
8151.5 0
8152.5 -1.57143
8153.5 1
8154.5 0
8155.5 0
8156.5 0
8157.5 -1.57143
8158.5 0
8159.5 1
8160.5 -0.571429
8161.5 0
8162.5 2
8163.5 1
8164.5 0
8165.5 0
8166.5 0
8167.5 1
8168.5 1
8169.5 1
8170.5 1
8171.5 0
8172.5 2
8173.5 -1.57143
8174.5 0
8175.5 0
8176.5 0
8177.5 0
8178.5 0
8179.5 0
8180.5 0
8181.5 1
8182.5 0
8183.5 0
8184.5 -1.57143
8185.5 0
8186.5 0
8187.5 0
8188.5 0.428571
8189.5 -1.57143
8190.5 0
8191.5 1
8192.5 0
8193.5 1
8194.5 -2.14286
8195.5 0
8196.5 1
8197.5 0
8198.5 0
8199.5 0
8200.5 0
8201.5 0
8202.5 0
8203.5 -1.57143
8204.5 -3.14286
8205.5 -1.57143
8206.5 0
8207.5 -0.571429
8208.5 0
8209.5 0
8210.5 -1.57143
8211.5 0
8212.5 -1.57143
8213.5 -1.57143
8214.5 0
8215.5 0
8216.5 -1.57143
8217.5 0
8218.5 1
8219.5 0
8220.5 0
8221.5 0
8222.5 0
8223.5 1
8224.5 0
8225.5 0
8226.5 1
8227.5 0
8228.5 0
8229.5 0
8230.5 0
8231.5 0
8232.5 0
8233.5 0
8234.5 1
8235.5 -1.57143
8236.5 0
8237.5 -1.57143
8238.5 -1.57143
8239.5 0.428571
8240.5 0
8241.5 0
8242.5 0
8243.5 1
8244.5 1
8245.5 0
8246.5 0
8247.5 0
8248.5 -1.57143
8249.5 0
8250.5 0
8251.5 0
8252.5 0
8253.5 0
8254.5 0
8255.5 1
8256.5 0
8257.5 0
8258.5 -0.571429
8259.5 0
8260.5 0
8261.5 0
8262.5 0
8263.5 1
8264.5 0
8265.5 0
8266.5 0
8267.5 0
8268.5 0
8269.5 0
8270.5 0
8271.5 0
8272.5 -0.571429
8273.5 0
8274.5 1
8275.5 0
8276.5 0
8277.5 2
8278.5 0
8279.5 0
8280.5 1
8281.5 0
8282.5 0
8283.5 1
8284.5 -1.57143
8285.5 0
8286.5 0
8287.5 0
8288.5 1
8289.5 0
8290.5 0
8291.5 1
8292.5 0
8293.5 -1.57143
8294.5 1
8295.5 1
8296.5 0
8297.5 0
8298.5 0
8299.5 0
8300.5 0
8301.5 0
8302.5 1
8303.5 0
8304.5 0
8305.5 0
8306.5 2
8307.5 0
8308.5 0
8309.5 0
8310.5 0
8311.5 0
8312.5 0
8313.5 0
8314.5 0
8315.5 0
8316.5 0
8317.5 -1.57143
8318.5 0
8319.5 1
8320.5 0
8321.5 0
8322.5 0
8323.5 0
8324.5 0
8325.5 0
8326.5 -3.14286
8327.5 -0.571429
8328.5 1
8329.5 1
8330.5 1
8331.5 0
8332.5 0
8333.5 1
8334.5 0
8335.5 -0.571429
8336.5 0
8337.5 1
8338.5 1
8339.5 1
8340.5 0
8341.5 0
8342.5 1
8343.5 0
8344.5 0
8345.5 0
8346.5 0
8347.5 0
8348.5 0
8349.5 -1.57143
8350.5 0
8351.5 0
8352.5 1
8353.5 1
8354.5 0
8355.5 1
8356.5 1
8357.5 0
8358.5 0
8359.5 0
8360.5 1
8361.5 1
8362.5 0
8363.5 -1.57143
8364.5 0
8365.5 0
8366.5 0
8367.5 -1.57143
8368.5 1
8369.5 1
8370.5 0
8371.5 0
8372.5 0
8373.5 1
8374.5 0
8375.5 1
8376.5 0
8377.5 1
8378.5 0
8379.5 0
8380.5 0
8381.5 2
8382.5 2
8383.5 3
8384.5 0
8385.5 1
8386.5 0
8387.5 0
8388.5 0
8389.5 -1.57143
8390.5 1
8391.5 -1.57143
8392.5 0
8393.5 0
8394.5 -1.57143
8395.5 -0.571429
8396.5 0
8397.5 1
8398.5 1
8399.5 1
8400.5 -0.571429
8401.5 0
8402.5 0
8403.5 0
8404.5 1
8405.5 -1.57143
8406.5 0
8407.5 2
8408.5 -0.571429
8409.5 1
8410.5 0
8411.5 0
8412.5 0
8413.5 1
8414.5 0
8415.5 0
8416.5 0
8417.5 0
8418.5 0
8419.5 0
8420.5 0
8421.5 1
8422.5 3
8423.5 -1.57143
8424.5 1
8425.5 0
8426.5 0
8427.5 1
8428.5 1
8429.5 1
8430.5 0
8431.5 0
8432.5 1
8433.5 0
8434.5 0
8435.5 -1.57143
8436.5 0
8437.5 0
8438.5 -1.57143
8439.5 1
8440.5 0
8441.5 0
8442.5 0
8443.5 0
8444.5 1
8445.5 0
8446.5 0
8447.5 -1.57143
8448.5 0
8449.5 0
8450.5 1
8451.5 -1.57143
8452.5 1
8453.5 0
8454.5 0
8455.5 -1.57143
8456.5 0
8457.5 2
8458.5 1
8459.5 1
8460.5 0
8461.5 -1.57143
8462.5 0
8463.5 0
8464.5 0
8465.5 0
8466.5 0
8467.5 0
8468.5 0
8469.5 0
8470.5 1
8471.5 -0.571429
8472.5 0
8473.5 1
8474.5 0
8475.5 -1.57143
8476.5 -0.571429
8477.5 0
8478.5 1
8479.5 0
8480.5 1
8481.5 -1.14286
8482.5 -0.571429
8483.5 0
8484.5 0
8485.5 0
8486.5 0
8487.5 0
8488.5 0
8489.5 0
8490.5 0
8491.5 0
8492.5 1
8493.5 0
8494.5 0
8495.5 -1.57143
8496.5 0
8497.5 0
8498.5 -1.57143
8499.5 0
8500.5 0
8501.5 0
8502.5 0
8503.5 0
8504.5 1
8505.5 2
8506.5 0
8507.5 -1.57143
8508.5 1
8509.5 -1.57143
8510.5 0
8511.5 0
8512.5 -1.57143
8513.5 0
8514.5 0
8515.5 1
8516.5 0
8517.5 0
8518.5 -1.57143
8519.5 0
8520.5 -0.571429
8521.5 0
8522.5 0
8523.5 0
8524.5 0
8525.5 0
8526.5 -0.571429
8527.5 1
8528.5 0
8529.5 0
8530.5 0
8531.5 0
8532.5 1
8533.5 -1.57143
8534.5 3
8535.5 2
8536.5 0
8537.5 1
8538.5 -1.57143
8539.5 0
8540.5 1
8541.5 0
8542.5 0
8543.5 1
8544.5 0
8545.5 -1.57143
8546.5 0
8547.5 -2.14286
8548.5 -1.57143
8549.5 0
8550.5 0
8551.5 1
8552.5 0
8553.5 1
8554.5 0
8555.5 1
8556.5 0
8557.5 0
8558.5 0
8559.5 0
8560.5 0
8561.5 0
8562.5 0
8563.5 1
8564.5 1
8565.5 0
8566.5 0
8567.5 0
8568.5 0
8569.5 1
8570.5 0
8571.5 1
8572.5 0
8573.5 0
8574.5 2
8575.5 0
8576.5 1
8577.5 1
8578.5 1
8579.5 0
8580.5 0
8581.5 -1.57143
8582.5 -1.57143
8583.5 1
8584.5 0
8585.5 0
8586.5 -1.57143
8587.5 2
8588.5 0
8589.5 -1.57143
8590.5 0
8591.5 0
8592.5 0
8593.5 0
8594.5 0
8595.5 -1.57143
8596.5 0
8597.5 0
8598.5 0
8599.5 0
8600.5 1
8601.5 0
8602.5 -3.14286
8603.5 1
8604.5 0
8605.5 -1.57143
8606.5 0
8607.5 0
8608.5 -1.57143
8609.5 1
8610.5 0
8611.5 0
8612.5 0
8613.5 0
8614.5 0
8615.5 0
8616.5 -1.57143
8617.5 0
8618.5 1
8619.5 0
8620.5 -0.571429
8621.5 0
8622.5 0
8623.5 0
8624.5 0
8625.5 1
8626.5 0
8627.5 0
8628.5 0
8629.5 0
8630.5 0
8631.5 0
8632.5 0
8633.5 0
8634.5 0
8635.5 0
8636.5 0.428571
8637.5 -1.57143
8638.5 0
8639.5 1
8640.5 0
8641.5 0
8642.5 0
8643.5 0
8644.5 -1.57143
8645.5 1
8646.5 0
8647.5 -1.57143
8648.5 0
8649.5 0
8650.5 0
8651.5 -2.14286
8652.5 0
8653.5 0
8654.5 0
8655.5 0
8656.5 0
8657.5 0
8658.5 -1.57143
8659.5 1
8660.5 0
8661.5 0
8662.5 0
8663.5 0
8664.5 1
8665.5 0
8666.5 0
8667.5 -1.57143
8668.5 0
8669.5 0
8670.5 0
8671.5 0
8672.5 0
8673.5 0
8674.5 0
8675.5 0
8676.5 1
8677.5 0
8678.5 0
8679.5 -1.57143
8680.5 0
8681.5 0
8682.5 -1.57143
8683.5 0
8684.5 1
8685.5 0
8686.5 0
8687.5 0
8688.5 -1.57143
8689.5 0
8690.5 0
8691.5 1
8692.5 1
8693.5 0
8694.5 1
8695.5 -1.57143
8696.5 -1.57143
8697.5 1
8698.5 0
8699.5 0
8700.5 0
8701.5 0
8702.5 -1.57143
8703.5 0
8704.5 1
8705.5 0
8706.5 0
8707.5 0
8708.5 -1.57143
8709.5 0
8710.5 0
8711.5 0
8712.5 1
8713.5 1
8714.5 -0.571429
8715.5 0
8716.5 -1.57143
8717.5 0
8718.5 1
8719.5 0
8720.5 1
8721.5 1
8722.5 1
8723.5 0
8724.5 1
8725.5 2
8726.5 1
8727.5 0
8728.5 0
8729.5 1
8730.5 0
8731.5 0
8732.5 1
8733.5 0
8734.5 1
8735.5 0
8736.5 0
8737.5 0
8738.5 0
8739.5 0
8740.5 1
8741.5 0
8742.5 0
8743.5 0
8744.5 -1.57143
8745.5 0
8746.5 0
8747.5 0
8748.5 0
8749.5 0
8750.5 -1.57143
8751.5 0
8752.5 0
8753.5 1
8754.5 0
8755.5 0
8756.5 1
8757.5 0
8758.5 1
8759.5 0
8760.5 0
8761.5 0
8762.5 0
8763.5 0
8764.5 0
8765.5 -0.571429
8766.5 -1.57143
8767.5 -1.57143
8768.5 0
8769.5 0
8770.5 0
8771.5 0
8772.5 0
8773.5 -3.14286
8774.5 0
8775.5 1
8776.5 2
8777.5 0
8778.5 0
8779.5 0
8780.5 -1.57143
8781.5 -1.57143
8782.5 0
8783.5 -1.57143
8784.5 0
8785.5 0
8786.5 2
8787.5 -1.57143
8788.5 0
8789.5 0
8790.5 0
8791.5 0
8792.5 0
8793.5 0
8794.5 -1.57143
8795.5 1
8796.5 0
8797.5 0
8798.5 0
8799.5 1
8800.5 0
8801.5 0
8802.5 -1.57143
8803.5 0
8804.5 0
8805.5 0
8806.5 1
8807.5 0
8808.5 1
8809.5 1
8810.5 1
8811.5 0
8812.5 0
8813.5 0
8814.5 0
8815.5 0
8816.5 0
8817.5 0
8818.5 0
8819.5 0
8820.5 0
8821.5 0
8822.5 0
8823.5 2
8824.5 0
8825.5 0
8826.5 1
8827.5 0
8828.5 -1.57143
8829.5 0
8830.5 0
8831.5 0
8832.5 0
8833.5 -0.571429
8834.5 -1.57143
8835.5 1
8836.5 0
8837.5 0
8838.5 0
8839.5 -1.57143
8840.5 0
8841.5 -1.57143
8842.5 0
8843.5 0
8844.5 1
8845.5 -0.571429
8846.5 1
8847.5 -1.57143
8848.5 0
8849.5 0
8850.5 1
8851.5 0
8852.5 0
8853.5 0
8854.5 1
8855.5 1
8856.5 1
8857.5 0
8858.5 0
8859.5 0
8860.5 0
8861.5 0
8862.5 0
8863.5 0
8864.5 0
8865.5 0
8866.5 0
8867.5 0
8868.5 0
8869.5 0
8870.5 0
8871.5 -0.571429
8872.5 0
8873.5 0
8874.5 1
8875.5 0
8876.5 0
8877.5 0
8878.5 0
8879.5 -1.57143
8880.5 2
8881.5 0
8882.5 0
8883.5 0
8884.5 1
8885.5 0
8886.5 0
8887.5 1
8888.5 0
8889.5 1
8890.5 -1.57143
8891.5 0
8892.5 0
8893.5 -1.57143
8894.5 0
8895.5 0
8896.5 -3.14286
8897.5 0
8898.5 0
8899.5 0
8900.5 0
8901.5 0
8902.5 0
8903.5 0
8904.5 0
8905.5 0
8906.5 0
8907.5 -1.57143
8908.5 1
8909.5 0
8910.5 1
8911.5 0
8912.5 0
8913.5 0
8914.5 0
8915.5 0
8916.5 -1.57143
8917.5 1
8918.5 0
8919.5 0
8920.5 0
8921.5 0
8922.5 1
8923.5 0
8924.5 0
8925.5 1
8926.5 0
8927.5 0
8928.5 0
8929.5 0
8930.5 0
8931.5 0
8932.5 0
8933.5 0
8934.5 -0.571429
8935.5 0
8936.5 0
8937.5 1
8938.5 0
8939.5 1
8940.5 0
8941.5 0
8942.5 0
8943.5 0
8944.5 0
8945.5 0
8946.5 0
8947.5 0
8948.5 1
8949.5 -1.57143
8950.5 0
8951.5 0
8952.5 0
8953.5 0
8954.5 1
8955.5 0
8956.5 0
8957.5 0
8958.5 -3.14286
8959.5 0
8960.5 0
8961.5 0
8962.5 0
8963.5 0
8964.5 0
8965.5 0
8966.5 -1.57143
8967.5 0
8968.5 1
8969.5 0
8970.5 0
8971.5 0
8972.5 0
8973.5 0
8974.5 0
8975.5 1
8976.5 0
8977.5 0
8978.5 0
8979.5 0
8980.5 0
8981.5 -1.57143
8982.5 0
8983.5 0
8984.5 0
8985.5 1
8986.5 0
8987.5 0
8988.5 -1.57143
8989.5 0
8990.5 0
8991.5 0
8992.5 0
8993.5 -0.571429
8994.5 -1.57143
8995.5 0
8996.5 2
8997.5 1
8998.5 1
8999.5 0
9000.5 1
9001.5 2
9002.5 -1.57143
9003.5 0
9004.5 0
9005.5 0
9006.5 0
9007.5 0
9008.5 0
9009.5 1
9010.5 0
9011.5 -1.57143
9012.5 0
9013.5 0
9014.5 0
9015.5 2
9016.5 0
9017.5 -1.57143
9018.5 0
9019.5 0
9020.5 0
9021.5 1
9022.5 1
9023.5 0
9024.5 1
9025.5 0
9026.5 0
9027.5 -1.57143
9028.5 0
9029.5 0
9030.5 0
9031.5 0
9032.5 -1.57143
9033.5 0
9034.5 1
9035.5 -1.57143
9036.5 0
9037.5 0
9038.5 0
9039.5 0
9040.5 1
9041.5 -0.571429
9042.5 0
9043.5 0
9044.5 0
9045.5 0
9046.5 1
9047.5 0
9048.5 0
9049.5 0
9050.5 0
9051.5 0
9052.5 1
9053.5 0
9054.5 0
9055.5 0
9056.5 0
9057.5 2
9058.5 1
9059.5 -1.57143
9060.5 0
9061.5 0
9062.5 0
9063.5 1
9064.5 1
9065.5 0
9066.5 0
9067.5 0
9068.5 0
9069.5 0
9070.5 0
9071.5 0
9072.5 0
9073.5 0
9074.5 0
9075.5 0
9076.5 0
9077.5 2
9078.5 0
9079.5 0
9080.5 0
9081.5 1
9082.5 0
9083.5 0
9084.5 -1.57143
9085.5 0
9086.5 0
9087.5 -1.57143
9088.5 0
9089.5 0
9090.5 0
9091.5 0
9092.5 0
9093.5 0
9094.5 -0.571429
9095.5 -0.571429
9096.5 0
9097.5 0
9098.5 -1.57143
9099.5 1
9100.5 0
9101.5 0
9102.5 0
9103.5 -1.57143
9104.5 0
9105.5 0
9106.5 0
9107.5 0
9108.5 0
9109.5 0
9110.5 0
9111.5 0
9112.5 0
9113.5 -0.571429
9114.5 -0.571429
9115.5 2
9116.5 -1.57143
9117.5 0
9118.5 0
9119.5 0
9120.5 -1.57143
9121.5 0
9122.5 0
9123.5 -1.57143
9124.5 0
9125.5 0
9126.5 -1.57143
9127.5 0
9128.5 0
9129.5 -1.57143
9130.5 0
9131.5 0
9132.5 0
9133.5 0
9134.5 0
9135.5 -1.57143
9136.5 -1.57143
9137.5 0
9138.5 0
9139.5 0
9140.5 -0.571429
9141.5 -1.57143
9142.5 -1.57143
9143.5 0
9144.5 -1.57143
9145.5 0
9146.5 0
9147.5 0
9148.5 -0.571429
9149.5 0
9150.5 0
9151.5 0
9152.5 0
9153.5 0
9154.5 0
9155.5 0
9156.5 -1.57143
9157.5 0
9158.5 0
9159.5 0
9160.5 -1.57143
9161.5 0
9162.5 0
9163.5 0
9164.5 1
9165.5 -1.57143
9166.5 0
9167.5 0
9168.5 0
9169.5 1
9170.5 0
9171.5 0
9172.5 0
9173.5 0
9174.5 2
9175.5 0
9176.5 0
9177.5 0
9178.5 0
9179.5 0
9180.5 1
9181.5 0
9182.5 0
9183.5 0
9184.5 0
9185.5 0
9186.5 -1.57143
9187.5 0
9188.5 0
9189.5 0
9190.5 -1.57143
9191.5 1
9192.5 0
9193.5 0
9194.5 0
9195.5 0
9196.5 0
9197.5 0
9198.5 0
9199.5 0
9200.5 0
9201.5 0
9202.5 -1.57143
9203.5 0
9204.5 -3.14286
9205.5 1
9206.5 0
9207.5 0
9208.5 1
9209.5 -0.571429
9210.5 2
9211.5 0
9212.5 0
9213.5 1
9214.5 0
9215.5 1
9216.5 1
9217.5 0
9218.5 0
9219.5 0
9220.5 0
9221.5 0
9222.5 0
9223.5 0
9224.5 0
9225.5 0
9226.5 0
9227.5 0
9228.5 0
9229.5 0
9230.5 0
9231.5 0
9232.5 1
9233.5 1
9234.5 0
9235.5 0
9236.5 0
9237.5 0
9238.5 1
9239.5 0
9240.5 0
9241.5 0
9242.5 0
9243.5 0
9244.5 0
9245.5 0
9246.5 0
9247.5 0
9248.5 0
9249.5 0
9250.5 1
9251.5 0
9252.5 0
9253.5 0
9254.5 -1.57143
9255.5 0
9256.5 0
9257.5 0
9258.5 0
9259.5 0
9260.5 2
9261.5 0
9262.5 0
9263.5 0
9264.5 0
9265.5 -1.57143
9266.5 1
9267.5 1
9268.5 0
9269.5 0
9270.5 0
9271.5 0
9272.5 -0.571429
9273.5 1
9274.5 0
9275.5 0
9276.5 0
9277.5 0
9278.5 0
9279.5 0
9280.5 0
9281.5 0
9282.5 1
9283.5 0
9284.5 1
9285.5 2
9286.5 -1.57143
9287.5 0
9288.5 0
9289.5 0
9290.5 0
9291.5 -1.57143
9292.5 0
9293.5 0
9294.5 0
9295.5 0
9296.5 0
9297.5 0
9298.5 1
9299.5 0
9300.5 0
9301.5 1
9302.5 1
9303.5 0
9304.5 0
9305.5 -1.57143
9306.5 0
9307.5 2
9308.5 0
9309.5 -1.57143
9310.5 0
9311.5 0
9312.5 1
9313.5 0
9314.5 0
9315.5 0
9316.5 1
9317.5 0
9318.5 0
9319.5 0
9320.5 0
9321.5 1
9322.5 0
9323.5 0
9324.5 -1.57143
9325.5 0
9326.5 -1.57143
9327.5 -1.57143
9328.5 0
9329.5 0
9330.5 -1.57143
9331.5 0
9332.5 0
9333.5 0
9334.5 0
9335.5 0
9336.5 0
9337.5 0
9338.5 0
9339.5 0
9340.5 0
9341.5 0
9342.5 0
9343.5 0
9344.5 0
9345.5 0
9346.5 1
9347.5 0
9348.5 -1.57143
9349.5 -1.57143
9350.5 0
9351.5 0
9352.5 0
9353.5 0
9354.5 0
9355.5 0
9356.5 0
9357.5 0
9358.5 1
9359.5 0
9360.5 1
9361.5 0
9362.5 0
9363.5 1
9364.5 1
9365.5 0
9366.5 0
9367.5 0
9368.5 0
9369.5 -1.57143
9370.5 0
9371.5 0
9372.5 0
9373.5 0
9374.5 0
9375.5 0
9376.5 0
9377.5 0
9378.5 -1.57143
9379.5 0
9380.5 0
9381.5 0
9382.5 0
9383.5 0
9384.5 0
9385.5 0
9386.5 0
9387.5 0
9388.5 0
9389.5 0
9390.5 0
9391.5 0
9392.5 0
9393.5 0
9394.5 0
9395.5 0
9396.5 0
9397.5 -1.57143
9398.5 0
9399.5 0
9400.5 0
9401.5 0
9402.5 0
9403.5 -1.57143
9404.5 0
9405.5 0
9406.5 0
9407.5 0
9408.5 0
9409.5 1
9410.5 1
9411.5 -1.57143
9412.5 0
9413.5 1
9414.5 0
9415.5 0
9416.5 0
9417.5 0
9418.5 1
9419.5 0
9420.5 0
9421.5 -1.57143
9422.5 0
9423.5 0
9424.5 0
9425.5 0
9426.5 -0.571429
9427.5 0
9428.5 0
9429.5 1
9430.5 0
9431.5 0
9432.5 1
9433.5 0
9434.5 0
9435.5 0
9436.5 0
9437.5 0
9438.5 0
9439.5 0
9440.5 0
9441.5 1
9442.5 0
9443.5 0
9444.5 0
9445.5 0
9446.5 0
9447.5 0
9448.5 0
9449.5 0
9450.5 0
9451.5 -1.57143
9452.5 0
9453.5 0
9454.5 0
9455.5 1
9456.5 -3.14286
9457.5 1
9458.5 0
9459.5 -0.571429
9460.5 0
9461.5 0
9462.5 0
9463.5 0
9464.5 0
9465.5 1
9466.5 -1.57143
9467.5 -1.57143
9468.5 2
9469.5 1
9470.5 0
9471.5 0
9472.5 0
9473.5 0
9474.5 -0.571429
9475.5 0
9476.5 0
9477.5 0
9478.5 0
9479.5 0
9480.5 1
9481.5 0
9482.5 -1.57143
9483.5 0
9484.5 0
9485.5 0
9486.5 0
9487.5 1
9488.5 0
9489.5 0
9490.5 1
9491.5 0
9492.5 -3.14286
9493.5 0
9494.5 0
9495.5 0
9496.5 0
9497.5 0
9498.5 0
9499.5 0
9500.5 0
9501.5 -1.57143
9502.5 1
9503.5 0
9504.5 0
9505.5 1
9506.5 -0.571429
9507.5 0
9508.5 0
9509.5 0
9510.5 0
9511.5 1
9512.5 0
9513.5 1
9514.5 0
9515.5 0
9516.5 0
9517.5 0
9518.5 0
9519.5 0
9520.5 0
9521.5 0
9522.5 -1.57143
9523.5 0
9524.5 0
9525.5 0
9526.5 0
9527.5 0
9528.5 0
9529.5 0
9530.5 0
9531.5 0
9532.5 0
9533.5 0
9534.5 0
9535.5 0
9536.5 0
9537.5 0
9538.5 0
9539.5 0
9540.5 0
9541.5 0
9542.5 -1.57143
9543.5 0
9544.5 0
9545.5 0
9546.5 0
9547.5 0
9548.5 0
9549.5 0
9550.5 0
9551.5 0
9552.5 0
9553.5 0
9554.5 0
9555.5 1
9556.5 2
9557.5 1
9558.5 1
9559.5 1
9560.5 0
9561.5 0
9562.5 0
9563.5 0
9564.5 0
9565.5 0
9566.5 1
9567.5 0
9568.5 1
9569.5 0
9570.5 0
9571.5 0
9572.5 0
9573.5 0
9574.5 0
9575.5 0
9576.5 0
9577.5 0
9578.5 0
9579.5 0
9580.5 0
9581.5 0
9582.5 0
9583.5 0
9584.5 1
9585.5 0
9586.5 0
9587.5 0
9588.5 0
9589.5 -1.57143
9590.5 0
9591.5 0
9592.5 0
9593.5 0
9594.5 0
9595.5 0
9596.5 0
9597.5 0
9598.5 0
9599.5 -1.57143
9600.5 0
9601.5 1
9602.5 0
9603.5 0
9604.5 0
9605.5 1
9606.5 0
9607.5 0
9608.5 0
9609.5 1
9610.5 0
9611.5 0
9612.5 0
9613.5 0
9614.5 0
9615.5 0
9616.5 0
9617.5 1
9618.5 0
9619.5 0
9620.5 0
9621.5 0
9622.5 0
9623.5 1
9624.5 0
9625.5 0
9626.5 -1.57143
9627.5 0
9628.5 0
9629.5 0
9630.5 0
9631.5 0
9632.5 0
9633.5 0
9634.5 0
9635.5 0
9636.5 0
9637.5 0
9638.5 -1.57143
9639.5 0
9640.5 1
9641.5 0
9642.5 0
9643.5 0
9644.5 0
9645.5 0
9646.5 0
9647.5 0
9648.5 0
9649.5 0
9650.5 0
9651.5 0
9652.5 0
9653.5 0
9654.5 0
9655.5 0
9656.5 0
9657.5 0
9658.5 0
9659.5 0
9660.5 0
9661.5 0
9662.5 0
9663.5 1
9664.5 0
9665.5 1
9666.5 0
9667.5 0
9668.5 -3.14286
9669.5 -1.57143
9670.5 0
9671.5 0
9672.5 0
9673.5 0
9674.5 0
9675.5 0
9676.5 0
9677.5 0
9678.5 0
9679.5 0
9680.5 0
9681.5 0
9682.5 0
9683.5 0
9684.5 0
9685.5 0
9686.5 0
9687.5 0
9688.5 0
9689.5 0
9690.5 0
9691.5 0
9692.5 0
9693.5 0
9694.5 0
9695.5 0
9696.5 0
9697.5 1
9698.5 0
9699.5 -1.57143
9700.5 0
9701.5 0
9702.5 0
9703.5 0
9704.5 0
9705.5 0
9706.5 0
9707.5 1
9708.5 0
9709.5 -1.57143
9710.5 0
9711.5 1
9712.5 0
9713.5 1
9714.5 0
9715.5 0
9716.5 0
9717.5 0
9718.5 0
9719.5 0
9720.5 0
9721.5 0
9722.5 0
9723.5 0
9724.5 0
9725.5 0
9726.5 0
9727.5 0
9728.5 0
9729.5 0
9730.5 -1.57143
9731.5 0
9732.5 0
9733.5 0
9734.5 0
9735.5 0
9736.5 0
9737.5 0
9738.5 1
9739.5 0
9740.5 0
9741.5 0
9742.5 0
9743.5 0
9744.5 0
9745.5 1
9746.5 0
9747.5 0
9748.5 0
9749.5 0
9750.5 0
9751.5 0
9752.5 1
9753.5 0
9754.5 -1.57143
9755.5 0
9756.5 0
9757.5 0
9758.5 0
9759.5 0
9760.5 0
9761.5 0
9762.5 1
9763.5 0
9764.5 0
9765.5 0
9766.5 0
9767.5 0
9768.5 0
9769.5 0
9770.5 0
9771.5 0
9772.5 0
9773.5 0
9774.5 0
9775.5 0
9776.5 0
9777.5 0
9778.5 0
9779.5 0
9780.5 0
9781.5 1
9782.5 0
9783.5 0
9784.5 0
9785.5 0
9786.5 0
9787.5 0
9788.5 0
9789.5 0
9790.5 0
9791.5 0
9792.5 0
9793.5 1
9794.5 0
9795.5 0
9796.5 1
9797.5 0
9798.5 0
9799.5 0
9800.5 0
9801.5 0
9802.5 0
9803.5 0
9804.5 0
9805.5 0
9806.5 0
9807.5 0
9808.5 0
9809.5 0
9810.5 0
9811.5 0
9812.5 0
9813.5 0
9814.5 0
9815.5 1
9816.5 0
9817.5 0
9818.5 0
9819.5 0
9820.5 0
9821.5 0
9822.5 0
9823.5 0
9824.5 0
9825.5 0
9826.5 0
9827.5 0
9828.5 0
9829.5 0
9830.5 0
9831.5 0
9832.5 0
9833.5 0
9834.5 0
9835.5 0
9836.5 0
9837.5 0
9838.5 0
9839.5 0
9840.5 0
9841.5 0
9842.5 0
9843.5 -1.57143
9844.5 1
9845.5 0
9846.5 0
9847.5 0
9848.5 0
9849.5 0
9850.5 0
9851.5 0
9852.5 0
9853.5 0
9854.5 0
9855.5 0
9856.5 0
9857.5 0
9858.5 0
9859.5 0
9860.5 0
9861.5 0
9862.5 0
9863.5 0
9864.5 0
9865.5 0
9866.5 0
9867.5 0
9868.5 1
9869.5 0
9870.5 1
9871.5 0
9872.5 -1.57143
9873.5 0
9874.5 0
9875.5 0
9876.5 0
9877.5 0
9878.5 0
9879.5 0
9880.5 0
9881.5 0
9882.5 0
9883.5 0
9884.5 0
9885.5 0
9886.5 0
9887.5 0
9888.5 0
9889.5 0
9890.5 0
9891.5 0
9892.5 0
9893.5 -0.571429
9894.5 0
9895.5 0
9896.5 0
9897.5 0
9898.5 0
9899.5 0
9900.5 0
9901.5 0
9902.5 0
9903.5 0
9904.5 0
9905.5 0
9906.5 0
9907.5 0
9908.5 0
9909.5 0
9910.5 0
9911.5 0
9912.5 0
9913.5 0
9914.5 0
9915.5 0
9916.5 0
9917.5 0
9918.5 0
9919.5 0
9920.5 0
9921.5 0
9922.5 0
9923.5 0
9924.5 0
9925.5 0
9926.5 0
9927.5 0
9928.5 1
9929.5 0
9930.5 0
9931.5 0
9932.5 0
9933.5 0
9934.5 0
9935.5 -1.57143
9936.5 0
9937.5 0
9938.5 0
9939.5 0
9940.5 0
9941.5 1
9942.5 0
9943.5 0
9944.5 0
9945.5 0
9946.5 0
9947.5 0
9948.5 0
9949.5 0
9950.5 0
9951.5 0
9952.5 0
9953.5 0
9954.5 0
9955.5 0
9956.5 0
9957.5 0
9958.5 0
9959.5 0
9960.5 0
9961.5 0
9962.5 0
9963.5 0
9964.5 0
9965.5 0
9966.5 0
9967.5 0
9968.5 0
9969.5 0
9970.5 0
9971.5 0
9972.5 0
9973.5 0
9974.5 0
9975.5 0
9976.5 0
9977.5 0
9978.5 0
9979.5 0
9980.5 0
9981.5 -1.57143
9982.5 0
9983.5 0
9984.5 0
9985.5 0
9986.5 0
9987.5 0
9988.5 0
9989.5 0
9990.5 0
9991.5 0
9992.5 0
9993.5 0
9994.5 0
9995.5 0
9996.5 0
9997.5 0
9998.5 0
9999.5 0
10000.5 0
10001.5 0
10002.5 0
10003.5 0
10004.5 0
10005.5 0
10006.5 0
10007.5 0
10008.5 0
10009.5 1
10010.5 1
10011.5 0
10012.5 0
10013.5 0
10014.5 0
10015.5 0
10016.5 0
10017.5 0
10018.5 0
10019.5 0
10020.5 0
10021.5 0
10022.5 0
10023.5 0
10024.5 0
10025.5 0
10026.5 0
10027.5 0
10028.5 0
10029.5 0
10030.5 0
10031.5 0
10032.5 0
10033.5 0
10034.5 0
10035.5 0
10036.5 0
10037.5 0
10038.5 0
10039.5 0
10040.5 0
10041.5 0
10042.5 0
10043.5 0
10044.5 0
10045.5 0
10046.5 0
10047.5 0
10048.5 0
10049.5 0
10050.5 1
10051.5 0
10052.5 0
10053.5 0
10054.5 0
10055.5 0
10056.5 0
10057.5 0
10058.5 -1.57143
10059.5 0
10060.5 0
10061.5 1
10062.5 0
10063.5 0
10064.5 0
10065.5 0
10066.5 0
10067.5 0
10068.5 0
10069.5 0
10070.5 0
10071.5 0
10072.5 0
10073.5 0
10074.5 0
10075.5 0
10076.5 0
10077.5 0
10078.5 0
10079.5 0
10080.5 0
10081.5 0
10082.5 -1.57143
10083.5 0
10084.5 0
10085.5 0
10086.5 0
10087.5 0
10088.5 0
10089.5 0
10090.5 1
10091.5 0
10092.5 0
10093.5 0
10094.5 0
10095.5 0
10096.5 0
10097.5 0
10098.5 0
10099.5 0
10100.5 0
10101.5 0
10102.5 0
10103.5 0
10104.5 0
10105.5 0
10106.5 0
10107.5 0
10108.5 0
10109.5 0
10110.5 0
10111.5 0
10112.5 0
10113.5 0
10114.5 0
10115.5 0
10116.5 0
10117.5 0
10118.5 0
10119.5 0
10120.5 0
10121.5 0
10122.5 0
10123.5 0
10124.5 0
10125.5 0
10126.5 0
10127.5 0
10128.5 0
10129.5 0
10130.5 0
10131.5 0
10132.5 0
10133.5 0
10134.5 0
10135.5 0
10136.5 0
10137.5 0
10138.5 0
10139.5 0
10140.5 0
10141.5 0
10142.5 0
10143.5 1
10144.5 0
10145.5 1
10146.5 0
10147.5 0
10148.5 0
10149.5 0
10150.5 0
10151.5 0
10152.5 0
10153.5 0
10154.5 0
10155.5 0
10156.5 0
10157.5 0
10158.5 0
10159.5 0
10160.5 0
10161.5 0
10162.5 0
10163.5 0
10164.5 0
10165.5 0
10166.5 0
10167.5 0
10168.5 0
10169.5 0
10170.5 0
10171.5 0
10172.5 0
10173.5 0
10174.5 1
10175.5 0
10176.5 0
10177.5 -1.57143
10178.5 0
10179.5 0
10180.5 0
10181.5 0
10182.5 0
10183.5 0
10184.5 0
10185.5 0
10186.5 0
10187.5 0
10188.5 0
10189.5 0
10190.5 0
10191.5 0
10192.5 0
10193.5 0
10194.5 0
10195.5 0
10196.5 0
10197.5 -1.57143
10198.5 0
10199.5 0
10200.5 0
10201.5 0
10202.5 0
10203.5 0
10204.5 0
10205.5 0
10206.5 0
10207.5 0
10208.5 0
10209.5 0
10210.5 0
10211.5 0
10212.5 0
10213.5 0
10214.5 0
10215.5 0
10216.5 0
10217.5 0
10218.5 0
10219.5 0
10220.5 0
10221.5 0
10222.5 0
10223.5 0
10224.5 0
10225.5 0
10226.5 0
10227.5 0
10228.5 0
10229.5 0
10230.5 0
10231.5 0
10232.5 0
10233.5 0
10234.5 1
10235.5 1
10236.5 0
10237.5 0
10238.5 0
10239.5 0
10240.5 -1.57143
10241.5 0
10242.5 0
10243.5 0
10244.5 0
10245.5 0
10246.5 0
10247.5 0
10248.5 0
10249.5 0
10250.5 0
10251.5 0
10252.5 0
10253.5 0
10254.5 0
10255.5 0
10256.5 0
10257.5 0
10258.5 0
10259.5 0
10260.5 0
10261.5 0
10262.5 0
10263.5 0
10264.5 0
10265.5 0
10266.5 0
10267.5 0
10268.5 -1.57143
10269.5 0
10270.5 0
10271.5 0
10272.5 0
10273.5 0
10274.5 0
10275.5 0
10276.5 0
10277.5 0
10278.5 0
10279.5 0
10280.5 0
10281.5 0
10282.5 0
10283.5 0
10284.5 0
10285.5 0
10286.5 0
10287.5 0
10288.5 0
10289.5 0
10290.5 0
10291.5 0
10292.5 0
10293.5 -1.57143
10294.5 0
10295.5 0
10296.5 0
10297.5 0
10298.5 0
10299.5 0
10300.5 0
10301.5 0
10302.5 0
10303.5 0
10304.5 0
10305.5 0
10306.5 0
10307.5 0
10308.5 0
10309.5 0
10310.5 0
10311.5 0
10312.5 0
10313.5 0
10314.5 0
10315.5 0
10316.5 0
10317.5 0
10318.5 0
10319.5 0
10320.5 0
10321.5 0
10322.5 0
10323.5 0
10324.5 0
10325.5 1
10326.5 0
10327.5 0
10328.5 0
10329.5 0
10330.5 0
10331.5 0
10332.5 0
10333.5 0
10334.5 0
10335.5 0
10336.5 0
10337.5 0
10338.5 0
10339.5 0
10340.5 0
10341.5 0
10342.5 0
10343.5 0
10344.5 0
10345.5 0
10346.5 0
10347.5 0
10348.5 0
10349.5 0
10350.5 0
10351.5 0
10352.5 0
10353.5 0
10354.5 0
10355.5 0
10356.5 0
10357.5 0
10358.5 0
10359.5 0
10360.5 0
10361.5 0
10362.5 0
10363.5 0
10364.5 0
10365.5 0
10366.5 0
10367.5 0
10368.5 0
10369.5 -1.57143
10370.5 0
10371.5 0
10372.5 0
10373.5 0
10374.5 0
10375.5 0
10376.5 0
10377.5 0
10378.5 0
10379.5 0
10380.5 0
10381.5 0
10382.5 0
10383.5 0
10384.5 0
10385.5 1
10386.5 0
10387.5 0
10388.5 0
10389.5 0
10390.5 0
10391.5 0
10392.5 0
10393.5 0
10394.5 0
10395.5 0
10396.5 0
10397.5 0
10398.5 0
10399.5 0
10400.5 0
10401.5 0
10402.5 0
10403.5 0
10404.5 0
10405.5 0
10406.5 0
10407.5 0
10408.5 0
10409.5 0
10410.5 0
10411.5 0
10412.5 0
10413.5 0
10414.5 0
10415.5 0
10416.5 0
10417.5 0
10418.5 0
10419.5 0
10420.5 0
10421.5 0
10422.5 0
10423.5 0
10424.5 0
10425.5 0
10426.5 0
10427.5 0
10428.5 0
10429.5 0
10430.5 0
10431.5 0
10432.5 0
10433.5 0
10434.5 0
10435.5 0
10436.5 0
10437.5 0
10438.5 0
10439.5 0
10440.5 0
10441.5 0
10442.5 0
10443.5 0
10444.5 0
10445.5 0
10446.5 0
10447.5 0
10448.5 0
10449.5 0
10450.5 0
10451.5 0
10452.5 0
10453.5 0
10454.5 -1.57143
10455.5 0
10456.5 0
10457.5 0
10458.5 0
10459.5 0
10460.5 0
10461.5 0
10462.5 -1.57143
10463.5 0
10464.5 0
10465.5 0
10466.5 0
10467.5 0
10468.5 0
10469.5 0
10470.5 0
10471.5 0
10472.5 0
10473.5 0
10474.5 0
10475.5 0
10476.5 0
10477.5 0
10478.5 0
10479.5 0
10480.5 0
10481.5 0
10482.5 0
10483.5 0
10484.5 0
10485.5 0
10486.5 0
10487.5 0
10488.5 0
10489.5 0
10490.5 0
10491.5 0
10492.5 0
10493.5 0
10494.5 0
10495.5 0
10496.5 0
10497.5 0
10498.5 0
10499.5 0
10500.5 0
10501.5 0
10502.5 0
10503.5 0
10504.5 0
10505.5 0
10506.5 0
10507.5 0
10508.5 0
10509.5 0
10510.5 0
10511.5 0
10512.5 0
10513.5 0
10514.5 0
10515.5 0
10516.5 0
10517.5 0
10518.5 0
10519.5 0
10520.5 0
10521.5 0
10522.5 0
10523.5 0
10524.5 0
10525.5 0
10526.5 0
10527.5 0
10528.5 0
10529.5 0
10530.5 0
10531.5 0
10532.5 0
10533.5 0
10534.5 0
10535.5 0
10536.5 0
10537.5 0
10538.5 0
10539.5 0
10540.5 0
10541.5 0
10542.5 -1.57143
10543.5 0
10544.5 0
10545.5 0
10546.5 0
10547.5 0
10548.5 0
10549.5 0
10550.5 0
10551.5 0
10552.5 0
10553.5 0
10554.5 0
10555.5 0
10556.5 0
10557.5 0
10558.5 0
10559.5 0
10560.5 0
10561.5 0
10562.5 1
10563.5 0
10564.5 0
10565.5 0
10566.5 0
10567.5 0
10568.5 0
10569.5 0
10570.5 0
10571.5 0
10572.5 0
10573.5 0
10574.5 0
10575.5 0
10576.5 0
10577.5 0
10578.5 0
10579.5 0
10580.5 0
10581.5 0
10582.5 0
10583.5 0
10584.5 0
10585.5 0
10586.5 0
10587.5 0
10588.5 0
10589.5 0
10590.5 0
10591.5 0
10592.5 0
10593.5 0
10594.5 0
10595.5 0
10596.5 0
10597.5 0
10598.5 0
10599.5 0
10600.5 0
10601.5 0
10602.5 0
10603.5 0
10604.5 0
10605.5 0
10606.5 0
10607.5 -1.57143
10608.5 0
10609.5 0
10610.5 0
10611.5 0
10612.5 0
10613.5 0
10614.5 0
10615.5 0
10616.5 0
10617.5 0
10618.5 0
10619.5 0
10620.5 0
10621.5 0
10622.5 0
10623.5 0
10624.5 0
10625.5 0
10626.5 0
10627.5 0
10628.5 0
10629.5 0
10630.5 0
10631.5 0
10632.5 0
10633.5 0
10634.5 0
10635.5 0
10636.5 0
10637.5 0
10638.5 0
10639.5 0
10640.5 0
10641.5 0
10642.5 0
10643.5 0
10644.5 0
10645.5 0
10646.5 0
10647.5 0
10648.5 0
10649.5 1
10650.5 0
10651.5 0
10652.5 1
10653.5 0
10654.5 0
10655.5 0
10656.5 0
10657.5 0
10658.5 0
10659.5 0
10660.5 0
10661.5 0
10662.5 0
10663.5 0
10664.5 0
10665.5 0
10666.5 0
10667.5 0
10668.5 0
10669.5 0
10670.5 0
10671.5 0
10672.5 0
10673.5 0
10674.5 0
10675.5 0
10676.5 0
10677.5 0
10678.5 0
10679.5 0
10680.5 0
10681.5 0
10682.5 0
10683.5 0
10684.5 0
10685.5 0
10686.5 0
10687.5 0
10688.5 0
10689.5 0
10690.5 0
10691.5 0
10692.5 0
10693.5 0
10694.5 0
10695.5 0
10696.5 0
10697.5 0
10698.5 0
10699.5 0
10700.5 0
10701.5 0
10702.5 0
10703.5 0
10704.5 0
10705.5 0
10706.5 0
10707.5 0
10708.5 0
10709.5 0
10710.5 0
10711.5 0
10712.5 0
10713.5 0
10714.5 0
10715.5 -1.57143
10716.5 0
10717.5 -1.57143
10718.5 0
10719.5 0
10720.5 0
10721.5 0
10722.5 0
10723.5 0
10724.5 0
10725.5 0
10726.5 0
10727.5 0
10728.5 0
10729.5 0
10730.5 0
10731.5 0
10732.5 0
10733.5 0
10734.5 0
10735.5 0
10736.5 0
10737.5 0
10738.5 0
10739.5 0
10740.5 0
10741.5 1
10742.5 0
10743.5 0
10744.5 0
10745.5 0
10746.5 0
10747.5 0
10748.5 0
10749.5 0
10750.5 0
10751.5 0
10752.5 0
10753.5 0
10754.5 0
10755.5 0
10756.5 0
10757.5 0
10758.5 0
10759.5 0
10760.5 0
10761.5 0
10762.5 0
10763.5 0
10764.5 0
10765.5 0
10766.5 0
10767.5 0
10768.5 0
10769.5 0
10770.5 0
10771.5 0
10772.5 0
10773.5 0
10774.5 0
10775.5 0
10776.5 0
10777.5 0
10778.5 0
10779.5 0
10780.5 0
10781.5 0
10782.5 0
10783.5 0
10784.5 0
10785.5 1
10786.5 0
10787.5 0
10788.5 0
10789.5 0
10790.5 0
10791.5 0
10792.5 0
10793.5 0
10794.5 0
10795.5 0
10796.5 0
10797.5 0
10798.5 0
10799.5 0
10800.5 0
10801.5 0
10802.5 0
10803.5 0
10804.5 0
10805.5 0
10806.5 0
10807.5 0
10808.5 0
10809.5 0
10810.5 0
10811.5 0
10812.5 0
10813.5 0
10814.5 0
10815.5 0
10816.5 0
10817.5 0
10818.5 0
10819.5 0
10820.5 0
10821.5 0
10822.5 0
10823.5 0
10824.5 0
10825.5 0
10826.5 0
10827.5 0
10828.5 0
10829.5 0
10830.5 0
10831.5 0
10832.5 0
10833.5 0
10834.5 0
10835.5 0
10836.5 0
10837.5 0
10838.5 0
10839.5 0
10840.5 0
10841.5 0
10842.5 0
10843.5 0
10844.5 0
10845.5 0
10846.5 0
10847.5 0
10848.5 0
10849.5 0
10850.5 0
10851.5 0
10852.5 0
10853.5 0
10854.5 0
10855.5 0
10856.5 0
10857.5 0
10858.5 0
10859.5 0
10860.5 0
10861.5 0
10862.5 0
10863.5 0
10864.5 0
10865.5 0
10866.5 0
10867.5 0
10868.5 0
10869.5 0
10870.5 0
10871.5 0
10872.5 0
10873.5 0
10874.5 0
10875.5 0
10876.5 0
10877.5 0
10878.5 0
10879.5 0
10880.5 0
10881.5 0
10882.5 0
10883.5 0
10884.5 0
10885.5 0
10886.5 0
10887.5 0
10888.5 0
10889.5 0
10890.5 0
10891.5 0
10892.5 0
10893.5 0
10894.5 0
10895.5 0
10896.5 0
10897.5 0
10898.5 0
10899.5 0
10900.5 0
10901.5 0
10902.5 0
10903.5 1
10904.5 0
10905.5 0
10906.5 0
10907.5 0
10908.5 0
10909.5 0
10910.5 0
10911.5 0
10912.5 0
10913.5 0
10914.5 0
10915.5 0
10916.5 0
10917.5 0
10918.5 0
10919.5 0
10920.5 0
10921.5 0
10922.5 0
10923.5 0
10924.5 0
10925.5 0
10926.5 0
10927.5 0
10928.5 0
10929.5 0
10930.5 0
10931.5 0
10932.5 0
10933.5 0
10934.5 0
10935.5 0
10936.5 0
10937.5 0
10938.5 0
10939.5 0
10940.5 0
10941.5 0
10942.5 0
10943.5 0
10944.5 0
10945.5 0
10946.5 0
10947.5 0
10948.5 0
10949.5 0
10950.5 0
10951.5 0
10952.5 0
10953.5 0
10954.5 0
10955.5 0
10956.5 0
10957.5 0
10958.5 0
10959.5 0
10960.5 0
10961.5 0
10962.5 0
10963.5 0
10964.5 0
10965.5 0
10966.5 0
10967.5 0
10968.5 0
10969.5 0
10970.5 0
10971.5 0
10972.5 0
10973.5 0
10974.5 0
10975.5 0
10976.5 0
10977.5 0
10978.5 0
10979.5 0
10980.5 0
10981.5 0
10982.5 0
10983.5 0
10984.5 0
10985.5 0
10986.5 0
10987.5 0
10988.5 0
10989.5 0
10990.5 0
10991.5 0
10992.5 0
10993.5 0
10994.5 0
10995.5 0
10996.5 0
10997.5 0
10998.5 0
10999.5 0
11000.5 0
11001.5 0
11002.5 0
11003.5 0
11004.5 0
11005.5 0
11006.5 0
11007.5 0
11008.5 0
11009.5 0
11010.5 0
11011.5 0
11012.5 0
11013.5 0
11014.5 0
11015.5 0
11016.5 0
11017.5 0
11018.5 0
11019.5 0
11020.5 0
11021.5 0
11022.5 0
11023.5 0
11024.5 0
11025.5 0
11026.5 0
11027.5 0
11028.5 0
11029.5 1
11030.5 0
11031.5 0
11032.5 0
11033.5 0
11034.5 0
11035.5 0
11036.5 0
11037.5 0
11038.5 0
11039.5 0
11040.5 0
11041.5 0
11042.5 0
11043.5 0
11044.5 0
11045.5 0
11046.5 0
11047.5 0
11048.5 0
11049.5 0
11050.5 0
11051.5 -1.57143
11052.5 0
11053.5 0
11054.5 0
11055.5 0
11056.5 0
11057.5 0
11058.5 0
11059.5 0
11060.5 0
11061.5 0
11062.5 0
11063.5 0
11064.5 0
11065.5 0
11066.5 0
11067.5 0
11068.5 0
11069.5 0
11070.5 0
11071.5 0
11072.5 0
11073.5 0
11074.5 0
11075.5 0
11076.5 0
11077.5 0
11078.5 0
11079.5 0
11080.5 0
11081.5 0
11082.5 0
11083.5 0
11084.5 0
11085.5 0
11086.5 0
11087.5 0
11088.5 0
11089.5 0
11090.5 -1.57143
11091.5 0
11092.5 0
11093.5 0
11094.5 0
11095.5 0
11096.5 0
11097.5 0
11098.5 0
11099.5 0
11100.5 0
11101.5 0
11102.5 0
11103.5 0
11104.5 0
11105.5 0
11106.5 0
11107.5 0
11108.5 0
11109.5 0
11110.5 0
11111.5 0
11112.5 0
11113.5 0
11114.5 0
11115.5 0
11116.5 0
11117.5 0
11118.5 0
11119.5 0
11120.5 0
11121.5 0
11122.5 0
11123.5 0
11124.5 0
11125.5 0
11126.5 0
11127.5 0
11128.5 0
11129.5 0
11130.5 0
11131.5 0
11132.5 0
11133.5 0
11134.5 0
11135.5 0
11136.5 0
11137.5 0
11138.5 0
11139.5 0
11140.5 0
11141.5 0
11142.5 0
11143.5 0
11144.5 0
11145.5 0
11146.5 0
11147.5 0
11148.5 0
11149.5 0
11150.5 0
11151.5 0
11152.5 0
11153.5 0
11154.5 0
11155.5 0
11156.5 0
11157.5 0
11158.5 0
11159.5 0
11160.5 0
11161.5 0
11162.5 0
11163.5 0
11164.5 0
11165.5 0
11166.5 0
11167.5 0
11168.5 0
11169.5 0
11170.5 0
11171.5 0
11172.5 0
11173.5 0
11174.5 0
11175.5 0
11176.5 0
11177.5 0
11178.5 0
11179.5 0
11180.5 0
11181.5 0
11182.5 0
11183.5 0
11184.5 0
11185.5 0
11186.5 0
11187.5 0
11188.5 0
11189.5 0
11190.5 0
11191.5 0
11192.5 0
11193.5 0
11194.5 0
11195.5 0
11196.5 0
11197.5 0
11198.5 0
11199.5 0
11200.5 0
11201.5 0
11202.5 0
11203.5 0
11204.5 0
11205.5 0
11206.5 0
11207.5 0
11208.5 0
11209.5 0
11210.5 0
11211.5 0
11212.5 0
11213.5 0
11214.5 0
11215.5 0
11216.5 0
11217.5 0
11218.5 0
11219.5 0
11220.5 0
11221.5 0
11222.5 0
11223.5 0
11224.5 0
11225.5 0
11226.5 0
11227.5 0
11228.5 0
11229.5 0
11230.5 0
11231.5 0
11232.5 0
11233.5 0
11234.5 0
11235.5 0
11236.5 0
11237.5 0
11238.5 0
11239.5 0
11240.5 0
11241.5 0
11242.5 0
11243.5 0
11244.5 0
11245.5 0
11246.5 0
11247.5 0
11248.5 0
11249.5 0
11250.5 0
11251.5 0
11252.5 0
11253.5 0
11254.5 0
11255.5 0
11256.5 0
11257.5 0
11258.5 0
11259.5 0
11260.5 0
11261.5 0
11262.5 0
11263.5 0
11264.5 0
11265.5 0
11266.5 0
11267.5 0
11268.5 0
11269.5 0
11270.5 0
11271.5 0
11272.5 0
11273.5 0
11274.5 0
11275.5 0
11276.5 0
11277.5 0
11278.5 0
11279.5 0
11280.5 0
11281.5 0
11282.5 0
11283.5 0
11284.5 0
11285.5 0
11286.5 0
11287.5 0
11288.5 0
11289.5 0
11290.5 0
11291.5 0
11292.5 0
11293.5 0
11294.5 0
11295.5 0
11296.5 0
11297.5 0
11298.5 0
11299.5 0
11300.5 0
11301.5 0
11302.5 0
11303.5 0
11304.5 0
11305.5 0
11306.5 0
11307.5 0
11308.5 0
11309.5 0
11310.5 0
11311.5 0
11312.5 0
11313.5 0
11314.5 0
11315.5 0
11316.5 0
11317.5 0
11318.5 0
11319.5 0
11320.5 0
11321.5 -1.57143
11322.5 0
11323.5 0
11324.5 0
11325.5 0
11326.5 0
11327.5 0
11328.5 0
11329.5 0
11330.5 0
11331.5 0
11332.5 0
11333.5 0
11334.5 0
11335.5 0
11336.5 0
11337.5 0
11338.5 0
11339.5 0
11340.5 0
11341.5 0
11342.5 0
11343.5 0
11344.5 0
11345.5 0
11346.5 0
11347.5 0
11348.5 0
11349.5 0
11350.5 1
11351.5 0
11352.5 0
11353.5 0
11354.5 0
11355.5 0
11356.5 0
11357.5 0
11358.5 0
11359.5 0
11360.5 0
11361.5 0
11362.5 0
11363.5 0
11364.5 0
11365.5 0
11366.5 0
11367.5 0
11368.5 0
11369.5 0
11370.5 0
11371.5 0
11372.5 0
11373.5 0
11374.5 0
11375.5 0
11376.5 0
11377.5 0
11378.5 0
11379.5 0
11380.5 0
11381.5 0
11382.5 0
11383.5 0
11384.5 0
11385.5 0
11386.5 0
11387.5 0
11388.5 0
11389.5 0
11390.5 0
11391.5 0
11392.5 0
11393.5 0
11394.5 0
11395.5 0
11396.5 0
11397.5 0
11398.5 0
11399.5 0
11400.5 0
11401.5 0
11402.5 0
11403.5 0
11404.5 0
11405.5 0
11406.5 0
11407.5 0
11408.5 0
11409.5 0
11410.5 0
11411.5 0
11412.5 0
11413.5 0
11414.5 0
11415.5 0
11416.5 0
11417.5 0
11418.5 0
11419.5 0
11420.5 0
11421.5 0
11422.5 0
11423.5 0
11424.5 0
11425.5 0
11426.5 0
11427.5 0
11428.5 0
11429.5 0
11430.5 0
11431.5 0
11432.5 0
11433.5 0
11434.5 0
11435.5 0
11436.5 0
11437.5 0
11438.5 0
11439.5 0
11440.5 0
11441.5 0
11442.5 0
11443.5 0
11444.5 0
11445.5 0
11446.5 0
11447.5 0
11448.5 0
11449.5 0
11450.5 0
11451.5 0
11452.5 0
11453.5 0
11454.5 0
11455.5 0
11456.5 0
11457.5 0
11458.5 0
11459.5 0
11460.5 0
11461.5 0
11462.5 0
11463.5 0
11464.5 0
11465.5 0
11466.5 0
11467.5 0
11468.5 0
11469.5 0
11470.5 0
11471.5 0
11472.5 0
11473.5 0
11474.5 0
11475.5 0
11476.5 0
11477.5 0
11478.5 0
11479.5 -1.57143
11480.5 0
11481.5 0
11482.5 0
11483.5 0
11484.5 0
11485.5 0
11486.5 0
11487.5 0
11488.5 0
11489.5 0
11490.5 0
11491.5 0
11492.5 0
11493.5 0
11494.5 0
11495.5 0
11496.5 0
11497.5 0
11498.5 0
11499.5 0
11500.5 0
11501.5 0
11502.5 0
11503.5 0
11504.5 0
11505.5 0
11506.5 0
11507.5 0
11508.5 0
11509.5 0
11510.5 0
11511.5 0
11512.5 0
11513.5 0
11514.5 0
11515.5 0
11516.5 0
11517.5 0
11518.5 0
11519.5 0
11520.5 0
11521.5 0
11522.5 0
11523.5 0
11524.5 0
11525.5 0
11526.5 0
11527.5 0
11528.5 0
11529.5 0
11530.5 0
11531.5 0
11532.5 0
11533.5 0
11534.5 0
11535.5 0
11536.5 0
11537.5 0
11538.5 0
11539.5 0
11540.5 0
11541.5 0
11542.5 0
11543.5 0
11544.5 0
11545.5 0
11546.5 0
11547.5 0
11548.5 0
11549.5 0
11550.5 0
11551.5 0
11552.5 0
11553.5 0
11554.5 0
11555.5 0
11556.5 0
11557.5 0
11558.5 0
11559.5 0
11560.5 0
11561.5 0
11562.5 0
11563.5 0
11564.5 0
11565.5 0
11566.5 0
11567.5 0
11568.5 0
11569.5 0
11570.5 0
11571.5 0
11572.5 0
11573.5 0
11574.5 0
11575.5 0
11576.5 0
11577.5 0
11578.5 0
11579.5 0
11580.5 0
11581.5 0
11582.5 0
11583.5 0
11584.5 0
11585.5 0
11586.5 0
11587.5 0
11588.5 0
11589.5 0
11590.5 0
11591.5 0
11592.5 0
11593.5 0
11594.5 0
11595.5 0
11596.5 0
11597.5 0
11598.5 0
11599.5 0
11600.5 0
11601.5 0
11602.5 0
11603.5 0
11604.5 0
11605.5 0
11606.5 0
11607.5 0
11608.5 0
11609.5 0
11610.5 0
11611.5 0
11612.5 0
11613.5 0
11614.5 1
11615.5 0
11616.5 0
11617.5 0
11618.5 0
11619.5 0
11620.5 0
11621.5 0
11622.5 0
11623.5 0
11624.5 0
11625.5 0
11626.5 0
11627.5 0
11628.5 0
11629.5 0
11630.5 0
11631.5 0
11632.5 0
11633.5 0
11634.5 0
11635.5 0
11636.5 0
11637.5 0
11638.5 0
11639.5 0
11640.5 0
11641.5 0
11642.5 0
11643.5 0
11644.5 0
11645.5 0
11646.5 0
11647.5 0
11648.5 0
11649.5 0
11650.5 0
11651.5 0
11652.5 0
11653.5 0
11654.5 0
11655.5 0
11656.5 0
11657.5 0
11658.5 0
11659.5 0
11660.5 -1.57143
11661.5 0
11662.5 0
11663.5 0
11664.5 0
11665.5 0
11666.5 0
11667.5 0
11668.5 0
11669.5 0
11670.5 0
11671.5 0
11672.5 0
11673.5 0
11674.5 0
11675.5 0
11676.5 0
11677.5 0
11678.5 0
11679.5 0
11680.5 0
11681.5 0
11682.5 0
11683.5 0
11684.5 0
11685.5 0
11686.5 0
11687.5 0
11688.5 0
11689.5 0
11690.5 0
11691.5 0
11692.5 0
11693.5 0
11694.5 0
11695.5 0
11696.5 0
11697.5 0
11698.5 0
11699.5 0
11700.5 0
11701.5 0
11702.5 0
11703.5 0
11704.5 0
11705.5 0
11706.5 0
11707.5 0
11708.5 0
11709.5 0
11710.5 0
11711.5 0
11712.5 0
11713.5 0
11714.5 0
11715.5 0
11716.5 0
11717.5 0
11718.5 0
11719.5 0
11720.5 0
11721.5 0
11722.5 0
11723.5 0
11724.5 0
11725.5 0
11726.5 0
11727.5 0
11728.5 0
11729.5 0
11730.5 0
11731.5 0
11732.5 0
11733.5 0
11734.5 0
11735.5 0
11736.5 0
11737.5 0
11738.5 0
11739.5 0
11740.5 0
11741.5 0
11742.5 0
11743.5 0
11744.5 0
11745.5 0
11746.5 0
11747.5 0
11748.5 0
11749.5 0
11750.5 0
11751.5 0
11752.5 0
11753.5 0
11754.5 0
11755.5 0
11756.5 0
11757.5 0
11758.5 0
11759.5 0
11760.5 0
11761.5 0
11762.5 1
11763.5 0
11764.5 0
11765.5 0
11766.5 0
11767.5 0
11768.5 0
11769.5 0
11770.5 0
11771.5 0
11772.5 0
11773.5 0
11774.5 0
11775.5 0
11776.5 0
11777.5 0
11778.5 0
11779.5 0
11780.5 0
11781.5 0
11782.5 0
11783.5 0
11784.5 0
11785.5 0
11786.5 0
11787.5 0
11788.5 0
11789.5 0
11790.5 0
11791.5 0
11792.5 0
11793.5 0
11794.5 0
11795.5 0
11796.5 0
11797.5 0
11798.5 0
11799.5 0
11800.5 0
11801.5 0
11802.5 0
11803.5 0
11804.5 0
11805.5 0
11806.5 0
11807.5 0
11808.5 0
11809.5 0
11810.5 0
11811.5 0
11812.5 0
11813.5 0
11814.5 0
11815.5 0
11816.5 0
11817.5 0
11818.5 0
11819.5 0
11820.5 0
11821.5 0
11822.5 0
11823.5 0
11824.5 0
11825.5 0
11826.5 0
11827.5 0
11828.5 0
11829.5 0
11830.5 0
11831.5 0
11832.5 0
11833.5 0
11834.5 0
11835.5 0
11836.5 0
11837.5 0
11838.5 0
11839.5 0
11840.5 0
11841.5 0
11842.5 0
11843.5 0
11844.5 1
11845.5 0
11846.5 0
11847.5 0
11848.5 1
11849.5 0
11850.5 0
11851.5 0
11852.5 0
11853.5 0
11854.5 0
11855.5 0
11856.5 0
11857.5 0
11858.5 0
11859.5 0
11860.5 0
11861.5 0
11862.5 0
11863.5 0
11864.5 0
11865.5 0
11866.5 0
11867.5 0
11868.5 0
11869.5 0
11870.5 0
11871.5 0
11872.5 0
11873.5 0
11874.5 0
11875.5 0
11876.5 0
11877.5 0
11878.5 0
11879.5 0
11880.5 0
11881.5 0
11882.5 0
11883.5 0
11884.5 0
11885.5 0
11886.5 0
11887.5 0
11888.5 0
11889.5 0
11890.5 0
11891.5 0
11892.5 0
11893.5 0
11894.5 0
11895.5 0
11896.5 0
11897.5 0
11898.5 0
11899.5 0
11900.5 0
11901.5 0
11902.5 0
11903.5 0
11904.5 0
11905.5 0
11906.5 0
11907.5 0
11908.5 0
11909.5 0
11910.5 0
11911.5 0
11912.5 0
11913.5 0
11914.5 0
11915.5 0
11916.5 0
11917.5 0
11918.5 0
11919.5 0
11920.5 0
11921.5 0
11922.5 0
11923.5 0
11924.5 0
11925.5 0
11926.5 0
11927.5 0
11928.5 0
11929.5 0
11930.5 0
11931.5 0
11932.5 0
11933.5 0
11934.5 0
11935.5 0
11936.5 0
11937.5 0
11938.5 0
11939.5 1
11940.5 0
11941.5 0
11942.5 0
11943.5 0
11944.5 0
11945.5 0
11946.5 0
11947.5 0
11948.5 0
11949.5 0
11950.5 0
11951.5 0
11952.5 0
11953.5 0
11954.5 0
11955.5 0
11956.5 0
11957.5 0
11958.5 0
11959.5 0
11960.5 0
11961.5 0
11962.5 0
11963.5 0
11964.5 0
11965.5 0
11966.5 0
11967.5 0
11968.5 0
11969.5 0
11970.5 0
11971.5 0
11972.5 0
11973.5 0
11974.5 0
11975.5 0
11976.5 0
11977.5 0
11978.5 0
11979.5 0
11980.5 0
11981.5 0
11982.5 0
11983.5 0
11984.5 0
11985.5 0
11986.5 0
11987.5 0
11988.5 0
11989.5 0
11990.5 1
11991.5 0
11992.5 0
11993.5 0
11994.5 0
11995.5 0
11996.5 0
11997.5 0
11998.5 0
11999.5 0
