# EGG_ProjY_E2290.0(4.0)_E3059.5(3.5)_B2268.5(1.5)_B2307.0(1.0)_B3047.0(1.0)
# X axis : Energy (keV) [Y axis]
# Y axis : Counts/1 keV
# N Bins : 12000
# X Min : 0
# X Max : 12000
# X value at the center of the bins
0.5 0
1.5 0
2.5 0
3.5 0
4.5 0
5.5 8.85714
6.5 4.57143
7.5 5.85715
8.5 30.5714
9.5 -2.57143
10.5 15.1429
11.5 20
12.5 -35.5714
13.5 -0.142849
14.5 -6.2857
15.5 47
16.5 43.1429
17.5 25.2857
18.5 62.4286
19.5 36.2857
20.5 -14
21.5 -100
22.5 -8.57137
23.5 41.5715
24.5 3.14293
25.5 -198.714
26.5 16.8572
27.5 97.0001
28.5 56.5715
29.5 -194.857
30.5 -133.857
31.5 -66.9999
32.5 -138.714
33.5 -103.428
34.5 -83.857
35.5 -273.428
36.5 -128.857
37.5 8.28587
38.5 -223
39.5 -81.2855
40.5 -288.143
41.5 -311.571
42.5 -177.571
43.5 -290.857
44.5 44.0002
45.5 -208.143
46.5 33.0002
47.5 104.143
48.5 -131.143
49.5 -19.5712
50.5 166
51.5 40.2859
52.5 -149.571
53.5 -28.4284
54.5 -103.857
55.5 18.7145
56.5 175.714
57.5 -154
58.5 15.7145
59.5 40.7145
60.5 -152.428
61.5 -205
62.5 -3.57125
63.5 -44.4284
64.5 -5.85696
65.5 -167.286
66.5 73.7145
67.5 112.286
68.5 -199.714
69.5 181
70.5 -45.7141
71.5 11.2859
72.5 42.7145
73.5 31.7145
74.5 -136.571
75.5 225
76.5 238.857
77.5 284.143
78.5 -70.714
79.5 -81.1426
80.5 36.5717
81.5 -250.286
82.5 100.857
83.5 18.4288
84.5 -77.4284
85.5 -155.286
86.5 -221
87.5 178.572
88.5 -66.4283
89.5 -63.2855
90.5 -404.285
91.5 154.857
92.5 208.429
93.5 192
94.5 -115
95.5 -142.428
96.5 -26.857
97.5 -233
98.5 -190.571
99.5 24.0002
100.5 30.7145
101.5 66.5716
102.5 141.857
103.5 108.714
104.5 -65.9998
105.5 29.4288
106.5 -249.714
107.5 -40.4284
108.5 51.8573
109.5 118.143
110.5 -133.857
111.5 99.0002
112.5 -70.1426
113.5 -49.2855
114.5 -35.2855
115.5 125.715
116.5 107
117.5 142
118.5 -213.857
119.5 -6.71406
120.5 -61.4283
121.5 -123.428
122.5 -256.714
123.5 -42.8569
124.5 56.0002
125.5 -54.4283
126.5 -365.571
127.5 -300
128.5 37.1431
129.5 -184.428
130.5 -79.5712
131.5 -88.5712
132.5 -274.714
133.5 126.857
134.5 -143
135.5 68.1431
136.5 294.857
137.5 32.0003
138.5 236.857
139.5 103.286
140.5 -35.8569
141.5 369.857
142.5 65.286
143.5 485.715
144.5 214.429
145.5 178
146.5 101.143
147.5 -108.428
148.5 -256
149.5 184.572
150.5 -222.571
151.5 93.4288
152.5 68.7145
153.5 -152.428
154.5 -158.143
155.5 -468.714
156.5 -83.714
157.5 -53.8569
158.5 52.8574
159.5 3.85742
160.5 -21.2854
161.5 -386.857
162.5 -137.428
163.5 -308.428
164.5 -496.143
165.5 -490.143
166.5 -1177.43
167.5 -893.428
168.5 -318.428
169.5 -39.8569
170.5 17.0003
171.5 230.143
172.5 263.143
173.5 1113.14
174.5 1906.86
175.5 1131
176.5 96.7146
177.5 150
178.5 288.286
179.5 -39.4283
180.5 -249.714
181.5 -267.428
182.5 -89.2853
183.5 88.4289
184.5 43.0003
185.5 -158.714
186.5 -110.571
187.5 -31.4283
188.5 -249.571
189.5 -495.143
190.5 -179.143
191.5 -297.285
192.5 -31.2854
193.5 -388.428
194.5 -321.571
195.5 -245.571
196.5 -171.714
197.5 -184.857
198.5 -101.571
199.5 -516
200.5 130
201.5 -73.5711
202.5 162.429
203.5 -25.714
204.5 9.42884
205.5 399.572
206.5 125.857
207.5 42.286
208.5 100.429
209.5 -544.143
210.5 -555.285
211.5 -27.1426
212.5 -422.428
213.5 -347.428
214.5 -84.5711
215.5 -480.143
216.5 -124.143
217.5 -194.285
218.5 -313.428
219.5 -150.714
220.5 -360.285
221.5 -28.9997
222.5 -337.143
223.5 21.4288
224.5 436.857
225.5 629.572
226.5 548.715
227.5 635.572
228.5 697.429
229.5 805
230.5 527
231.5 842.429
232.5 542.143
233.5 606.286
234.5 146
235.5 87.1431
236.5 811
237.5 410.143
238.5 511
239.5 268.143
240.5 -85.5712
241.5 268.143
242.5 118.572
243.5 139
244.5 213.143
245.5 -54.4283
246.5 -458.285
247.5 -419.571
248.5 -980.285
249.5 -1264.71
250.5 -1036.43
251.5 -702.571
252.5 -352.285
253.5 -358.714
254.5 -114.143
255.5 -358.571
256.5 -380.143
257.5 -241
258.5 -214.428
259.5 49.4288
260.5 235.429
261.5 7.4288
262.5 -191.714
263.5 74.5717
264.5 -25.1426
265.5 -124.714
266.5 -282.714
267.5 -136.143
268.5 -113.571
269.5 58.2859
270.5 -419.571
271.5 14.5716
272.5 -7.71407
273.5 66.5716
274.5 -209.571
275.5 -239.571
276.5 52.2859
277.5 -157.714
278.5 -234.714
279.5 -246.143
280.5 19.4288
281.5 -159.143
282.5 -189.571
283.5 -151.857
284.5 -167.428
285.5 79.2859
286.5 45.8573
287.5 48.2859
288.5 138.429
289.5 498.429
290.5 321.286
291.5 118.857
292.5 120.286
293.5 446.714
294.5 74.7145
295.5 178.286
296.5 -21.2855
297.5 139.143
298.5 7.0002
299.5 45.8573
300.5 -53.7141
301.5 -45.4284
302.5 5.0002
303.5 70.7145
304.5 37.4288
305.5 -199
306.5 -232.571
307.5 56.5716
308.5 -162.143
309.5 38.8573
310.5 -371.428
311.5 -376.286
312.5 -104.428
313.5 -371
314.5 -53.857
315.5 -139.857
316.5 145.857
317.5 28.2859
318.5 100.429
319.5 302.714
320.5 439.572
321.5 312.286
322.5 291.286
323.5 291.857
324.5 509.286
325.5 605.572
326.5 426.857
327.5 552.286
328.5 491.286
329.5 885.857
330.5 670.286
331.5 136.714
332.5 222.857
333.5 40.0002
334.5 170.143
335.5 -205.571
336.5 -81.1427
337.5 -48.1427
338.5 -185.286
339.5 -301.571
340.5 -47.2855
341.5 -272.714
342.5 -60.857
343.5 -191.428
344.5 -349.143
345.5 -279.714
346.5 -309.428
347.5 -395.857
348.5 -566.571
349.5 -540.286
350.5 -554
351.5 -520.571
352.5 -380.571
353.5 -295.286
354.5 -131.714
355.5 -18.4284
356.5 -107
357.5 -158
358.5 9.00015
359.5 -76.9998
360.5 252.714
361.5 412.857
362.5 267.143
363.5 348.286
364.5 399.429
365.5 480.714
366.5 634.714
367.5 642.714
368.5 215.286
369.5 401.857
370.5 348.286
371.5 135.857
372.5 51.4287
373.5 -98.4284
374.5 -150.428
375.5 -173.714
376.5 -254.857
377.5 -273
378.5 -290.714
379.5 -180
380.5 -218.571
381.5 -319.714
382.5 -192.428
383.5 -408.143
384.5 -313
385.5 -348.428
386.5 -4.42843
387.5 24.0002
388.5 384
389.5 391.429
390.5 300.714
391.5 526.857
392.5 301.572
393.5 189.714
394.5 326.143
395.5 287.714
396.5 317.572
397.5 35.8573
398.5 5.71442
399.5 -255
400.5 -250
401.5 -223.857
402.5 -400
403.5 -471.571
404.5 -862.428
405.5 -272.143
406.5 -79.9999
407.5 75.2858
408.5 81.143
409.5 -103.857
410.5 -145.428
411.5 -257.714
412.5 -473.571
413.5 -689.857
414.5 -740.857
415.5 -823.857
416.5 -307.143
417.5 -456.857
418.5 -320.714
419.5 -219.286
420.5 -234.714
421.5 -308.143
422.5 -165.571
423.5 -10.857
424.5 98.143
425.5 257.714
426.5 322.857
427.5 436.857
428.5 758.714
429.5 937.429
430.5 896.286
431.5 778.572
432.5 934.572
433.5 752.286
434.5 575
435.5 334.714
436.5 457.572
437.5 253.714
438.5 -123.143
439.5 -12.7142
440.5 45.4287
441.5 -350
442.5 -251.571
443.5 -129.428
444.5 -186.714
445.5 -426.714
446.5 -47.857
447.5 -42.2856
448.5 -96.7142
449.5 -475.286
450.5 -210.428
451.5 -315.286
452.5 -530.143
453.5 -496
454.5 -265.857
455.5 -186.714
456.5 136.572
457.5 -12.9999
458.5 -54.7142
459.5 -35.7142
460.5 -46.7142
461.5 9.42869
462.5 145.857
463.5 -155.714
464.5 303
465.5 76.0001
466.5 171.429
467.5 150.714
468.5 78.2858
469.5 183.714
470.5 139.286
471.5 144.429
472.5 4.71441
473.5 195.143
474.5 -146.714
475.5 60.2858
476.5 74.0001
477.5 -63.857
478.5 -40.9999
479.5 95.8573
480.5 -64.7142
481.5 -85.9999
482.5 -252
483.5 -148
484.5 -213
485.5 -89.857
486.5 -43.7142
487.5 -106.714
488.5 151.857
489.5 -141.571
490.5 175.143
491.5 -113.143
492.5 -89.7142
493.5 -54.2856
494.5 119.857
495.5 56.0001
496.5 33.4287
497.5 -112.571
498.5 13.5715
499.5 6.14297
500.5 56.4287
501.5 31.143
502.5 210.714
503.5 -45.2856
504.5 -132
505.5 238.143
506.5 87.7144
507.5 552.715
508.5 705
509.5 1145
510.5 1412.72
511.5 1037.72
512.5 617.572
513.5 297.429
514.5 96.0002
515.5 237
516.5 392.143
517.5 874.714
518.5 2393.71
519.5 4955.43
520.5 3489
521.5 1152.57
522.5 291
523.5 236.429
524.5 116.714
525.5 124.429
526.5 184
527.5 46.0001
528.5 -87.1428
529.5 -16.9999
530.5 71.5715
531.5 -128.143
532.5 124.286
533.5 8.57152
534.5 -143.714
535.5 -141.428
536.5 -66.2856
537.5 -431.286
538.5 -394.428
539.5 -282.714
540.5 -182
541.5 -125
542.5 68.8572
543.5 -37.8571
544.5 -131.286
545.5 -243.571
546.5 81.7144
547.5 -50.2856
548.5 -86.9999
549.5 -54.7142
550.5 82.0001
551.5 139.429
552.5 229
553.5 -45.7142
554.5 219.286
555.5 118.572
556.5 75.2858
557.5 76.7144
558.5 10.8572
559.5 6.85723
560.5 162
561.5 141.286
562.5 182.143
563.5 150.143
564.5 53.1429
565.5 49.0001
566.5 48.8572
567.5 -200
568.5 174
569.5 43.8572
570.5 60.5715
571.5 40.1429
572.5 -167.571
573.5 -54.9999
574.5 -158.714
575.5 -428
576.5 -353
577.5 -210.857
578.5 -326.286
579.5 -92.1428
580.5 -106.571
581.5 -242.714
582.5 -1032
583.5 -1574
584.5 -993.143
585.5 -163.428
586.5 65.5715
587.5 -18.4285
588.5 -11.1428
589.5 -109
590.5 -3.71421
591.5 -72.5713
592.5 -9.28562
593.5 -265.857
594.5 -200.286
595.5 -298.571
596.5 -101.286
597.5 -145.571
598.5 -24.1428
599.5 -77.9999
600.5 -0.142779
601.5 169.857
602.5 1.71436
603.5 137.143
604.5 97.5715
605.5 119.714
606.5 -38.4285
607.5 -93.1428
608.5 -21.9999
609.5 40.5715
610.5 -3.71421
611.5 -160.714
612.5 -243
613.5 24.2858
614.5 65.8572
615.5 -181.714
616.5 118.286
617.5 -39.4285
618.5 77.4286
619.5 -41.8571
620.5 -99.2856
621.5 -118.286
622.5 -124.857
623.5 18.1429
624.5 20.0001
625.5 -105.286
626.5 -60.2856
627.5 44.143
628.5 324.143
629.5 -51.2856
630.5 148.714
631.5 109.857
632.5 81.0001
633.5 87.1429
634.5 -66.7142
635.5 -68.4285
636.5 269
637.5 543.143
638.5 180.143
639.5 -122.143
640.5 -158.571
641.5 -1.71421
642.5 25.8572
643.5 164.714
644.5 -73.9999
645.5 46.0001
646.5 62.1429
647.5 -24.9999
648.5 -59.8571
649.5 28.8572
650.5 -252.286
651.5 58.4287
652.5 -5.85703
653.5 153.572
654.5 -327.143
655.5 -1180.29
656.5 -631.714
657.5 79.1429
658.5 47.4286
659.5 184.429
660.5 224.857
661.5 50.8572
662.5 -40.9999
663.5 -43.2856
664.5 -153.286
665.5 67.0001
666.5 -184.571
667.5 -25.9999
668.5 27.2858
669.5 -27.9999
670.5 -17.2856
671.5 -87.8571
672.5 -128.571
673.5 -66.4285
674.5 -62.4285
675.5 -96.7142
676.5 -325.428
677.5 -208.571
678.5 -205.571
679.5 -209.428
680.5 -4.14278
681.5 -199.571
682.5 74.0001
683.5 -105.286
684.5 -6.28564
685.5 -12.8571
686.5 -17.4285
687.5 -49.5714
688.5 10.0001
689.5 105.714
690.5 169.714
691.5 -96.5714
692.5 -89.7142
693.5 -148.428
694.5 -60.5714
695.5 -77.4285
696.5 -187.857
697.5 -66.7142
698.5 -70.7142
699.5 -180.571
700.5 -57.4285
701.5 122
702.5 -66.2856
703.5 -62.4285
704.5 -69.5714
705.5 -111
706.5 -37.7142
707.5 -156.857
708.5 202.714
709.5 32.4286
710.5 126.286
711.5 -34.1428
712.5 149.571
713.5 -207.286
714.5 64.1429
715.5 105.143
716.5 55.0001
717.5 -57.7142
718.5 -24.2856
719.5 2.00007
720.5 -107.429
721.5 -52.2856
722.5 -7.99993
723.5 3.71436
724.5 -3.85707
725.5 82.2858
726.5 140.572
727.5 -78.4285
728.5 -30.7142
729.5 -109.143
730.5 -155.286
731.5 -58.4285
732.5 -48.5714
733.5 -145.143
734.5 1.85721
735.5 -117.857
736.5 -68.7142
737.5 -15.7142
738.5 -158.286
739.5 145.286
740.5 34.0001
741.5 161.571
742.5 95.5715
743.5 -53.4285
744.5 19.8572
745.5 21.5715
746.5 137.286
747.5 164.429
748.5 79.2858
749.5 45.2858
750.5 10.4286
751.5 44.7144
752.5 -78.8571
753.5 106.429
754.5 -76.4285
755.5 47.8572
756.5 -23.4285
757.5 -12.9999
758.5 135.286
759.5 234.143
760.5 59.8574
761.5 472.857
762.5 109.857
763.5 62.5715
764.5 -38.7142
765.5 -169
766.5 -81.7142
767.5 -104.143
768.5 -53.2856
769.5 -237.286
770.5 -124.286
771.5 45.4286
772.5 -10.5714
773.5 35.1429
774.5 31.4286
775.5 -120.571
776.5 -67.9999
777.5 1.14292
778.5 -14.1428
779.5 -63.4285
780.5 -169.571
781.5 -98.7142
782.5 -86.1428
783.5 -104.429
784.5 41.7144
785.5 491.571
786.5 613.572
787.5 1057
788.5 1310.14
789.5 629.714
790.5 105.714
791.5 -66.7142
792.5 9.71435
793.5 -68.5714
794.5 81.8572
795.5 -104.571
796.5 191.143
797.5 79.7144
798.5 54.2858
799.5 68.4286
800.5 115.571
801.5 -94.9999
802.5 -62.7142
803.5 -158.857
804.5 24.4286
805.5 245.286
806.5 -23.7142
807.5 -16.9999
808.5 -195.571
809.5 -5.4285
810.5 -39.8571
811.5 43.5715
812.5 153
813.5 -47.4285
814.5 87.5715
815.5 67.8572
816.5 148.286
817.5 -55.7142
818.5 157
819.5 19.2858
820.5 11.1429
821.5 -144.286
822.5 47.4286
823.5 80.1429
824.5 69.1429
825.5 15.1429
826.5 -40.9999
827.5 -122.429
828.5 -5.57136
829.5 -90.8571
830.5 -167.714
831.5 -59.1428
832.5 -43.2856
833.5 122
834.5 77.0001
835.5 -73.8571
836.5 17.2858
837.5 -4.4285
838.5 -168.286
839.5 -149.143
840.5 -118.857
841.5 93.0001
842.5 -14.9999
843.5 -163.143
844.5 -13.7142
845.5 53.4286
846.5 98.5715
847.5 2.71436
848.5 30.0001
849.5 89.7144
850.5 63.1429
851.5 -92.1428
852.5 -129
853.5 -72.5714
854.5 16.1429
855.5 -36.1428
856.5 115.857
857.5 -80.9999
858.5 -40.2856
859.5 101.429
860.5 -91.7142
861.5 -18.5714
862.5 103.143
863.5 -60.1428
864.5 -47.1428
865.5 87.5715
866.5 -36.8571
867.5 -18.9999
868.5 42.8573
869.5 -211.428
870.5 -79.4285
871.5 -75.7142
872.5 103.714
873.5 -76.5713
874.5 -90.7142
875.5 3.71437
876.5 264.286
877.5 524.286
878.5 676.857
879.5 402.429
880.5 11.7144
881.5 -1.57135
882.5 43.8572
883.5 24.1429
884.5 -119.571
885.5 30.2858
886.5 -49.4285
887.5 4.42865
888.5 75.4286
889.5 -15.1428
890.5 -57.1428
891.5 40.4286
892.5 -31.7142
893.5 61.2858
894.5 -66.1428
895.5 -124.857
896.5 -30.7142
897.5 -127.286
898.5 -92.8571
899.5 -143.143
900.5 -35.1428
901.5 -3.28563
902.5 -94.2856
903.5 112.286
904.5 -20.1428
905.5 -203.571
906.5 -15.4285
907.5 26.0001
908.5 119.429
909.5 -71.2856
910.5 -30.7142
911.5 127.857
912.5 -16.9999
913.5 36.4287
914.5 40.4287
915.5 81.1429
916.5 -0.857061
917.5 -111.857
918.5 36.5715
919.5 47.5715
920.5 136
921.5 -51.9999
922.5 18.7144
923.5 -56.7142
924.5 -71.5714
925.5 -166.428
926.5 -105.286
927.5 -66.7142
928.5 -44.7142
929.5 -147.143
930.5 -107.714
931.5 -47.9999
932.5 50.4287
933.5 -78.1428
934.5 17.8572
935.5 18.4287
936.5 17.4287
937.5 -22.8571
938.5 -89.2856
939.5 -20.9999
940.5 91.5715
941.5 77.5715
942.5 11.2858
943.5 19.4287
944.5 -72.1428
945.5 130.572
946.5 43.7144
947.5 -35.1428
948.5 103
949.5 -62.8571
950.5 18.4286
951.5 -6.4285
952.5 137.286
953.5 5.28578
954.5 45.0001
955.5 0.571494
956.5 59.8572
957.5 34.5715
958.5 70.2858
959.5 82.5715
960.5 23.2858
961.5 44.1429
962.5 -5.4285
963.5 -26.8571
964.5 36.5715
965.5 -80.2856
966.5 -125.714
967.5 -12.4285
968.5 8.28579
969.5 -1.28565
970.5 101
971.5 -74.7142
972.5 -13.1428
973.5 34.0001
974.5 -118.429
975.5 -95.1428
976.5 -110
977.5 -12.8571
978.5 -100.429
979.5 -63.4285
980.5 -48.7142
981.5 100.429
982.5 20.5715
983.5 -58.8571
984.5 2.28578
985.5 -85.9999
986.5 -121.286
987.5 61.5715
988.5 53.0001
989.5 39.2858
990.5 69.4286
991.5 -58.7142
992.5 -13.7142
993.5 91.0001
994.5 114.714
995.5 -31.5714
996.5 -29.2857
997.5 -31.9999
998.5 -76.9999
999.5 36.5715
1000.5 165.857
1001.5 408.286
1002.5 287.429
1003.5 185.429
1004.5 15.2858
1005.5 112.571
1006.5 -50.8571
1007.5 -121
1008.5 38.5715
1009.5 -33.1428
1010.5 -38.5714
1011.5 65.4286
1012.5 38
1013.5 -54.8571
1014.5 -88.9999
1015.5 -73.1428
1016.5 -359.571
1017.5 -114.143
1018.5 -113
1019.5 -23.8571
1020.5 -4.28566
1021.5 -30.1428
1022.5 -11.7142
1023.5 -63.9999
1024.5 -591.428
1025.5 -150.857
1026.5 11.2858
1027.5 -53.4285
1028.5 -78.4285
1029.5 77.8572
1030.5 -96
1031.5 -71.4285
1032.5 81.1429
1033.5 -81.1428
1034.5 -60
1035.5 51.5715
1036.5 -27.1428
1037.5 -7.14282
1038.5 38
1039.5 -38.8571
1040.5 27.5715
1041.5 -26.2857
1042.5 -56.5714
1043.5 -123.571
1044.5 58.5715
1045.5 -138.143
1046.5 58.5715
1047.5 3.71433
1048.5 5.57147
1049.5 -223.857
1050.5 -147.286
1051.5 -82.8571
1052.5 50.7143
1053.5 -116.857
1054.5 -135.143
1055.5 20.4286
1056.5 70.8572
1057.5 -51.4285
1058.5 34.1429
1059.5 -87.5714
1060.5 59.4286
1061.5 20.8572
1062.5 18
1063.5 50.5715
1064.5 13.5715
1065.5 -73
1066.5 -16.4285
1067.5 -104.286
1068.5 -11.7142
1069.5 21
1070.5 85.4286
1071.5 6.42862
1072.5 191.714
1073.5 -130.857
1074.5 276.429
1075.5 27.4287
1076.5 -95.5714
1077.5 -35.7142
1078.5 -31.2857
1079.5 64.8572
1080.5 -91.5714
1081.5 42.1429
1082.5 -62.1428
1083.5 100.571
1084.5 69.2857
1085.5 -86.2857
1086.5 20
1087.5 44
1088.5 -33
1089.5 -149.429
1090.5 -375.143
1091.5 -265.143
1092.5 -174.714
1093.5 -67
1094.5 148.143
1095.5 -127
1096.5 -177.714
1097.5 28.4286
1098.5 -109.143
1099.5 15.4286
1100.5 38.2858
1101.5 92.5715
1102.5 -92.4285
1103.5 -44.5714
1104.5 13.8572
1105.5 -56.4285
1106.5 -31.8571
1107.5 17.7143
1108.5 106.571
1109.5 -38.4285
1110.5 -12.2857
1111.5 55
1112.5 105.143
1113.5 29.8572
1114.5 -130.857
1115.5 -116.143
1116.5 91.8572
1117.5 -18.4285
1118.5 -117.714
1119.5 -118.286
1120.5 56.2858
1121.5 -140.714
1122.5 82.2858
1123.5 54.0002
1124.5 229.858
1125.5 904.001
1126.5 986.716
1127.5 433.001
1128.5 -21.9998
1129.5 -64.7142
1130.5 119.429
1131.5 -35.4285
1132.5 -95.7143
1133.5 73.8572
1134.5 53.1429
1135.5 57
1136.5 21.1429
1137.5 133.571
1138.5 -94.7142
1139.5 75.7143
1140.5 -29.2857
1141.5 11.4286
1142.5 46.1429
1143.5 14.1429
1144.5 -12
1145.5 -21.7143
1146.5 -1.42854
1147.5 33.4286
1148.5 144
1149.5 91.8572
1150.5 -50.2857
1151.5 -110.429
1152.5 14.4286
1153.5 96.0001
1154.5 322
1155.5 276.144
1156.5 1307.43
1157.5 1472.57
1158.5 -170.427
1159.5 -46.1426
1160.5 -67.8571
1161.5 54.2858
1162.5 66.1429
1163.5 153
1164.5 349.571
1165.5 112
1166.5 108.714
1167.5 70.2857
1168.5 19.5715
1169.5 -17.4285
1170.5 -21.7143
1171.5 -40.8571
1172.5 35.1429
1173.5 -44.2857
1174.5 -9.42855
1175.5 -57.4285
1176.5 45
1177.5 -6.5714
1178.5 35.1429
1179.5 -73.7143
1180.5 -140.857
1181.5 -6.85711
1182.5 -103
1183.5 -23.4285
1184.5 -93.4285
1185.5 -230.857
1186.5 -19.8571
1187.5 -70.8571
1188.5 -60.4285
1189.5 16.4286
1190.5 -22.7143
1191.5 43.8572
1192.5 -55.5714
1193.5 -92
1194.5 -70.2857
1195.5 -22.4285
1196.5 19.8572
1197.5 -39.7143
1198.5 9.85717
1199.5 68.7143
1200.5 -6.85712
1201.5 24.1429
1202.5 3.71431
1203.5 21.8572
1204.5 -56.2857
1205.5 -13
1206.5 52.4286
1207.5 32.4286
1208.5 3.42859
1209.5 8.14288
1210.5 -125.286
1211.5 57.4286
1212.5 -8.99998
1213.5 16.1429
1214.5 24.4286
1215.5 98.7143
1216.5 34.7143
1217.5 -12.8571
1218.5 -48.5714
1219.5 25.2857
1220.5 -42
1221.5 -55.4285
1222.5 -52.2857
1223.5 79.7143
1224.5 -104.714
1225.5 -70.2857
1226.5 44
1227.5 14.5715
1228.5 -48.5714
1229.5 -67
1230.5 49.4286
1231.5 2.71431
1232.5 -127.143
1233.5 -9.28569
1234.5 -13.8571
1235.5 37.8572
1236.5 -37.4285
1237.5 76.5714
1238.5 -63
1239.5 -30.2857
1240.5 17.7143
1241.5 3.4286
1242.5 56.5715
1243.5 2.4286
1244.5 -41.7143
1245.5 6.00002
1246.5 -1.57141
1247.5 -12.1428
1248.5 10.8572
1249.5 39.5715
1250.5 -46.7143
1251.5 79
1252.5 -70.8571
1253.5 -30.7143
1254.5 -6.71426
1255.5 13.5715
1256.5 -61
1257.5 3.28574
1258.5 47.1429
1259.5 25.8572
1260.5 126.571
1261.5 123.286
1262.5 -61
1263.5 61.5715
1264.5 -45.5714
1265.5 42.1429
1266.5 -36
1267.5 2.85717
1268.5 4.14288
1269.5 -20.8571
1270.5 -2.71426
1271.5 -19.4285
1272.5 32.5714
1273.5 -107.286
1274.5 66.2857
1275.5 -14.4285
1276.5 61.5715
1277.5 23.2857
1278.5 66.1429
1279.5 -39.8571
1280.5 -63.7143
1281.5 13.7143
1282.5 -28.1428
1283.5 22
1284.5 27.1429
1285.5 20
1286.5 -98.4285
1287.5 32
1288.5 -18.4286
1289.5 -24.4286
1290.5 35.1429
1291.5 41.5714
1292.5 31.5714
1293.5 -33.7143
1294.5 27.4286
1295.5 58.8572
1296.5 22.5714
1297.5 -2.71426
1298.5 -66.1428
1299.5 3.85716
1300.5 -80.5714
1301.5 16
1302.5 28.1429
1303.5 -48.1428
1304.5 33.1429
1305.5 -113.571
1306.5 44.1429
1307.5 17.8572
1308.5 24.1429
1309.5 -67.8571
1310.5 -59
1311.5 0.57145
1312.5 -30.8571
1313.5 -83.4285
1314.5 -57.8571
1315.5 47.5715
1316.5 -22.2857
1317.5 24
1318.5 -57.4285
1319.5 -42.1428
1320.5 49.1429
1321.5 20.2857
1322.5 6.57145
1323.5 -75
1324.5 44.4286
1325.5 -55.2857
1326.5 18.4286
1327.5 14.2857
1328.5 -27.7143
1329.5 -38.1428
1330.5 52.1429
1331.5 -74.5714
1332.5 14.8572
1333.5 14.7143
1334.5 -58.4285
1335.5 33.2857
1336.5 -81.1428
1337.5 12.7143
1338.5 101.429
1339.5 -42.5714
1340.5 81.1429
1341.5 13.2857
1342.5 -29.7143
1343.5 -44.5714
1344.5 -39.2857
1345.5 34.2857
1346.5 -36.1428
1347.5 -24.8571
1348.5 -61.7143
1349.5 -4.14283
1350.5 23.8572
1351.5 -8.99998
1352.5 -40
1353.5 -34.8571
1354.5 -49.1428
1355.5 5.28573
1356.5 -31.8571
1357.5 -5.85712
1358.5 2.0504e-05
1359.5 35.5714
1360.5 -35.8571
1361.5 45.4286
1362.5 13.4286
1363.5 25.7143
1364.5 36.2857
1365.5 4.57145
1366.5 42.2857
1367.5 -36.1428
1368.5 -16.2857
1369.5 -30.7143
1370.5 11.7143
1371.5 14.2857
1372.5 28
1373.5 3.71431
1374.5 -84.1428
1375.5 -8.71426
1376.5 -13.5714
1377.5 21.5715
1378.5 17.1429
1379.5 75.7143
1380.5 -66
1381.5 -41.2857
1382.5 -19.5714
1383.5 73.7143
1384.5 25.7143
1385.5 42.8572
1386.5 -41.7143
1387.5 -68.4285
1388.5 -58
1389.5 -19.1428
1390.5 41
1391.5 36.1429
1392.5 60.2857
1393.5 59
1394.5 27.1429
1395.5 -34.2857
1396.5 61.7143
1397.5 -6.99998
1398.5 -1.28569
1399.5 42.2857
1400.5 -40.7143
1401.5 36.5714
1402.5 -15.2857
1403.5 -71.2857
1404.5 33.5714
1405.5 -23.8571
1406.5 -3.42855
1407.5 -13.8571
1408.5 -77.8571
1409.5 16.2857
1410.5 4.14288
1411.5 -95.5714
1412.5 -92.8571
1413.5 -28
1414.5 -93.4285
1415.5 -45.5714
1416.5 6.85716
1417.5 15
1418.5 13.7143
1419.5 -88.1428
1420.5 -56.2857
1421.5 55.1429
1422.5 32.5714
1423.5 57.8572
1424.5 46.7143
1425.5 53.1429
1426.5 44.2857
1427.5 -104.857
1428.5 -148.429
1429.5 -193.714
1430.5 7.4286
1431.5 3.71431
1432.5 58.1429
1433.5 66.7143
1434.5 34.5715
1435.5 66.2857
1436.5 -26.7143
1437.5 14.1429
1438.5 -15.2857
1439.5 -35.1428
1440.5 55.4286
1441.5 14.5714
1442.5 -42.4285
1443.5 -12.5714
1444.5 13.4286
1445.5 -9.99998
1446.5 44
1447.5 47.2857
1448.5 -26
1449.5 62.5714
1450.5 -40.4286
1451.5 24.2857
1452.5 32.1429
1453.5 -39.4286
1454.5 -47.8571
1455.5 -13.4286
1456.5 -59.1428
1457.5 18.4286
1458.5 -11
1459.5 -55.1428
1460.5 30.1429
1461.5 84.7143
1462.5 34.1429
1463.5 -88.1428
1464.5 53.8572
1465.5 22.5714
1466.5 24.8572
1467.5 -29.4286
1468.5 -48.8571
1469.5 10
1470.5 60.7143
1471.5 -52.2857
1472.5 42.4286
1473.5 -20.2857
1474.5 -49.4286
1475.5 16.8572
1476.5 53.7143
1477.5 -48.5714
1478.5 -37.1428
1479.5 16
1480.5 -32.2857
1481.5 -102.286
1482.5 60.2857
1483.5 81.8572
1484.5 -10.4286
1485.5 -6.85713
1486.5 -20.4286
1487.5 50.4286
1488.5 79.8572
1489.5 -15
1490.5 -7.14284
1491.5 -42.4286
1492.5 -28.2857
1493.5 -40.4286
1494.5 60.1429
1495.5 77.5714
1496.5 3.85717
1497.5 24.4286
1498.5 -305.143
1499.5 -446.143
1500.5 -196.143
1501.5 13.5715
1502.5 -21.4285
1503.5 52.7143
1504.5 73.5714
1505.5 69
1506.5 -70.4286
1507.5 5.42859
1508.5 -25.5714
1509.5 4.14288
1510.5 -30.1428
1511.5 54.2857
1512.5 -23.1428
1513.5 31.5714
1514.5 79
1515.5 -74.2857
1516.5 47.7143
1517.5 63.5714
1518.5 83.1429
1519.5 26.5714
1520.5 -34.5714
1521.5 -3.2857
1522.5 25.4286
1523.5 -4.14284
1524.5 -30.8571
1525.5 -20.2857
1526.5 11.1429
1527.5 19
1528.5 30.5714
1529.5 15.4286
1530.5 -3.71427
1531.5 -20.7143
1532.5 -50.2857
1533.5 9.7143
1534.5 12.8572
1535.5 29.2857
1536.5 -7.57141
1537.5 41.1429
1538.5 126.714
1539.5 60.7143
1540.5 153.857
1541.5 37.8572
1542.5 -31.2857
1543.5 -16.2857
1544.5 -73
1545.5 -16.2857
1546.5 -38.4286
1547.5 48.4286
1548.5 78.5714
1549.5 -6.71427
1550.5 -0.285697
1551.5 -52.5714
1552.5 40.5714
1553.5 14.8572
1554.5 61.7143
1555.5 38
1556.5 -107.857
1557.5 42.4286
1558.5 -44.8571
1559.5 17.5714
1560.5 35.8572
1561.5 -4.57141
1562.5 -36.8571
1563.5 5.14287
1564.5 16.5714
1565.5 9.42859
1566.5 -4.99998
1567.5 1.7143
1568.5 23.7143
1569.5 -22.2857
1570.5 70.5714
1571.5 73.8572
1572.5 -27.8571
1573.5 100.286
1574.5 -12.4286
1575.5 78.7143
1576.5 -72
1577.5 -67.5714
1578.5 21.2857
1579.5 1.14288
1580.5 -38.8571
1581.5 55.7143
1582.5 2.00002
1583.5 17.2857
1584.5 64.4286
1585.5 15.7143
1586.5 -54.8571
1587.5 -76.2857
1588.5 -83.8571
1589.5 20.8572
1590.5 -20.1428
1591.5 16.7143
1592.5 -11.4286
1593.5 11.2857
1594.5 2.14287
1595.5 -21
1596.5 -4.57141
1597.5 -78
1598.5 -0.714267
1599.5 -93
1600.5 69.8572
1601.5 63.5714
1602.5 16.1429
1603.5 54.2857
1604.5 -24.7143
1605.5 -50.2857
1606.5 11.5714
1607.5 25.1429
1608.5 1.00002
1609.5 -12.8571
1610.5 32
1611.5 -17.2857
1612.5 -40.2857
1613.5 69.8572
1614.5 41.2857
1615.5 48.2857
1616.5 80.8572
1617.5 51.2857
1618.5 -19.2857
1619.5 -41.2857
1620.5 58
1621.5 8.85717
1622.5 -61
1623.5 37
1624.5 -113.429
1625.5 -146
1626.5 -93.1428
1627.5 -45
1628.5 11.1429
1629.5 10.2857
1630.5 52.4286
1631.5 -16.1428
1632.5 -23
1633.5 74
1634.5 41.5715
1635.5 -0.142834
1636.5 -9.28569
1637.5 -60.8571
1638.5 -62.7143
1639.5 25.7143
1640.5 -10.8571
1641.5 -60.7143
1642.5 -2.28569
1643.5 -32.4286
1644.5 -23.4285
1645.5 13.2857
1646.5 -8.99998
1647.5 38.2857
1648.5 -8.85711
1649.5 25.4286
1650.5 26.7143
1651.5 18
1652.5 60
1653.5 2.85716
1654.5 -13.7143
1655.5 -49
1656.5 -28.4286
1657.5 -80.1428
1658.5 -215.714
1659.5 -86.5714
1660.5 0.857162
1661.5 55
1662.5 53.8572
1663.5 4.00002
1664.5 -33.8571
1665.5 -6.99998
1666.5 38.7143
1667.5 48.1429
1668.5 69.8572
1669.5 79.4286
1670.5 22.8572
1671.5 3.7143
1672.5 20.4286
1673.5 70.7143
1674.5 -20.2857
1675.5 -0.714266
1676.5 -12.2857
1677.5 77.1429
1678.5 32.1429
1679.5 -59.7143
1680.5 -29.2857
1681.5 103.857
1682.5 -35.2857
1683.5 1.42859
1684.5 -12.7143
1685.5 -19.7143
1686.5 47.8572
1687.5 -15.8571
1688.5 40
1689.5 -58.1428
1690.5 82.2857
1691.5 11.7143
1692.5 44.4286
1693.5 -16.4286
1694.5 3.00002
1695.5 31.2857
1696.5 16.5714
1697.5 -11.1428
1698.5 45.8572
1699.5 14.7143
1700.5 32.1429
1701.5 42.4286
1702.5 -19
1703.5 14.5714
1704.5 42.1429
1705.5 85
1706.5 12.1429
1707.5 13.7143
1708.5 44.1429
1709.5 44.2857
1710.5 4.28573
1711.5 44.5714
1712.5 23.5714
1713.5 16.5714
1714.5 45.7143
1715.5 6.42859
1716.5 60.5714
1717.5 -6.57141
1718.5 67.7143
1719.5 47.4286
1720.5 3.85716
1721.5 -76.4286
1722.5 -6.85713
1723.5 19
1724.5 85.5715
1725.5 131.714
1726.5 4.00003
1727.5 56
1728.5 67.7143
1729.5 -89.4285
1730.5 -7.2857
1731.5 -24.8571
1732.5 43
1733.5 48.4286
1734.5 64.5714
1735.5 27.2857
1736.5 34.8572
1737.5 106.286
1738.5 18
1739.5 -18
1740.5 -101
1741.5 -217.571
1742.5 -198.286
1743.5 -62.8571
1744.5 13
1745.5 -50.5714
1746.5 112
1747.5 -23.8571
1748.5 29.2857
1749.5 -61.7143
1750.5 0.28573
1751.5 81.7143
1752.5 112.429
1753.5 23.4286
1754.5 1.85716
1755.5 31.4286
1756.5 -5.85713
1757.5 31.1429
1758.5 57
1759.5 67
1760.5 27
1761.5 36.4286
1762.5 34.5714
1763.5 -76.2857
1764.5 3.85716
1765.5 -22.1428
1766.5 -7.14284
1767.5 29.5714
1768.5 -3.42856
1769.5 45.5714
1770.5 26.7143
1771.5 62.5714
1772.5 -29.4286
1773.5 -2.85712
1774.5 -9.85712
1775.5 77.4286
1776.5 2.85716
1777.5 -4.99998
1778.5 37.4286
1779.5 -8.57141
1780.5 -0.999983
1781.5 15.4286
1782.5 13.7143
1783.5 61.4286
1784.5 -14.4286
1785.5 -27.5714
1786.5 75.1429
1787.5 63
1788.5 -14.1428
1789.5 28.4286
1790.5 27.8572
1791.5 -19.5714
1792.5 58
1793.5 8.14287
1794.5 0.142872
1795.5 27.8572
1796.5 66.5714
1797.5 15
1798.5 33.5714
1799.5 -13.7143
1800.5 -43.7143
1801.5 50.8572
1802.5 -15.2857
1803.5 40.1429
1804.5 -9.57141
1805.5 78.8572
1806.5 69.4286
1807.5 52.1429
1808.5 3.14288
1809.5 -32.2857
1810.5 -26
1811.5 51.1429
1812.5 14.5714
1813.5 62.4286
1814.5 -32.7143
1815.5 47.5714
1816.5 27.5714
1817.5 2.7143
1818.5 37.2857
1819.5 27.7143
1820.5 32.2857
1821.5 -5.57141
1822.5 -45.5714
1823.5 -6.2857
1824.5 39.4286
1825.5 -18.2857
1826.5 -14
1827.5 -5.57141
1828.5 70.8572
1829.5 -9.2857
1830.5 59.8572
1831.5 92.8572
1832.5 -7.99998
1833.5 34.1429
1834.5 -10.4286
1835.5 3.57144
1836.5 35.4286
1837.5 -23.5714
1838.5 -2.99998
1839.5 50.7143
1840.5 -24.8571
1841.5 0.571446
1842.5 -17.7143
1843.5 -48.7143
1844.5 -75
1845.5 -14.8571
1846.5 58.1429
1847.5 55.7143
1848.5 21.7143
1849.5 44.8572
1850.5 -26.7143
1851.5 50.5714
1852.5 90.8572
1853.5 6.7143
1854.5 -68.2857
1855.5 60.4286
1856.5 61.1429
1857.5 177.429
1858.5 114.714
1859.5 29.2857
1860.5 19.2857
1861.5 -24.5714
1862.5 -54.2857
1863.5 42.5714
1864.5 46
1865.5 33.7143
1866.5 7.28573
1867.5 59.5714
1868.5 38.5714
1869.5 9.00002
1870.5 -17.7143
1871.5 69.2857
1872.5 136.286
1873.5 28
1874.5 -20.8571
1875.5 41.5714
1876.5 70.2857
1877.5 15.4286
1878.5 58
1879.5 8.7143
1880.5 9.42859
1881.5 -15.7143
1882.5 81.7143
1883.5 79.4286
1884.5 133.714
1885.5 161
1886.5 371.143
1887.5 175.857
1888.5 109.857
1889.5 29
1890.5 4.7143
1891.5 -13.8571
1892.5 1.14287
1893.5 26.5714
1894.5 27
1895.5 34.4286
1896.5 48.5714
1897.5 44
1898.5 89.5714
1899.5 99.1429
1900.5 -19.5714
1901.5 19
1902.5 25
1903.5 -11
1904.5 41.2857
1905.5 -13.5714
1906.5 5.57144
1907.5 4.28573
1908.5 -57
1909.5 10.8572
1910.5 -27.2857
1911.5 -14.7143
1912.5 120
1913.5 5.42859
1914.5 40.1429
1915.5 3.42859
1916.5 8.7143
1917.5 60.4286
1918.5 -34.5714
1919.5 113.286
1920.5 -33.7143
1921.5 40.2857
1922.5 3.14287
1923.5 19.5714
1924.5 -0.571413
1925.5 28.5714
1926.5 -16.1428
1927.5 10.2857
1928.5 38.1429
1929.5 -19.5714
1930.5 22
1931.5 -42.7143
1932.5 24.7143
1933.5 39.8572
1934.5 54.4286
1935.5 18.8572
1936.5 -21.4286
1937.5 17.1429
1938.5 66.5714
1939.5 265.857
1940.5 615.143
1941.5 1302.71
1942.5 1629.29
1943.5 1028.43
1944.5 290.286
1945.5 107.143
1946.5 -4.2857
1947.5 14.7143
1948.5 114.429
1949.5 198.571
1950.5 267.286
1951.5 248
1952.5 14
1953.5 24.5714
1954.5 -33
1955.5 25.8572
1956.5 23.1429
1957.5 74.7143
1958.5 93.7143
1959.5 98
1960.5 54.4286
1961.5 116.429
1962.5 20.7143
1963.5 41.5714
1964.5 -40.2857
1965.5 -44.1428
1966.5 -6.2857
1967.5 65.4286
1968.5 -6.42856
1969.5 27.8572
1970.5 32.8572
1971.5 -14.4286
1972.5 45
1973.5 -2.2857
1974.5 -2.99999
1975.5 -77.2857
1976.5 -11.2857
1977.5 63.5714
1978.5 16.7143
1979.5 -53
1980.5 -55.7143
1981.5 35.5714
1982.5 -31
1983.5 -5.99998
1984.5 47.8572
1985.5 14.2857
1986.5 49.5714
1987.5 108.714
1988.5 32.5714
1989.5 45.2857
1990.5 -44.1428
1991.5 -41.7143
1992.5 22.7143
1993.5 -72
1994.5 56
1995.5 21.7143
1996.5 34.2857
1997.5 2.57144
1998.5 33
1999.5 -5.71427
2000.5 45.8572
2001.5 98.2857
2002.5 58.1429
2003.5 -58.8571
2004.5 2.57144
2005.5 -79.1428
2006.5 20.5714
2007.5 -0.571412
2008.5 -16.2857
2009.5 -44.8571
2010.5 -35.7143
2011.5 -19.8571
2012.5 13.5714
2013.5 48.5714
2014.5 11.2857
2015.5 -60.2857
2016.5 10.1429
2017.5 -0.999986
2018.5 30.1429
2019.5 26.2857
2020.5 6.7143
2021.5 -33.5714
2022.5 14.5714
2023.5 14.5714
2024.5 35.1429
2025.5 -21.8571
2026.5 -47.2857
2027.5 56.8572
2028.5 -35
2029.5 -9.85713
2030.5 -56.8571
2031.5 56
2032.5 -20.7143
2033.5 39
2034.5 24.1429
2035.5 -79
2036.5 14.1429
2037.5 -54.5714
2038.5 -23.5714
2039.5 -89.4286
2040.5 3.85716
2041.5 -11.7143
2042.5 -16.2857
2043.5 -27.7143
2044.5 -24.5714
2045.5 11
2046.5 -24.5714
2047.5 -12.1428
2048.5 10.4286
2049.5 18.7143
2050.5 27.4286
2051.5 1.14287
2052.5 -30.1428
2053.5 -14.5714
2054.5 -20.2857
2055.5 -60
2056.5 12.7143
2057.5 -11.4286
2058.5 -33.7143
2059.5 14.8572
2060.5 -10.1428
2061.5 1.85715
2062.5 -7.71427
2063.5 8.85716
2064.5 -17.7143
2065.5 44.7143
2066.5 8.7143
2067.5 -14.4286
2068.5 -41.7143
2069.5 -24.5714
2070.5 -15.5714
2071.5 -80.8571
2072.5 16.8572
2073.5 -61.5714
2074.5 18.1429
2075.5 14.2857
2076.5 43.8572
2077.5 -10.5714
2078.5 -17.8571
2079.5 1.28573
2080.5 12.8572
2081.5 1.57144
2082.5 -37.2857
2083.5 -53.2857
2084.5 -17.2857
2085.5 -85.4286
2086.5 2.28573
2087.5 -136.857
2088.5 -13.8571
2089.5 -60.2857
2090.5 -26.4286
2091.5 -42.8571
2092.5 35.5714
2093.5 25.5714
2094.5 18.7143
2095.5 -19.2857
2096.5 15.7143
2097.5 -68.1428
2098.5 -25.8571
2099.5 -135.286
2100.5 -19.4286
2101.5 -16.1428
2102.5 -70.7143
2103.5 -11.7143
2104.5 2.14287
2105.5 19.5714
2106.5 -0.571414
2107.5 7.7143
2108.5 34
2109.5 -14
2110.5 -49.1428
2111.5 -48.8571
2112.5 -58
2113.5 -125.286
2114.5 -142.286
2115.5 -139.429
2116.5 -159
2117.5 -82
2118.5 -36.8571
2119.5 -47.5714
2120.5 -38.5714
2121.5 9.85715
2122.5 48.7143
2123.5 14.1429
2124.5 -61.1428
2125.5 -36.7143
2126.5 -43.5714
2127.5 9.7143
2128.5 36.1429
2129.5 33.1429
2130.5 -29.7143
2131.5 59.2857
2132.5 -11.2857
2133.5 -67.8571
2134.5 3.00001
2135.5 57.7143
2136.5 1.7143
2137.5 35.4286
2138.5 62.8572
2139.5 -51.5714
2140.5 112.714
2141.5 356.143
2142.5 898.857
2143.5 1937
2144.5 1697.43
2145.5 873.286
2146.5 233.714
2147.5 27.1429
2148.5 -205.429
2149.5 -485.428
2150.5 -975.857
2151.5 -710
2152.5 -207.143
2153.5 -67.7143
2154.5 -64.2857
2155.5 -20.1428
2156.5 32.5714
2157.5 -52.1428
2158.5 2.85715
2159.5 -12
2160.5 34.4286
2161.5 1.00001
2162.5 16
2163.5 -19.5714
2164.5 -2.85713
2165.5 61.2857
2166.5 114.143
2167.5 51.7143
2168.5 -3.57142
2169.5 -27.2857
2170.5 -6.71427
2171.5 -2.71427
2172.5 -13.2857
2173.5 9.7143
2174.5 -25.2857
2175.5 22.2857
2176.5 1.33514e-05
2177.5 -5.71427
2178.5 -6.57141
2179.5 -64.2857
2180.5 46.5714
2181.5 -0.999989
2182.5 36.5714
2183.5 31.2857
2184.5 60
2185.5 42.7143
2186.5 -19.2857
2187.5 -26.2857
2188.5 9.14287
2189.5 -20.2857
2190.5 -8.71427
2191.5 1.85716
2192.5 -56.4286
2193.5 -120.714
2194.5 4.14287
2195.5 -11
2196.5 51
2197.5 -55.8571
2198.5 -5.85712
2199.5 -62.2857
2200.5 16.8572
2201.5 -44.5714
2202.5 -75.8571
2203.5 -15
2204.5 -15.1428
2205.5 30.7143
2206.5 30.1429
2207.5 -12.2857
2208.5 23.4286
2209.5 -7.2857
2210.5 32.4286
2211.5 -26.2857
2212.5 37.1429
2213.5 40.2857
2214.5 4.42858
2215.5 -65.8571
2216.5 -29.4286
2217.5 -89.4286
2218.5 -13.5714
2219.5 -0.571416
2220.5 -27
2221.5 96.8572
2222.5 8.57145
2223.5 133.571
2224.5 16.2857
2225.5 5.42859
2226.5 26.8572
2227.5 16.8572
2228.5 -6.2857
2229.5 30
2230.5 16.5714
2231.5 81.4286
2232.5 15.8572
2233.5 63.4286
2234.5 65.5714
2235.5 8.14287
2236.5 -3.2857
2237.5 -21.8571
2238.5 -42.4286
2239.5 20.5714
2240.5 -26.4286
2241.5 -27
2242.5 -28
2243.5 5.14287
2244.5 8.7143
2245.5 -55.1428
2246.5 -87.1428
2247.5 -67
2248.5 -126
2249.5 -107.857
2250.5 -27.8571
2251.5 71
2252.5 2.14287
2253.5 -46.4286
2254.5 -29
2255.5 6.28573
2256.5 -18.7143
2257.5 12.2857
2258.5 -70.7143
2259.5 -51.1428
2260.5 -4.57142
2261.5 11.4286
2262.5 -3.14285
2263.5 20.2857
2264.5 3.14287
2265.5 1.57144
2266.5 2.85715
2267.5 29.5714
2268.5 -22
2269.5 3.00001
2270.5 -35.5714
2271.5 -27
2272.5 29.7143
2273.5 33.4286
2274.5 17.1429
2275.5 1.85715
2276.5 101.714
2277.5 54.5714
2278.5 65.8572
2279.5 66.4286
2280.5 -39.2857
2281.5 -22.7143
2282.5 30.4286
2283.5 48.7143
2284.5 -38.2857
2285.5 -0.42856
2286.5 -14.7143
2287.5 -7.85713
2288.5 4.7143
2289.5 -27.1428
2290.5 -18.2857
2291.5 60
2292.5 -9.14285
2293.5 45.4286
2294.5 69.8572
2295.5 -23.7143
2296.5 -24.7143
2297.5 45.5714
2298.5 85.5714
2299.5 58.4286
2300.5 146.286
2301.5 106.286
2302.5 59.1429
2303.5 8.85715
2304.5 83.1429
2305.5 -27.7143
2306.5 -7.42856
2307.5 -36.5714
2308.5 -48.5714
2309.5 -115.286
2310.5 -18.2857
2311.5 -48.4286
2312.5 -14.7143
2313.5 31.2857
2314.5 11.2857
2315.5 -15.5714
2316.5 -5.99999
2317.5 25.4286
2318.5 -41.1428
2319.5 43.5714
2320.5 -16.5714
2321.5 19
2322.5 -13.1428
2323.5 -46.5714
2324.5 -41.7143
2325.5 12.4286
2326.5 8.7143
2327.5 5.7143
2328.5 -18.8571
2329.5 50.4286
2330.5 -0.285704
2331.5 14.8572
2332.5 4.14287
2333.5 27.5714
2334.5 -67.2857
2335.5 9.85715
2336.5 -30.4286
2337.5 -25
2338.5 24.5714
2339.5 22.7143
2340.5 -18.5714
2341.5 0.142869
2342.5 36.7143
2343.5 -0.714273
2344.5 -30.4286
2345.5 -1.99999
2346.5 -27.2857
2347.5 -61
2348.5 20.2857
2349.5 13.5714
2350.5 -22.4286
2351.5 9.7143
2352.5 -43.2857
2353.5 21.1429
2354.5 -7.71427
2355.5 12
2356.5 -2.2857
2357.5 -16.2857
2358.5 -11.7143
2359.5 37.2857
2360.5 64.5714
2361.5 -3.2857
2362.5 -28.5714
2363.5 25.5714
2364.5 28.4286
2365.5 12
2366.5 11.8572
2367.5 -26.4286
2368.5 -49.4286
2369.5 0.142868
2370.5 -35.7143
2371.5 -67.4286
2372.5 -22.7143
2373.5 25.4286
2374.5 -88.8571
2375.5 -7.99999
2376.5 6.00001
2377.5 -3.42856
2378.5 -6.71427
2379.5 30.2857
2380.5 34.7143
2381.5 -6.14285
2382.5 24.5714
2383.5 75
2384.5 -35.8571
2385.5 -27.7143
2386.5 2.42858
2387.5 35.4286
2388.5 45
2389.5 34.4286
2390.5 -38.4286
2391.5 -15.1428
2392.5 55.8572
2393.5 -15.7143
2394.5 14.2857
2395.5 17.8572
2396.5 31.2857
2397.5 -4.99999
2398.5 17.5714
2399.5 -2.57142
2400.5 -46.2857
2401.5 38.4286
2402.5 15
2403.5 -95
2404.5 5.42858
2405.5 -20
2406.5 -69
2407.5 -19.5714
2408.5 37.1429
2409.5 25.5714
2410.5 52.2857
2411.5 -29.8571
2412.5 17.5714
2413.5 40.5714
2414.5 6.28573
2415.5 5.42858
2416.5 95.7143
2417.5 -50.8571
2418.5 29
2419.5 -3.2857
2420.5 -4.99999
2421.5 34
2422.5 13
2423.5 14.5714
2424.5 33.4286
2425.5 -13.2857
2426.5 6.14287
2427.5 20.7143
2428.5 -28.4286
2429.5 9.42858
2430.5 -35
2431.5 -22.8571
2432.5 -67.1428
2433.5 -56.7143
2434.5 -0.571417
2435.5 -25
2436.5 -11.5714
2437.5 10.8572
2438.5 7.42858
2439.5 22.1429
2440.5 7.85715
2441.5 -28.8571
2442.5 30.8572
2443.5 -48.8571
2444.5 -19.1428
2445.5 25
2446.5 3.7143
2447.5 36.5714
2448.5 28.1429
2449.5 -115.429
2450.5 2.7143
2451.5 35
2452.5 -52.4286
2453.5 -38.7143
2454.5 -21.8571
2455.5 -13.2857
2456.5 24.7143
2457.5 -26.2857
2458.5 -0.714275
2459.5 -22.2857
2460.5 -32.1428
2461.5 20.2857
2462.5 -60.5714
2463.5 -37.1428
2464.5 -26
2465.5 38
2466.5 -81.1428
2467.5 -47.5714
2468.5 -6.85713
2469.5 -72.2857
2470.5 -46.4286
2471.5 -20.5714
2472.5 -18.1428
2473.5 -39.2857
2474.5 -13.5714
2475.5 -15.5714
2476.5 -3.57142
2477.5 -80.1428
2478.5 8.7143
2479.5 34.5714
2480.5 1.14287
2481.5 -31.7143
2482.5 -60
2483.5 36.2857
2484.5 -38.2857
2485.5 42.2857
2486.5 -1.2857
2487.5 -15.4286
2488.5 52.1429
2489.5 -29.4286
2490.5 -42.7143
2491.5 19.1429
2492.5 11.7143
2493.5 -1.14285
2494.5 -22.1428
2495.5 1.57144
2496.5 75.2857
2497.5 21.5714
2498.5 16
2499.5 15.4286
2500.5 10.8572
2501.5 52.4286
2502.5 -11.2857
2503.5 -6.57142
2504.5 -20
2505.5 -22.1428
2506.5 -6.42856
2507.5 -47.8571
2508.5 -22.8571
2509.5 -26
2510.5 -18.2857
2511.5 21
2512.5 23.4286
2513.5 54
2514.5 -16
2515.5 81.7143
2516.5 -62.8571
2517.5 -46.5714
2518.5 14.1429
2519.5 -4.99997
2520.5 1.71431
2521.5 35.1429
2522.5 19.8572
2523.5 -3.14285
2524.5 1.57144
2525.5 -7.57142
2526.5 25.5714
2527.5 42.8572
2528.5 -27.8571
2529.5 -44.7143
2530.5 -3.42856
2531.5 -24.8571
2532.5 11
2533.5 -8.57142
2534.5 9.14287
2535.5 11.1429
2536.5 -25.4286
2537.5 36.2857
2538.5 -3.99999
2539.5 -72.2857
2540.5 18.7143
2541.5 -34.2857
2542.5 -34.2857
2543.5 -47
2544.5 -21.8571
2545.5 2.42858
2546.5 4.00001
2547.5 11.5714
2548.5 -0.857131
2549.5 -1.2857
2550.5 -28.8571
2551.5 27.7143
2552.5 -5.99999
2553.5 -25.5714
2554.5 28.5714
2555.5 -42.2857
2556.5 -15
2557.5 19.4286
2558.5 -18.7143
2559.5 32
2560.5 -46
2561.5 47.2857
2562.5 22.5714
2563.5 52.2857
2564.5 -6.85713
2565.5 81
2566.5 2.14287
2567.5 -1.2857
2568.5 33.7143
2569.5 26.4286
2570.5 1.85715
2571.5 -22.4286
2572.5 4.7143
2573.5 -6.28571
2574.5 -28
2575.5 -53.8571
2576.5 -61
2577.5 3.28573
2578.5 9.00001
2579.5 -33.1428
2580.5 -38.7143
2581.5 -79.8571
2582.5 -34.2857
2583.5 67.7143
2584.5 13.7143
2585.5 -26.8571
2586.5 -6.71427
2587.5 46.4286
2588.5 86.2857
2589.5 22.8572
2590.5 46.2857
2591.5 2.00001
2592.5 -18.7143
2593.5 -77.7143
2594.5 -6.28571
2595.5 33.4286
2596.5 23
2597.5 -31.2857
2598.5 -23.8571
2599.5 48.2857
2600.5 42.7143
2601.5 94.5714
2602.5 -15.5714
2603.5 -10.1428
2604.5 55.4286
2605.5 26.4286
2606.5 -38.5714
2607.5 20.8572
2608.5 -51.1428
2609.5 -38.4286
2610.5 -21.2857
2611.5 -12.2857
2612.5 32.1429
2613.5 5.14287
2614.5 -20.7143
2615.5 -31.5714
2616.5 -42.2857
2617.5 -116.286
2618.5 -106.429
2619.5 -146.429
2620.5 14.2857
2621.5 -1.71427
2622.5 -22.8571
2623.5 4.42858
2624.5 -42.4286
2625.5 -29.8571
2626.5 5.42858
2627.5 -22.2857
2628.5 -11.4286
2629.5 -8.85713
2630.5 -42.8571
2631.5 10.7143
2632.5 -19.4286
2633.5 27.1429
2634.5 -10.7143
2635.5 -23.4286
2636.5 19
2637.5 -11.5714
2638.5 34.2857
2639.5 14
2640.5 16
2641.5 -36.8571
2642.5 12.1429
2643.5 48.4286
2644.5 52.7143
2645.5 36.2857
2646.5 18.4286
2647.5 -3.99999
2648.5 12.2857
2649.5 -33.2857
2650.5 3.00001
2651.5 26.2857
2652.5 -12.1428
2653.5 43.8572
2654.5 53.2857
2655.5 -65.1428
2656.5 -41.1428
2657.5 1.28573
2658.5 -7.71427
2659.5 -12.2857
2660.5 28.5714
2661.5 50.4286
2662.5 -17.2857
2663.5 -13.1428
2664.5 -17.8571
2665.5 -30.7143
2666.5 -2.2857
2667.5 10.7143
2668.5 -16.7143
2669.5 27.5714
2670.5 9.42858
2671.5 2.42858
2672.5 -3.42856
2673.5 37.8572
2674.5 63
2675.5 -8.99999
2676.5 15.8572
2677.5 -29.2857
2678.5 -45
2679.5 11.7143
2680.5 55.5714
2681.5 2.00001
2682.5 -41
2683.5 -48.5714
2684.5 71.5714
2685.5 6.14287
2686.5 -7.85713
2687.5 72.2857
2688.5 8.00001
2689.5 32.5714
2690.5 9.7143
2691.5 -88.2857
2692.5 15.5714
2693.5 -0.999991
2694.5 -11.1428
2695.5 14.4286
2696.5 -3.14285
2697.5 -26.4286
2698.5 -3.42856
2699.5 -17.7143
2700.5 28.5714
2701.5 38.5714
2702.5 -14.5714
2703.5 -22.4286
2704.5 27.4286
2705.5 0.714295
2706.5 -29.1428
2707.5 -44
2708.5 -9.57142
2709.5 -3.99999
2710.5 5.14287
2711.5 4.42858
2712.5 39.8572
2713.5 3.00001
2714.5 46.5714
2715.5 35.2857
2716.5 51.4286
2717.5 11.7143
2718.5 -8.14285
2719.5 -3.99999
2720.5 -50.8571
2721.5 -61.4286
2722.5 -35.4286
2723.5 -68.2857
2724.5 50
2725.5 21.2857
2726.5 49.5714
2727.5 -43.2857
2728.5 13
2729.5 9.57144
2730.5 -67.7143
2731.5 -98.7143
2732.5 -83.2857
2733.5 0.714296
2734.5 18.8572
2735.5 -19.7143
2736.5 34.5714
2737.5 62.7143
2738.5 -50.2857
2739.5 28.8572
2740.5 -13.1428
2741.5 2.57144
2742.5 -71.4286
2743.5 -3.71428
2744.5 -28.5714
2745.5 9.57144
2746.5 17.5714
2747.5 -14.7143
2748.5 6.57144
2749.5 -9.85713
2750.5 -6.42856
2751.5 101.143
2752.5 14.4286
2753.5 36.8572
2754.5 -19.5714
2755.5 -3.2857
2756.5 -10.1428
2757.5 -42.2857
2758.5 -36.1428
2759.5 -66.4286
2760.5 24.1429
2761.5 -0.142847
2762.5 9.42858
2763.5 -49.8571
2764.5 81.4286
2765.5 -4.85713
2766.5 42.2857
2767.5 -27.1428
2768.5 28.5714
2769.5 0.142866
2770.5 -28.1428
2771.5 -27.2857
2772.5 -3.99999
2773.5 -56.1428
2774.5 18.2857
2775.5 14.8572
2776.5 -11.7143
2777.5 6.57144
2778.5 -2.28571
2779.5 -6.57142
2780.5 39.5714
2781.5 12.7143
2782.5 31.5714
2783.5 -30.5714
2784.5 -0.857132
2785.5 2.14287
2786.5 -1.99999
2787.5 72
2788.5 6.00001
2789.5 125.143
2790.5 41.7143
2791.5 27.5714
2792.5 32.7143
2793.5 -15.8571
2794.5 -10.4286
2795.5 -14.5714
2796.5 -30.8571
2797.5 -64.7143
2798.5 -1.2857
2799.5 -6.28571
2800.5 48.2857
2801.5 -18.5714
2802.5 7.57144
2803.5 28.4286
2804.5 31.4286
2805.5 6.28572
2806.5 -8.57142
2807.5 -67
2808.5 -28.7143
2809.5 -36.4286
2810.5 -53.7143
2811.5 36.5714
2812.5 37.5714
2813.5 28
2814.5 52.8572
2815.5 -5.14285
2816.5 19.7143
2817.5 -31.4286
2818.5 25.1429
2819.5 -49.7143
2820.5 -19.7143
2821.5 -31.5714
2822.5 -27.7143
2823.5 9.28572
2824.5 -13.4286
2825.5 -37.4286
2826.5 11.5714
2827.5 37.8572
2828.5 11.4286
2829.5 -25.8571
2830.5 -29.1428
2831.5 36.4286
2832.5 22.7143
2833.5 13.4286
2834.5 16.8572
2835.5 9.71429
2836.5 -59.8571
2837.5 -40.5714
2838.5 -16.5714
2839.5 36.2857
2840.5 50.5714
2841.5 18.7143
2842.5 0.714295
2843.5 34
2844.5 -35.8571
2845.5 -39.1428
2846.5 26.8572
2847.5 -40
2848.5 40.4286
2849.5 -1.14285
2850.5 14.1429
2851.5 -15.8571
2852.5 10.7143
2853.5 32.7143
2854.5 -8.42856
2855.5 1.00001
2856.5 1.00001
2857.5 -52.5714
2858.5 1.71429
2859.5 -9.28571
2860.5 37.4286
2861.5 18.1429
2862.5 42.2857
2863.5 -33.2857
2864.5 61.7143
2865.5 11.1429
2866.5 41.4286
2867.5 2.42858
2868.5 7.42858
2869.5 -22.4286
2870.5 44.8572
2871.5 65.4286
2872.5 96.1429
2873.5 32.5714
2874.5 90.8572
2875.5 34.8572
2876.5 42.2857
2877.5 -6.14285
2878.5 21.7143
2879.5 -30.2857
2880.5 20.5714
2881.5 64.4286
2882.5 -23.2857
2883.5 24.1429
2884.5 -20.4286
2885.5 -4.57142
2886.5 42.8572
2887.5 -26.2857
2888.5 49.8572
2889.5 -20.8571
2890.5 21.7143
2891.5 -58.1428
2892.5 -19.5714
2893.5 -26.5714
2894.5 -38.8571
2895.5 -3.2857
2896.5 20.5714
2897.5 29.4286
2898.5 -31
2899.5 11.1429
2900.5 15.7143
2901.5 7.28572
2902.5 1.57144
2903.5 29.1429
2904.5 29.1429
2905.5 -32
2906.5 45.5714
2907.5 38.5714
2908.5 25.4286
2909.5 17.8572
2910.5 -5.99999
2911.5 28.4286
2912.5 61.2857
2913.5 3.00001
2914.5 25
2915.5 18.2857
2916.5 23.4286
2917.5 48.2857
2918.5 70.7143
2919.5 2.14287
2920.5 -25.7143
2921.5 -18.7143
2922.5 3.14287
2923.5 -13.2857
2924.5 -7.42856
2925.5 8.42858
2926.5 -12.4286
2927.5 17.5714
2928.5 0.714294
2929.5 -92.4286
2930.5 -79.7143
2931.5 -31.5714
2932.5 -7.85713
2933.5 -8.85713
2934.5 -2.85713
2935.5 13.1429
2936.5 -4.57142
2937.5 6.7143
2938.5 73.8572
2939.5 4.00001
2940.5 -27.2857
2941.5 41.1429
2942.5 14.8572
2943.5 20.2857
2944.5 33
2945.5 69.1429
2946.5 137.571
2947.5 70.7143
2948.5 91.1429
2949.5 49.7143
2950.5 1.7143
2951.5 46.4286
2952.5 16.5714
2953.5 -83
2954.5 -23.4286
2955.5 49.8572
2956.5 -25.7143
2957.5 -48.8571
2958.5 9.57144
2959.5 33.7143
2960.5 -17.1428
2961.5 29.7143
2962.5 18.1429
2963.5 -33
2964.5 -53.2857
2965.5 -76.8571
2966.5 -34.2857
2967.5 -66.5714
2968.5 14.4286
2969.5 -76.2857
2970.5 52
2971.5 15
2972.5 61.4286
2973.5 30.2857
2974.5 3.57144
2975.5 39.1429
2976.5 34.1429
2977.5 -44.7143
2978.5 25.1429
2979.5 -41.5714
2980.5 9.57144
2981.5 14
2982.5 -24.8571
2983.5 12.2857
2984.5 -8.14285
2985.5 31
2986.5 33.7143
2987.5 -25.2857
2988.5 17.7143
2989.5 -11.5714
2990.5 1.57144
2991.5 32.4286
2992.5 52.4286
2993.5 -5.14285
2994.5 -22.4286
2995.5 -29.2857
2996.5 -1.14285
2997.5 -11.2857
2998.5 5.71429
2999.5 -15
3000.5 -16.4286
3001.5 -32.7143
3002.5 -18.4286
3003.5 -6.99999
3004.5 16.4286
3005.5 14.8572
3006.5 40.4286
3007.5 83.4286
3008.5 9.42858
3009.5 68.7143
3010.5 31.5714
3011.5 45.7143
3012.5 59.2857
3013.5 -2.71427
3014.5 -1.2857
3015.5 -60.5714
3016.5 -1.28571
3017.5 60.1429
3018.5 46.2857
3019.5 9.14287
3020.5 5.00001
3021.5 26.1429
3022.5 -32
3023.5 4.57144
3024.5 31.5714
3025.5 51.1429
3026.5 79.1429
3027.5 26.4286
3028.5 38.1429
3029.5 24.7143
3030.5 6.71429
3031.5 49.2857
3032.5 19.7143
3033.5 -9.99999
3034.5 -39.8571
3035.5 0.857155
3036.5 76.5714
3037.5 11.2857
3038.5 -11.7143
3039.5 62.1429
3040.5 2.85716
3041.5 -18.5714
3042.5 3.71429
3043.5 28.1429
3044.5 29.7143
3045.5 100.143
3046.5 10.2857
3047.5 21.7143
3048.5 35.4286
3049.5 -22.4286
3050.5 -90.7143
3051.5 -106.286
3052.5 -86.1428
3053.5 -101.857
3054.5 -33.2857
3055.5 -32.7143
3056.5 -0.857135
3057.5 48.2857
3058.5 -26.8571
3059.5 37
3060.5 -32.2857
3061.5 -3.99999
3062.5 12.8572
3063.5 -5.71428
3064.5 4.42858
3065.5 -5.42856
3066.5 30.8572
3067.5 0.285722
3068.5 18.4286
3069.5 52.2857
3070.5 -30.1428
3071.5 -42.5714
3072.5 -52.8571
3073.5 0.285723
3074.5 26.7143
3075.5 -71.1428
3076.5 22.4286
3077.5 -10.4286
3078.5 -15.4286
3079.5 4.00001
3080.5 -29.8571
3081.5 8.00001
3082.5 -43.4286
3083.5 -23.2857
3084.5 -14
3085.5 2.28572
3086.5 -6.99999
3087.5 20.7143
3088.5 -2.28571
3089.5 -35.4286
3090.5 25.8571
3091.5 -9.85714
3092.5 11.2857
3093.5 39.8571
3094.5 -11
3095.5 50.8572
3096.5 65.5714
3097.5 52.4286
3098.5 133.429
3099.5 88.7143
3100.5 93.4286
3101.5 9.85715
3102.5 5.71429
3103.5 46.4286
3104.5 -13
3105.5 -4.28571
3106.5 22.4286
3107.5 -23.7143
3108.5 19.2857
3109.5 48.5714
3110.5 13.1429
3111.5 -0.285704
3112.5 45.5714
3113.5 63.2857
3114.5 28.7143
3115.5 18.7143
3116.5 -37.7143
3117.5 42.5714
3118.5 -1.85713
3119.5 -9.99999
3120.5 66.8571
3121.5 43.4286
3122.5 51.4286
3123.5 31.4286
3124.5 -6.99999
3125.5 -18.2857
3126.5 10.7143
3127.5 16.1429
3128.5 47.8572
3129.5 44.8571
3130.5 -17.1429
3131.5 10.1429
3132.5 -6.14285
3133.5 40.8571
3134.5 47.2857
3135.5 -67.7143
3136.5 26.4286
3137.5 31
3138.5 22.2857
3139.5 7.71429
3140.5 -20
3141.5 32.4286
3142.5 30.2857
3143.5 37.7143
3144.5 -33.5714
3145.5 -3.99999
3146.5 27.4286
3147.5 -20.1428
3148.5 -27
3149.5 16.8572
3150.5 17.2857
3151.5 3.85715
3152.5 -25
3153.5 -33.2857
3154.5 12.2857
3155.5 0.142864
3156.5 -37.2857
3157.5 -27
3158.5 -41
3159.5 -48
3160.5 31.2857
3161.5 17.4286
3162.5 38
3163.5 47
3164.5 27.1429
3165.5 22.8572
3166.5 35.8572
3167.5 -1.85714
3168.5 37.5714
3169.5 21.7143
3170.5 11
3171.5 -7.57142
3172.5 23.4286
3173.5 -32.8571
3174.5 -27.8571
3175.5 -36.1428
3176.5 -61.8571
3177.5 20.1429
3178.5 59.5714
3179.5 35.4286
3180.5 61.5714
3181.5 3.28572
3182.5 32.7143
3183.5 60.5714
3184.5 26.5714
3185.5 15.1429
3186.5 6.28572
3187.5 -65.7143
3188.5 15.4286
3189.5 19.1429
3190.5 31.4286
3191.5 -16.4286
3192.5 34.4286
3193.5 15.1429
3194.5 20
3195.5 -27.5714
3196.5 -7.42856
3197.5 23.8572
3198.5 -45.7143
3199.5 -12
3200.5 -40.8571
3201.5 -48.4286
3202.5 -6.85713
3203.5 11.7143
3204.5 17.7143
3205.5 27.7143
3206.5 38.2857
3207.5 42.7143
3208.5 24.2857
3209.5 34.5714
3210.5 18.2857
3211.5 22.4286
3212.5 -9.14285
3213.5 4.71429
3214.5 35
3215.5 35.2857
3216.5 32.2857
3217.5 29.8572
3218.5 -28.5714
3219.5 2.28572
3220.5 11.4286
3221.5 22.4286
3222.5 -20.7143
3223.5 -34.7143
3224.5 14.8572
3225.5 55.5714
3226.5 7.15256e-06
3227.5 27.5714
3228.5 33.1429
3229.5 48.7143
3230.5 23.4286
3231.5 -19.5714
3232.5 -43.4286
3233.5 -31.7143
3234.5 -32
3235.5 28.5714
3236.5 7.7143
3237.5 -41.8571
3238.5 -1.2857
3239.5 -133.714
3240.5 -302.429
3241.5 -424.857
3242.5 -368.286
3243.5 -256.286
3244.5 -67.4286
3245.5 8.57144
3246.5 10.8571
3247.5 24.8571
3248.5 -16.8571
3249.5 -17.5714
3250.5 15.8571
3251.5 3.28572
3252.5 39.2857
3253.5 -6.28571
3254.5 -7.85713
3255.5 13.8572
3256.5 30.2857
3257.5 15
3258.5 -1.14285
3259.5 -58.2857
3260.5 -31.7143
3261.5 48.5714
3262.5 66.4286
3263.5 -4.14285
3264.5 -34.4286
3265.5 19.2857
3266.5 41.5714
3267.5 -29.2857
3268.5 37.4286
3269.5 39.2857
3270.5 53.5714
3271.5 -43.7143
3272.5 -0.571423
3273.5 17.4286
3274.5 13.8571
3275.5 -0.14285
3276.5 -46.8571
3277.5 15.2857
3278.5 17.1429
3279.5 36
3280.5 -58.5714
3281.5 19
3282.5 4.57144
3283.5 11.4286
3284.5 31.1429
3285.5 -0.857135
3286.5 37.2857
3287.5 -9.85713
3288.5 -20.7143
3289.5 -18.5714
3290.5 -19.1428
3291.5 -0.428564
3292.5 74.7143
3293.5 -16.7143
3294.5 16
3295.5 41.2857
3296.5 66.1429
3297.5 83.8572
3298.5 209
3299.5 367
3300.5 526.571
3301.5 574.571
3302.5 446.857
3303.5 240.857
3304.5 99.1429
3305.5 47
3306.5 2.42858
3307.5 9.57144
3308.5 12.1429
3309.5 51.1429
3310.5 44.7143
3311.5 10.4286
3312.5 -21.5714
3313.5 37.2857
3314.5 -20.4286
3315.5 33.4286
3316.5 29.4286
3317.5 7.57143
3318.5 8.14286
3319.5 47.2857
3320.5 -14.2857
3321.5 -49
3322.5 -22.7143
3323.5 3.00001
3324.5 34.4286
3325.5 -8.14285
3326.5 46.5714
3327.5 30
3328.5 22.7143
3329.5 -16
3330.5 29.5714
3331.5 21.8571
3332.5 3.71429
3333.5 10
3334.5 12.1429
3335.5 8.00001
3336.5 5.57143
3337.5 -4.99999
3338.5 15
3339.5 -4.85714
3340.5 52.2857
3341.5 42.1429
3342.5 1.42858
3343.5 18.1429
3344.5 1.71429
3345.5 22.1429
3346.5 43.1429
3347.5 -0.285708
3348.5 19.1429
3349.5 7.57143
3350.5 8.14286
3351.5 27.1429
3352.5 38.4286
3353.5 -15.5714
3354.5 44.2857
3355.5 -51
3356.5 16.8571
3357.5 -18.2857
3358.5 -14.2857
3359.5 32.8571
3360.5 46
3361.5 42.7143
3362.5 -15.8571
3363.5 -11.8571
3364.5 20.7143
3365.5 41.2857
3366.5 34.5714
3367.5 -5.99999
3368.5 -8.71428
3369.5 -7.71428
3370.5 -5.85714
3371.5 42
3372.5 -29.1428
3373.5 -42.7143
3374.5 30.8571
3375.5 -8.42856
3376.5 19.2857
3377.5 16.7143
3378.5 -6.85714
3379.5 -46.5714
3380.5 26.5714
3381.5 -22
3382.5 -27.8571
3383.5 -7.14285
3384.5 2.42858
3385.5 4.57143
3386.5 -6.99999
3387.5 27.2857
3388.5 2.57143
3389.5 11.8571
3390.5 8.57144
3391.5 21.1429
3392.5 34.2857
3393.5 -3.14285
3394.5 60.2857
3395.5 42.7143
3396.5 47
3397.5 46.8571
3398.5 0.714293
3399.5 -22.8571
3400.5 3.57143
3401.5 9.57143
3402.5 9.71429
3403.5 25.7143
3404.5 18.4286
3405.5 -1.42857
3406.5 -9.14285
3407.5 23
3408.5 60
3409.5 -28
3410.5 -20
3411.5 -1.99999
3412.5 -11.2857
3413.5 -25.7143
3414.5 -29.1428
3415.5 19.2857
3416.5 41.1429
3417.5 44.5714
3418.5 15.5714
3419.5 37.5714
3420.5 -18.4286
3421.5 48.2857
3422.5 24
3423.5 16.7143
3424.5 111.429
3425.5 53.5714
3426.5 181
3427.5 186.857
3428.5 77.4286
3429.5 32.1429
3430.5 29.7143
3431.5 -5.28571
3432.5 -31.5714
3433.5 -51.4286
3434.5 -36.4286
3435.5 -6.28571
3436.5 -17.1429
3437.5 -34.1428
3438.5 -17.5714
3439.5 -22.4286
3440.5 -55.5714
3441.5 25.5714
3442.5 -20.8571
3443.5 -49.1428
3444.5 -33
3445.5 -1.71428
3446.5 -16
3447.5 8.42858
3448.5 14.2857
3449.5 -15.1428
3450.5 24
3451.5 -18.4286
3452.5 -13.4286
3453.5 13.1429
3454.5 -2.99999
3455.5 -8.57142
3456.5 22.4286
3457.5 -23.7143
3458.5 -10.7143
3459.5 -20.5714
3460.5 2.14286
3461.5 6.57143
3462.5 -16.7143
3463.5 0.428578
3464.5 3.57144
3465.5 -2.71428
3466.5 -8.85714
3467.5 -56.7143
3468.5 13.2857
3469.5 -23.8571
3470.5 15.5714
3471.5 7.14286
3472.5 -11.4286
3473.5 2.14286
3474.5 7.85715
3475.5 -15.8571
3476.5 9.42858
3477.5 2.85715
3478.5 61.5714
3479.5 37.8571
3480.5 34.1429
3481.5 47.5714
3482.5 36.5714
3483.5 19.5714
3484.5 15
3485.5 23.2857
3486.5 -17.5714
3487.5 -35
3488.5 -11.7143
3489.5 -15.1428
3490.5 -43.5714
3491.5 18.7143
3492.5 22.1429
3493.5 19
3494.5 -10.4286
3495.5 -33.5714
3496.5 -28.5714
3497.5 -0.428566
3498.5 22.8571
3499.5 -37.7143
3500.5 30
3501.5 -20.4286
3502.5 -35
3503.5 5.57143
3504.5 32.8571
3505.5 -5.57142
3506.5 43.4286
3507.5 -5.42856
3508.5 53.7143
3509.5 -35.8571
3510.5 23.7143
3511.5 36.7143
3512.5 20.7143
3513.5 1.57144
3514.5 -32
3515.5 -14.4286
3516.5 -17
3517.5 -9.28571
3518.5 11.7143
3519.5 -10.8571
3520.5 -8.85714
3521.5 -18
3522.5 -3.85714
3523.5 0.142864
3524.5 -13.2857
3525.5 14.2857
3526.5 -4.99999
3527.5 -12.2857
3528.5 -32.8571
3529.5 -7.57142
3530.5 -38.2857
3531.5 -55
3532.5 -59
3533.5 -22.5714
3534.5 3.57144
3535.5 53.2857
3536.5 8.00001
3537.5 9.85715
3538.5 13.2857
3539.5 13.5714
3540.5 8.28572
3541.5 41.4286
3542.5 -6.28571
3543.5 -50.4286
3544.5 -21.8571
3545.5 75.2857
3546.5 -9.99999
3547.5 -13.1429
3548.5 8.00001
3549.5 -12.5714
3550.5 39.5714
3551.5 35
3552.5 3.42858
3553.5 24.7143
3554.5 -0.857137
3555.5 41.4286
3556.5 15.2857
3557.5 48.5714
3558.5 52.7143
3559.5 18.8571
3560.5 8.71429
3561.5 -13.7143
3562.5 27.5714
3563.5 88.5714
3564.5 61.1429
3565.5 50.7143
3566.5 50.4286
3567.5 70.5714
3568.5 59.1429
3569.5 53.4286
3570.5 27.4286
3571.5 -11.4286
3572.5 43
3573.5 -3.28571
3574.5 -24
3575.5 5.85715
3576.5 -10.8571
3577.5 4.00001
3578.5 -13.5714
3579.5 -30.4286
3580.5 22.5714
3581.5 -4.14285
3582.5 -33.1428
3583.5 -65.8571
3584.5 -2.42856
3585.5 -7.42856
3586.5 6.14286
3587.5 -68.5714
3588.5 15
3589.5 15.8571
3590.5 7.57143
3591.5 -8.57142
3592.5 -9.42857
3593.5 -32.4286
3594.5 -2.85714
3595.5 25.2857
3596.5 -13.5714
3597.5 -54.2857
3598.5 14
3599.5 3.85715
3600.5 -0.142852
3601.5 41.4286
3602.5 36.7143
3603.5 48.2857
3604.5 16.5714
3605.5 84.5714
3606.5 187.143
3607.5 309.857
3608.5 573.143
3609.5 797.429
3610.5 720.143
3611.5 409.857
3612.5 195.714
3613.5 90.1429
3614.5 41.8571
3615.5 -9.85714
3616.5 -20.1429
3617.5 41.8571
3618.5 -3.71428
3619.5 -13.5714
3620.5 27.2857
3621.5 22.7143
3622.5 44.1429
3623.5 -23.5714
3624.5 25.1429
3625.5 -38.5714
3626.5 -27.7143
3627.5 13
3628.5 -24.1429
3629.5 9.57143
3630.5 17.4286
3631.5 -49.7143
3632.5 -13.4286
3633.5 -33.2857
3634.5 35.2857
3635.5 16.2857
3636.5 12.8571
3637.5 55
3638.5 77.4286
3639.5 32.2857
3640.5 46.5714
3641.5 7.00001
3642.5 78.8571
3643.5 32.2857
3644.5 39.8571
3645.5 71.2857
3646.5 52.4286
3647.5 10.4286
3648.5 -5.14285
3649.5 -26.5714
3650.5 -18.7143
3651.5 43
3652.5 -9.99999
3653.5 -22.5714
3654.5 32.7143
3655.5 27.7143
3656.5 62.5714
3657.5 40.4286
3658.5 27
3659.5 39.2857
3660.5 17.2857
3661.5 -18.4286
3662.5 -5.28571
3663.5 -7.57142
3664.5 30.2857
3665.5 5.85715
3666.5 5.14286
3667.5 -3.28571
3668.5 40.4286
3669.5 18.8571
3670.5 41
3671.5 -8.42856
3672.5 41.4286
3673.5 0.714293
3674.5 16.5714
3675.5 5.00001
3676.5 -13.8571
3677.5 24.8571
3678.5 -20.5714
3679.5 -11.4286
3680.5 -7.99999
3681.5 6.14286
3682.5 -25.7143
3683.5 -41.2857
3684.5 -24.7143
3685.5 -36.1429
3686.5 7.71429
3687.5 -7.28571
3688.5 -20
3689.5 -9.99999
3690.5 15.2857
3691.5 -5.42857
3692.5 41.7143
3693.5 3.28572
3694.5 -4.85714
3695.5 -24.2857
3696.5 -12.4286
3697.5 -39.8571
3698.5 -18.2857
3699.5 -7.42857
3700.5 -7.42857
3701.5 24.2857
3702.5 -3.28571
3703.5 -9.28571
3704.5 -24.4286
3705.5 45
3706.5 7.00001
3707.5 37.2857
3708.5 39.8571
3709.5 43.7143
3710.5 41.4286
3711.5 48.7143
3712.5 -15.4286
3713.5 42
3714.5 51.8571
3715.5 21.5714
3716.5 2.42858
3717.5 -17.8571
3718.5 -28.8571
3719.5 -2.28571
3720.5 25.7143
3721.5 16.4286
3722.5 -20.4286
3723.5 -30.2857
3724.5 27.5714
3725.5 -23.5714
3726.5 -43.7143
3727.5 5.00001
3728.5 2.71429
3729.5 -6.85714
3730.5 -25.5714
3731.5 -14.4286
3732.5 -28.2857
3733.5 21
3734.5 -18.4286
3735.5 15.1429
3736.5 28
3737.5 6.57143
3738.5 -21.7143
3739.5 44
3740.5 -6.42857
3741.5 -23.5714
3742.5 -16.1429
3743.5 -60
3744.5 -92.5714
3745.5 -55.5714
3746.5 -6.71427
3747.5 -48.7143
3748.5 -116.857
3749.5 -72.8571
3750.5 -46.4286
3751.5 13.1429
3752.5 -13.7143
3753.5 -13.8571
3754.5 9.71429
3755.5 11.8571
3756.5 -10.4286
3757.5 -3.57142
3758.5 -0.999995
3759.5 7.28572
3760.5 40
3761.5 -9.99999
3762.5 8.28572
3763.5 -34.2857
3764.5 46.7143
3765.5 -51.7143
3766.5 -13.2857
3767.5 -25.2857
3768.5 -38.8571
3769.5 -41.1429
3770.5 -34.5714
3771.5 -26
3772.5 27.5714
3773.5 -0.285709
3774.5 -9.14285
3775.5 -7.85714
3776.5 0.714291
3777.5 20.5714
3778.5 -46.5714
3779.5 -18.5714
3780.5 -9.71428
3781.5 16.5714
3782.5 -22.2857
3783.5 -20.8571
3784.5 -13
3785.5 3.57143
3786.5 27.8571
3787.5 -4.85714
3788.5 -10.1429
3789.5 11.5714
3790.5 1.85715
3791.5 -5.85714
3792.5 -17
3793.5 -5
3794.5 12.4286
3795.5 -8.85714
3796.5 28.1429
3797.5 27.1429
3798.5 2.85715
3799.5 14.5714
3800.5 1.28572
3801.5 0.142861
3802.5 -21
3803.5 -25.8571
3804.5 -6.14285
3805.5 -12.1429
3806.5 -10.1428
3807.5 -9.85714
3808.5 54
3809.5 49.8571
3810.5 47.5714
3811.5 15.1429
3812.5 -5.42857
3813.5 -35.7143
3814.5 -5.71428
3815.5 -28.7143
3816.5 -18.7143
3817.5 22.8571
3818.5 30
3819.5 81.5714
3820.5 86.1429
3821.5 121.714
3822.5 110.714
3823.5 54
3824.5 49.7143
3825.5 -1.14285
3826.5 -33.5714
3827.5 6.71429
3828.5 -31.5714
3829.5 14
3830.5 21.5714
3831.5 -14.5714
3832.5 30.4286
3833.5 -28.5714
3834.5 6.85715
3835.5 19.2857
3836.5 -32.8571
3837.5 -9.85714
3838.5 1.28572
3839.5 10.5714
3840.5 22
3841.5 -45.1429
3842.5 0.285719
3843.5 13.2857
3844.5 -7.28571
3845.5 13.7143
3846.5 -15.8571
3847.5 19.8571
3848.5 42.2857
3849.5 -25.4286
3850.5 12.8571
3851.5 48.4286
3852.5 -9.14285
3853.5 14.5714
3854.5 15
3855.5 -8.71428
3856.5 -16.4286
3857.5 4.85715
3858.5 -23
3859.5 23.2857
3860.5 9.00001
3861.5 -0.428565
3862.5 11
3863.5 -34.4286
3864.5 15.7143
3865.5 3.71429
3866.5 24.5714
3867.5 -9.14285
3868.5 -21.1429
3869.5 -76
3870.5 -21.7143
3871.5 6.14286
3872.5 37.1429
3873.5 22
3874.5 120.714
3875.5 57.1429
3876.5 107.286
3877.5 56.1429
3878.5 6.14286
3879.5 -0.571424
3880.5 -2.57142
3881.5 16
3882.5 -0.999995
3883.5 17.7143
3884.5 11.1429
3885.5 4.42858
3886.5 -9.14285
3887.5 -38.8571
3888.5 -9.71428
3889.5 12.5714
3890.5 -68
3891.5 6.14286
3892.5 -38.2857
3893.5 -85.5714
3894.5 -48
3895.5 3.71429
3896.5 2.85715
3897.5 33.1429
3898.5 47.8571
3899.5 33.2857
3900.5 74.4286
3901.5 98.2857
3902.5 132
3903.5 67.4286
3904.5 63.8571
3905.5 16.4286
3906.5 30.7143
3907.5 -44
3908.5 -33
3909.5 27.8571
3910.5 15.8571
3911.5 27.8571
3912.5 2.14286
3913.5 19
3914.5 15.8571
3915.5 -4.42857
3916.5 21.1429
3917.5 28.8571
3918.5 -8.85714
3919.5 -23.8571
3920.5 -22.8571
3921.5 40.2857
3922.5 2.28572
3923.5 -15.5714
3924.5 -6.85714
3925.5 -13.7143
3926.5 33.2857
3927.5 -0.428567
3928.5 -10.2857
3929.5 31
3930.5 -34.2857
3931.5 -1.85714
3932.5 -26.7143
3933.5 4
3934.5 -5
3935.5 7.71429
3936.5 -26
3937.5 -26
3938.5 4.28572
3939.5 22.7143
3940.5 -5.42857
3941.5 23.2857
3942.5 -1.28571
3943.5 -29.8571
3944.5 11.7143
3945.5 -45.4286
3946.5 -39
3947.5 -27.8571
3948.5 -47.2857
3949.5 -151.143
3950.5 -141
3951.5 -110.571
3952.5 -80.8571
3953.5 -26.7143
3954.5 -166.571
3955.5 -194.714
3956.5 -204
3957.5 -201.714
3958.5 -183.714
3959.5 -203.429
3960.5 -127.857
3961.5 -3.28571
3962.5 32
3963.5 -9.14285
3964.5 -26.8571
3965.5 -7.71428
3966.5 -12.1429
3967.5 -29
3968.5 -25.4286
3969.5 29.5714
3970.5 14.5714
3971.5 -41.2857
3972.5 -52.4286
3973.5 10.8572
3974.5 -28.2857
3975.5 16.2857
3976.5 -9.99999
3977.5 28.2857
3978.5 35.2857
3979.5 -2.42857
3980.5 16.5714
3981.5 -2
3982.5 -3.28571
3983.5 -7.71428
3984.5 -16.5714
3985.5 10.1429
3986.5 -13.1429
3987.5 8.42858
3988.5 -2.85714
3989.5 16.2857
3990.5 15.5714
3991.5 -45
3992.5 -0.142853
3993.5 15.7143
3994.5 -25.2857
3995.5 20.8571
3996.5 16.8571
3997.5 12.7143
3998.5 -12
3999.5 -6.14285
4000.5 18.8571
4001.5 15.1429
4002.5 -2.85714
4003.5 -24.4286
4004.5 13.2857
4005.5 -0.571424
4006.5 0.142861
4007.5 1.42858
4008.5 2.28572
4009.5 -41.4286
4010.5 11.2857
4011.5 6.85715
4012.5 -10.1429
4013.5 16.1429
4014.5 13.7143
4015.5 -8.28571
4016.5 27.4286
4017.5 25.4286
4018.5 -20.1429
4019.5 9.85715
4020.5 -4.28571
4021.5 15.8571
4022.5 3.85715
4023.5 3.71429
4024.5 4.42858
4025.5 36.2857
4026.5 -0.999994
4027.5 10.1429
4028.5 5.71429
4029.5 -6.71428
4030.5 -17.2857
4031.5 4.00001
4032.5 -43
4033.5 2.42858
4034.5 27.4286
4035.5 -17.5714
4036.5 72.1429
4037.5 -27
4038.5 8.14286
4039.5 16.5714
4040.5 -18.8571
4041.5 9
4042.5 -15.4286
4043.5 -16.8571
4044.5 -20.1429
4045.5 -22.1429
4046.5 8.14286
4047.5 -11.7143
4048.5 12.1429
4049.5 6.28572
4050.5 63.1429
4051.5 -17.5714
4052.5 1.28572
4053.5 -25
4054.5 -8.99999
4055.5 -1.42857
4056.5 -19.5714
4057.5 -5.14285
4058.5 17.8571
4059.5 20.5714
4060.5 10.8571
4061.5 -17
4062.5 -18.7143
4063.5 -53.7143
4064.5 0.285718
4065.5 5.71429
4066.5 -15.7143
4067.5 -55.1429
4068.5 12.1429
4069.5 -5.42857
4070.5 -28.4286
4071.5 11.5714
4072.5 -37.5714
4073.5 2.85715
4074.5 -3.85714
4075.5 -14.8571
4076.5 -19
4077.5 16.5714
4078.5 -6
4079.5 -23.1429
4080.5 15.1429
4081.5 -3
4082.5 -4.28571
4083.5 7.57143
4084.5 13.2857
4085.5 8.71429
4086.5 -24.1429
4087.5 -2.57142
4088.5 -0.428567
4089.5 11.5714
4090.5 -25.7143
4091.5 1.85715
4092.5 -25.2857
4093.5 7
4094.5 -11.8571
4095.5 -10.4286
4096.5 -12.1429
4097.5 -3.14285
4098.5 39.1429
4099.5 25.5714
4100.5 12.5714
4101.5 21
4102.5 2.71429
4103.5 26
4104.5 48.5714
4105.5 -8.42857
4106.5 8.57143
4107.5 -3.57142
4108.5 2.71429
4109.5 8.42858
4110.5 -18.2857
4111.5 -30.2857
4112.5 2
4113.5 24.4286
4114.5 10.1429
4115.5 12.4286
4116.5 13.2857
4117.5 -4.71428
4118.5 -16.8571
4119.5 -10
4120.5 -7.28571
4121.5 -25.8571
4122.5 -25
4123.5 21.5714
4124.5 -42.1429
4125.5 14.4286
4126.5 9
4127.5 -42.4286
4128.5 -19
4129.5 -14
4130.5 24.1429
4131.5 21
4132.5 -42.4286
4133.5 12
4134.5 6.42858
4135.5 -12
4136.5 4.42858
4137.5 9
4138.5 -57.4286
4139.5 19
4140.5 -7.14285
4141.5 31.1429
4142.5 31.7143
4143.5 1.42858
4144.5 -1.14285
4145.5 42.5714
4146.5 68.1429
4147.5 192
4148.5 220
4149.5 280.857
4150.5 166.857
4151.5 141.571
4152.5 61.5714
4153.5 48.5714
4154.5 14.2857
4155.5 -8.71428
4156.5 -28.1429
4157.5 -17.2857
4158.5 15.2857
4159.5 -45.5714
4160.5 4.14286
4161.5 18.1429
4162.5 -8.85714
4163.5 9.71429
4164.5 12.5714
4165.5 25.7143
4166.5 -3.42857
4167.5 28.5714
4168.5 18.8572
4169.5 20.7143
4170.5 55.5714
4171.5 27.8571
4172.5 -18.8571
4173.5 25.8571
4174.5 -19.5714
4175.5 5.42858
4176.5 17.4286
4177.5 11.5714
4178.5 -24.7143
4179.5 23.4286
4180.5 -18.8571
4181.5 -5.42857
4182.5 7.14286
4183.5 16.4286
4184.5 -18.4286
4185.5 -30.1429
4186.5 -7.71428
4187.5 -13.8571
4188.5 -2.85714
4189.5 -27.4286
4190.5 2.42857
4191.5 -12.1429
4192.5 23.5714
4193.5 -16.7143
4194.5 15.4286
4195.5 2.57143
4196.5 -41.2857
4197.5 19.1429
4198.5 -32.2857
4199.5 -8.14285
4200.5 3.14286
4201.5 -42.4286
4202.5 -2.14285
4203.5 11.2857
4204.5 -9.71428
4205.5 -12.5714
4206.5 50.8571
4207.5 12
4208.5 23.7143
4209.5 17.7143
4210.5 -62.4286
4211.5 -35.2857
4212.5 -21.4286
4213.5 -15.7143
4214.5 -12
4215.5 11
4216.5 60.7143
4217.5 25
4218.5 55.7143
4219.5 7.14286
4220.5 -21
4221.5 4.14286
4222.5 -9.57142
4223.5 19.4286
4224.5 -14.1429
4225.5 23.8571
4226.5 -28.7143
4227.5 28.4286
4228.5 9.28572
4229.5 -11.7143
4230.5 -18.8571
4231.5 -15.4286
4232.5 -18.7143
4233.5 -19.7143
4234.5 -13.2857
4235.5 16
4236.5 31
4237.5 12.7143
4238.5 5.42858
4239.5 -9.28571
4240.5 -15.5714
4241.5 5.85715
4242.5 -44.1429
4243.5 -48
4244.5 14
4245.5 -31.7143
4246.5 10.7143
4247.5 11.8571
4248.5 30.8571
4249.5 16.7143
4250.5 18.4286
4251.5 17.1429
4252.5 37
4253.5 24.8571
4254.5 82.1429
4255.5 174
4256.5 183
4257.5 304.429
4258.5 249.429
4259.5 114.143
4260.5 67.8571
4261.5 43.2857
4262.5 -12.5714
4263.5 -46.2857
4264.5 -55.1428
4265.5 -48
4266.5 -1.71428
4267.5 -12.1429
4268.5 16.7143
4269.5 -12.1429
4270.5 -13.1429
4271.5 -3.14285
4272.5 3.14286
4273.5 -34.4286
4274.5 11.2857
4275.5 41.5714
4276.5 14.5714
4277.5 -27
4278.5 18.2857
4279.5 -1.71428
4280.5 31.1429
4281.5 7.14286
4282.5 -16.7143
4283.5 31.7143
4284.5 51.2857
4285.5 81.2857
4286.5 75.2857
4287.5 43.1429
4288.5 -5.14285
4289.5 9.71429
4290.5 -1.14285
4291.5 45.4286
4292.5 2.42858
4293.5 13.1429
4294.5 -1.71428
4295.5 23.5714
4296.5 -11.4286
4297.5 9.71429
4298.5 -16.5714
4299.5 -31.8571
4300.5 -1.57142
4301.5 -51.1429
4302.5 -15.8571
4303.5 -15.8571
4304.5 -19.8571
4305.5 -15.5714
4306.5 -22.8571
4307.5 -10.2857
4308.5 10.7143
4309.5 -6.57142
4310.5 -3.57143
4311.5 -37.8571
4312.5 16.7143
4313.5 -31.2857
4314.5 -30.2857
4315.5 45.1429
4316.5 5.42858
4317.5 18.4286
4318.5 -15.7143
4319.5 14.1429
4320.5 -7
4321.5 2.85715
4322.5 3.14286
4323.5 -1.42857
4324.5 -10
4325.5 -3.57142
4326.5 -38.1429
4327.5 20.5714
4328.5 -16.2857
4329.5 -2.42857
4330.5 9
4331.5 21.1429
4332.5 -19.1429
4333.5 -11.5714
4334.5 0.857147
4335.5 5.71429
4336.5 -1.14285
4337.5 -29.4286
4338.5 12.2857
4339.5 -18.7143
4340.5 14.7143
4341.5 -18.4286
4342.5 -22
4343.5 -6.71428
4344.5 -6
4345.5 16.8571
4346.5 11.8571
4347.5 11.7143
4348.5 3.42857
4349.5 19
4350.5 -4.42857
4351.5 -2.42857
4352.5 35.5714
4353.5 21.1429
4354.5 43.8571
4355.5 -13.4286
4356.5 19.1429
4357.5 24.7143
4358.5 7.71429
4359.5 28.4286
4360.5 -0.571425
4361.5 10.8571
4362.5 -36.5714
4363.5 16.7143
4364.5 -10.1429
4365.5 16.2857
4366.5 8
4367.5 8.14286
4368.5 -52.5714
4369.5 -34.2857
4370.5 17
4371.5 -25.4286
4372.5 25.2857
4373.5 5.42858
4374.5 8.85715
4375.5 -21.4286
4376.5 -20.8571
4377.5 -14.1429
4378.5 -3.71428
4379.5 -24.2857
4380.5 13.4286
4381.5 4.00001
4382.5 -35
4383.5 -70.1428
4384.5 -9.28571
4385.5 -39.7143
4386.5 -4.28571
4387.5 18.8571
4388.5 6.14286
4389.5 -18.2857
4390.5 -5.42857
4391.5 -5.99999
4392.5 42.8571
4393.5 3.71429
4394.5 20.7143
4395.5 17.5714
4396.5 2.85715
4397.5 19.1429
4398.5 -32
4399.5 25.4286
4400.5 -14
4401.5 20.5714
4402.5 -13.2857
4403.5 11.7143
4404.5 -2
4405.5 15.2857
4406.5 34.7143
4407.5 31.2857
4408.5 30.7143
4409.5 29.7143
4410.5 -1.85714
4411.5 37.5714
4412.5 17.2857
4413.5 -21.2857
4414.5 6.14286
4415.5 -4.85714
4416.5 9
4417.5 26.2857
4418.5 26.8571
4419.5 15.4286
4420.5 20.1429
4421.5 1.85715
4422.5 10.2857
4423.5 8.42857
4424.5 -8.57142
4425.5 27.4286
4426.5 5.71429
4427.5 7.42857
4428.5 -13.1429
4429.5 3.57143
4430.5 12.2857
4431.5 17
4432.5 13.2857
4433.5 38.1429
4434.5 -26.4286
4435.5 6.57143
4436.5 0.428576
4437.5 -3
4438.5 -9.28571
4439.5 3.85715
4440.5 -0.142854
4441.5 2.42857
4442.5 -18.2857
4443.5 -6.85714
4444.5 -25.1429
4445.5 -11
4446.5 -10
4447.5 -36.4286
4448.5 2.86102e-06
4449.5 -4.14285
4450.5 -5.14285
4451.5 -14
4452.5 3.42858
4453.5 23.1429
4454.5 -29.1429
4455.5 18.7143
4456.5 -63.4286
4457.5 -122.143
4458.5 -187.571
4459.5 -301.714
4460.5 -463.714
4461.5 -466.429
4462.5 -376.429
4463.5 -232
4464.5 -104.571
4465.5 -31.5714
4466.5 21.5714
4467.5 23.7143
4468.5 -6
4469.5 10
4470.5 -17
4471.5 2.85715
4472.5 8.85715
4473.5 18
4474.5 17.2857
4475.5 -17.1429
4476.5 17.4286
4477.5 15
4478.5 2.14286
4479.5 11
4480.5 -13.8571
4481.5 32.7143
4482.5 -25.7143
4483.5 19.2857
4484.5 40
4485.5 32
4486.5 4.71429
4487.5 21.4286
4488.5 1.71429
4489.5 8.57143
4490.5 -19.4286
4491.5 24.5714
4492.5 6
4493.5 66.2857
4494.5 -0.999996
4495.5 42.5714
4496.5 46.7143
4497.5 20.2857
4498.5 14.4286
4499.5 27.8571
4500.5 -39.5714
4501.5 -5.57142
4502.5 -21.2857
4503.5 -4.14285
4504.5 -31.5714
4505.5 -33.5714
4506.5 -50.1429
4507.5 14.4286
4508.5 5.28572
4509.5 33.2857
4510.5 28.2857
4511.5 -0.142854
4512.5 49.5714
4513.5 36.8571
4514.5 91
4515.5 84.5714
4516.5 36.4286
4517.5 68.2857
4518.5 35.2857
4519.5 13.4286
4520.5 25
4521.5 -6.14285
4522.5 14.1429
4523.5 1.57143
4524.5 -9
4525.5 32.5714
4526.5 -13.4286
4527.5 38.5714
4528.5 -49.5714
4529.5 13.1429
4530.5 -15.5714
4531.5 -11.4286
4532.5 4.71429
4533.5 29.7143
4534.5 10.8571
4535.5 27
4536.5 13.4286
4537.5 15.8571
4538.5 56.8571
4539.5 4.42857
4540.5 17.5714
4541.5 26.1429
4542.5 -17.7143
4543.5 13.1429
4544.5 -9.57143
4545.5 -5.57143
4546.5 -8.85714
4547.5 10.2857
4548.5 22.1429
4549.5 -1.71428
4550.5 -24.1429
4551.5 8.57143
4552.5 10.1429
4553.5 22.2857
4554.5 -2
4555.5 -9.28571
4556.5 -1.71428
4557.5 20.8571
4558.5 -37.4286
4559.5 15
4560.5 -14.2857
4561.5 -26.4286
4562.5 -5.85714
4563.5 -11.8571
4564.5 -28.5714
4565.5 0.28572
4566.5 27.2857
4567.5 -47.7143
4568.5 23
4569.5 10.4286
4570.5 31.1429
4571.5 10.5714
4572.5 22.2857
4573.5 -2.28571
4574.5 11.2857
4575.5 0.571432
4576.5 -4.71428
4577.5 -10.1429
4578.5 26.1429
4579.5 2.57143
4580.5 3.57143
4581.5 14.1429
4582.5 -17.8571
4583.5 -5.71428
4584.5 8.57143
4585.5 -9.28571
4586.5 12
4587.5 2.85715
4588.5 27.2857
4589.5 35
4590.5 9.42858
4591.5 11.7143
4592.5 11.7143
4593.5 26.2857
4594.5 5.71429
4595.5 -22
4596.5 26.7143
4597.5 5.71429
4598.5 -26.1429
4599.5 -10.2857
4600.5 -16.5714
4601.5 39.1429
4602.5 0.714289
4603.5 -24
4604.5 -10
4605.5 21.2857
4606.5 6.57143
4607.5 -32
4608.5 -12.1429
4609.5 28.1429
4610.5 30.5714
4611.5 20.2857
4612.5 34.4286
4613.5 21.5714
4614.5 15.1429
4615.5 22.4286
4616.5 23.5714
4617.5 4.57143
4618.5 0.571433
4619.5 12.2857
4620.5 19.8571
4621.5 19
4622.5 6.42858
4623.5 3.85715
4624.5 5.28572
4625.5 -4.14285
4626.5 -30.7143
4627.5 -0.428567
4628.5 11.4286
4629.5 -8
4630.5 51.7143
4631.5 3.28572
4632.5 20
4633.5 2.85715
4634.5 4.42857
4635.5 -31.5714
4636.5 10.2857
4637.5 -23
4638.5 -8.14285
4639.5 -20.7143
4640.5 -10.1429
4641.5 -7.57143
4642.5 -2.28571
4643.5 4.71429
4644.5 -7.71428
4645.5 10.8571
4646.5 -7
4647.5 9.57143
4648.5 62.1429
4649.5 -17
4650.5 49.8571
4651.5 15.5714
4652.5 3
4653.5 6.85715
4654.5 12.8571
4655.5 13.8571
4656.5 -0.571426
4657.5 -30.2857
4658.5 24.2857
4659.5 0.571432
4660.5 24
4661.5 11.5714
4662.5 -13.2857
4663.5 10
4664.5 -8.14285
4665.5 -2.57142
4666.5 -8.85714
4667.5 -13
4668.5 18.4286
4669.5 9.42857
4670.5 0.14286
4671.5 12.4286
4672.5 27
4673.5 1.57143
4674.5 10.8571
4675.5 16.2857
4676.5 2.85715
4677.5 17.7143
4678.5 -13.4286
4679.5 0.14286
4680.5 25
4681.5 25.2857
4682.5 14.1429
4683.5 -0.428568
4684.5 -16.5714
4685.5 0.714289
4686.5 18.2857
4687.5 18.4286
4688.5 24.1429
4689.5 15.8571
4690.5 19
4691.5 -6.85714
4692.5 34.2857
4693.5 28.2857
4694.5 4.85715
4695.5 0.714289
4696.5 -15.1429
4697.5 21.8571
4698.5 23.7143
4699.5 -18.5714
4700.5 -4.42857
4701.5 4.14286
4702.5 -17.8571
4703.5 17.5714
4704.5 2.28572
4705.5 -4.28571
4706.5 19.5714
4707.5 -18
4708.5 31
4709.5 -6
4710.5 5.42857
4711.5 -1.85714
4712.5 5.14286
4713.5 21.4286
4714.5 27.7143
4715.5 43.2857
4716.5 34.5714
4717.5 64
4718.5 5.42858
4719.5 41
4720.5 13.2857
4721.5 -5.85714
4722.5 -14.4286
4723.5 17.2857
4724.5 26.5714
4725.5 9.14286
4726.5 58
4727.5 63.2857
4728.5 112.143
4729.5 130
4730.5 73.1429
4731.5 40
4732.5 26.8571
4733.5 20.7143
4734.5 4.28572
4735.5 -21
4736.5 22.7143
4737.5 -10.2857
4738.5 -25.1429
4739.5 -18.8571
4740.5 27.4286
4741.5 11.7143
4742.5 11
4743.5 -5.85714
4744.5 -12.5714
4745.5 36.2857
4746.5 -1.57142
4747.5 4.71429
4748.5 -7.57142
4749.5 0.857147
4750.5 -11.2857
4751.5 0.571433
4752.5 -26.8571
4753.5 16.7143
4754.5 -1.57143
4755.5 34.5714
4756.5 4
4757.5 20.4286
4758.5 20.1429
4759.5 17.7143
4760.5 4.85715
4761.5 11.1429
4762.5 34.8571
4763.5 43.5714
4764.5 41.7143
4765.5 35.1429
4766.5 66.5714
4767.5 39.1429
4768.5 87
4769.5 41.2857
4770.5 5.71429
4771.5 2
4772.5 -4.71428
4773.5 -5.57142
4774.5 9.71429
4775.5 39.8571
4776.5 16.7143
4777.5 -10.2857
4778.5 1.28572
4779.5 15.4286
4780.5 2.42857
4781.5 39.1429
4782.5 2.42857
4783.5 17
4784.5 -2.71428
4785.5 14.4286
4786.5 31.5714
4787.5 36.8571
4788.5 3.42857
4789.5 -7.42857
4790.5 4.71429
4791.5 17.8571
4792.5 25.5714
4793.5 -2.14285
4794.5 9.28572
4795.5 13.8571
4796.5 10.8571
4797.5 24.4286
4798.5 13.2857
4799.5 3.71429
4800.5 15
4801.5 15
4802.5 -18.2857
4803.5 -31
4804.5 -20.8571
4805.5 10
4806.5 36.4286
4807.5 16.5714
4808.5 -5.42857
4809.5 2
4810.5 -17.2857
4811.5 -31.4286
4812.5 -13.1429
4813.5 -37.5714
4814.5 -57
4815.5 -14.7143
4816.5 -6.57142
4817.5 -24.4286
4818.5 -13.4286
4819.5 -12.7143
4820.5 11.1429
4821.5 15.7143
4822.5 10.1429
4823.5 18.7143
4824.5 40.8571
4825.5 26
4826.5 33.5714
4827.5 24.2857
4828.5 13
4829.5 4.71429
4830.5 -2.28571
4831.5 -5.71428
4832.5 9
4833.5 -16.5714
4834.5 23
4835.5 25.7143
4836.5 -4.57143
4837.5 11.5714
4838.5 26.5714
4839.5 33
4840.5 44.5714
4841.5 0.428576
4842.5 -7.85714
4843.5 27.2857
4844.5 8.28572
4845.5 24.1429
4846.5 -32.7143
4847.5 7.42858
4848.5 34.7143
4849.5 4.42857
4850.5 13
4851.5 0.14286
4852.5 -23.2857
4853.5 -4.85714
4854.5 -4.57143
4855.5 21.8571
4856.5 0.857146
4857.5 25.8571
4858.5 21.2857
4859.5 23.8571
4860.5 6.14286
4861.5 9.85714
4862.5 -9.71428
4863.5 3.42857
4864.5 -4.71428
4865.5 3.14286
4866.5 7.57143
4867.5 -23.1429
4868.5 39.1429
4869.5 28.4286
4870.5 42.1429
4871.5 23
4872.5 -14.1429
4873.5 27.7143
4874.5 3.33786e-06
4875.5 1.42858
4876.5 3.57143
4877.5 -9
4878.5 -36.2857
4879.5 7.57143
4880.5 -2.71428
4881.5 -0.714282
4882.5 -23.8571
4883.5 21.7143
4884.5 -30.7143
4885.5 27.5714
4886.5 -7.71428
4887.5 -1.28571
4888.5 -29.1429
4889.5 -22.5714
4890.5 12.7143
4891.5 8.28572
4892.5 26.1429
4893.5 11.8571
4894.5 21.5714
4895.5 -22
4896.5 -2.42857
4897.5 20.7143
4898.5 12.8571
4899.5 -14.1429
4900.5 54.1429
4901.5 35.1429
4902.5 -1.57142
4903.5 14
4904.5 -4.42857
4905.5 56.4286
4906.5 -3.28571
4907.5 5.28572
4908.5 21.7143
4909.5 -5.57143
4910.5 -13.4286
4911.5 6
4912.5 22.1429
4913.5 12.4286
4914.5 40.2857
4915.5 46.2857
4916.5 51
4917.5 136.857
4918.5 132.143
4919.5 121.857
4920.5 88.7143
4921.5 75.8571
4922.5 22.2857
4923.5 40
4924.5 47.2857
4925.5 39.7143
4926.5 21
4927.5 12.4286
4928.5 9.28572
4929.5 24.1429
4930.5 35.7143
4931.5 -2.57143
4932.5 20.4286
4933.5 31.4286
4934.5 8
4935.5 10.4286
4936.5 4.57143
4937.5 5.42857
4938.5 6.71429
4939.5 -3
4940.5 1.28572
4941.5 -12.5714
4942.5 7.42857
4943.5 18.7143
4944.5 -6.71428
4945.5 3.42857
4946.5 -30.5714
4947.5 0.142859
4948.5 23.4286
4949.5 38.1429
4950.5 45.7143
4951.5 29
4952.5 7.85715
4953.5 7.57143
4954.5 -11.7143
4955.5 0.571431
4956.5 -10.5714
4957.5 4
4958.5 0.714288
4959.5 28
4960.5 -36.2857
4961.5 11.2857
4962.5 -35
4963.5 -17
4964.5 -3.28571
4965.5 15.5714
4966.5 -19.7143
4967.5 22.5714
4968.5 9.57143
4969.5 3.85715
4970.5 30.8571
4971.5 21.1429
4972.5 19.7143
4973.5 22.7143
4974.5 5.57143
4975.5 -25.5714
4976.5 5.71429
4977.5 -20.2857
4978.5 0.571432
4979.5 -6.85714
4980.5 -18.5714
4981.5 0.857147
4982.5 -26.4286
4983.5 28.5714
4984.5 -10.7143
4985.5 13.7143
4986.5 5.14286
4987.5 -27.7143
4988.5 -12
4989.5 28
4990.5 29.5714
4991.5 -3.85714
4992.5 -5.85714
4993.5 16.7143
4994.5 7
4995.5 20
4996.5 -6.57143
4997.5 8.57143
4998.5 25.4286
4999.5 28.8571
5000.5 21
5001.5 30.1429
5002.5 37
5003.5 40.4286
5004.5 67.4286
5005.5 90.5714
5006.5 82.1429
5007.5 93.4286
5008.5 51.7143
5009.5 56.4286
5010.5 24
5011.5 11.5714
5012.5 10.2857
5013.5 -1.71428
5014.5 25.5714
5015.5 -9
5016.5 28.5714
5017.5 14.1429
5018.5 -6.57143
5019.5 25
5020.5 29.2857
5021.5 71.5714
5022.5 80.2857
5023.5 137.143
5024.5 185.286
5025.5 232.714
5026.5 201.286
5027.5 218.714
5028.5 138.429
5029.5 64.4286
5030.5 48.8571
5031.5 9.28572
5032.5 -10.4286
5033.5 -30.7143
5034.5 -2
5035.5 -41
5036.5 -30.7143
5037.5 -76.2857
5038.5 -40.7143
5039.5 -42.8571
5040.5 3.33786e-06
5041.5 -10.2857
5042.5 -1.85714
5043.5 -13.2857
5044.5 6.42857
5045.5 21.2857
5046.5 12.1429
5047.5 -24.1429
5048.5 17.5714
5049.5 29
5050.5 -10.8571
5051.5 7
5052.5 -21
5053.5 13.1429
5054.5 37.5714
5055.5 23.4286
5056.5 16.1429
5057.5 5.57143
5058.5 -13.5714
5059.5 9.14286
5060.5 32.7143
5061.5 9.57143
5062.5 23
5063.5 17.4286
5064.5 -0.285712
5065.5 8
5066.5 -0.285711
5067.5 27.5714
5068.5 -2.57142
5069.5 -8.28571
5070.5 -18.5714
5071.5 15.1429
5072.5 7.42857
5073.5 25.1429
5074.5 24.4286
5075.5 -17.4286
5076.5 18.7143
5077.5 47.8571
5078.5 3.71429
5079.5 17
5080.5 11.7143
5081.5 15
5082.5 -14.7143
5083.5 11.1429
5084.5 -3.28571
5085.5 9.85715
5086.5 32.5714
5087.5 10.5714
5088.5 -24
5089.5 38.2857
5090.5 2.57143
5091.5 19.8571
5092.5 47.1429
5093.5 35.1429
5094.5 21.8571
5095.5 -13
5096.5 30.4286
5097.5 28.1429
5098.5 15.5714
5099.5 10.1429
5100.5 3.71429
5101.5 14.8571
5102.5 19.7143
5103.5 3.33786e-06
5104.5 17.1429
5105.5 -7.71428
5106.5 9.42857
5107.5 12.8571
5108.5 8.57143
5109.5 8
5110.5 -16.8571
5111.5 11.2857
5112.5 26.8571
5113.5 -18.7143
5114.5 5.71429
5115.5 -5
5116.5 29.5714
5117.5 5.71429
5118.5 9.71429
5119.5 24.4286
5120.5 16.8571
5121.5 17.4286
5122.5 28.2857
5123.5 20.2857
5124.5 -3.71428
5125.5 36.7143
5126.5 2
5127.5 9
5128.5 -21.1429
5129.5 35.2857
5130.5 17.7143
5131.5 50.1429
5132.5 -16.4286
5133.5 32.7143
5134.5 1.85715
5135.5 -2
5136.5 -5.28571
5137.5 9.28572
5138.5 30.8571
5139.5 4.14286
5140.5 5.71429
5141.5 -0.714283
5142.5 14
5143.5 -0.714283
5144.5 -13.1429
5145.5 -21.8571
5146.5 -10
5147.5 24.1429
5148.5 15.5714
5149.5 -1.57143
5150.5 15.2857
5151.5 3.28572
5152.5 29.1429
5153.5 7
5154.5 -13.4286
5155.5 9
5156.5 14.8571
5157.5 28.7143
5158.5 4.71429
5159.5 9.71429
5160.5 50.2857
5161.5 18.2857
5162.5 32.8571
5163.5 49.4286
5164.5 7.14286
5165.5 -0.285712
5166.5 25.5714
5167.5 25.1429
5168.5 -12.5714
5169.5 9.28572
5170.5 -9.28571
5171.5 23.4286
5172.5 48.5714
5173.5 1.57143
5174.5 -6.57143
5175.5 -17.5714
5176.5 10.4286
5177.5 9.57143
5178.5 10.2857
5179.5 -2.14285
5180.5 19.1429
5181.5 19.4286
5182.5 28.1429
5183.5 5.85714
5184.5 -14.1429
5185.5 46.7143
5186.5 23.4286
5187.5 0.285717
5188.5 -28
5189.5 -10.2857
5190.5 13.4286
5191.5 -1.14285
5192.5 13.7143
5193.5 7.28572
5194.5 4.29153e-06
5195.5 4.71429
5196.5 -9.42857
5197.5 -12.4286
5198.5 42
5199.5 25.8571
5200.5 -13.4286
5201.5 18.2857
5202.5 27.5714
5203.5 -20.8571
5204.5 29.1429
5205.5 -3.85714
5206.5 37.1429
5207.5 9.28572
5208.5 39.1429
5209.5 12.7143
5210.5 27.2857
5211.5 -7.14285
5212.5 7.71429
5213.5 17.7143
5214.5 -13.4286
5215.5 36.2857
5216.5 18
5217.5 49
5218.5 36.5714
5219.5 18.1429
5220.5 3
5221.5 5.28572
5222.5 12.2857
5223.5 35.7143
5224.5 14.5714
5225.5 5.42857
5226.5 12.2857
5227.5 18.5714
5228.5 32.2857
5229.5 25.8571
5230.5 8.28572
5231.5 -6.42857
5232.5 32.2857
5233.5 26.2857
5234.5 -9.71428
5235.5 6.28572
5236.5 6.71429
5237.5 10.2857
5238.5 28.4286
5239.5 -3.71428
5240.5 2.57143
5241.5 22.4286
5242.5 20.4286
5243.5 5.57143
5244.5 -5.85714
5245.5 -2
5246.5 21.8571
5247.5 17.8571
5248.5 14
5249.5 -6.57143
5250.5 14
5251.5 32.4286
5252.5 14.5714
5253.5 23.4286
5254.5 -5.85714
5255.5 9.28572
5256.5 -7.42857
5257.5 10.2857
5258.5 48.2857
5259.5 39.4286
5260.5 5.57143
5261.5 11.4286
5262.5 -28.5714
5263.5 -18.1429
5264.5 -11.5714
5265.5 -23.2857
5266.5 -4.42857
5267.5 31
5268.5 31
5269.5 39
5270.5 27.8571
5271.5 53.8571
5272.5 46.7143
5273.5 43
5274.5 44.8571
5275.5 73.7143
5276.5 50.7143
5277.5 89
5278.5 84.8571
5279.5 70.8571
5280.5 57.1429
5281.5 59.7143
5282.5 0.14286
5283.5 33.4286
5284.5 36.7143
5285.5 85.2857
5286.5 23.7143
5287.5 32.7143
5288.5 5.85715
5289.5 5.28572
5290.5 1.71429
5291.5 26.2857
5292.5 32
5293.5 5.71429
5294.5 14.2857
5295.5 13
5296.5 -0.142855
5297.5 -14
5298.5 6.28572
5299.5 -0.714284
5300.5 43
5301.5 7.14286
5302.5 17.4286
5303.5 15.7143
5304.5 31.7143
5305.5 -10.8571
5306.5 3.57143
5307.5 18.5714
5308.5 -3.28571
5309.5 -9
5310.5 13
5311.5 38.1429
5312.5 21.2857
5313.5 30.7143
5314.5 5
5315.5 42.8571
5316.5 -17.2857
5317.5 17
5318.5 26.4286
5319.5 9.57143
5320.5 -31.2857
5321.5 12.8571
5322.5 37.7143
5323.5 7.85715
5324.5 3.28572
5325.5 9.14286
5326.5 -1.28571
5327.5 17
5328.5 13.8571
5329.5 10.4286
5330.5 1.42857
5331.5 -9.28571
5332.5 18.4286
5333.5 2.71429
5334.5 17.4286
5335.5 51.7143
5336.5 39.4286
5337.5 32.5714
5338.5 -3.14285
5339.5 22.5714
5340.5 -7.14285
5341.5 9.85714
5342.5 9.14286
5343.5 33
5344.5 17.1429
5345.5 33.4286
5346.5 27.7143
5347.5 9.42857
5348.5 -23.2857
5349.5 9
5350.5 -0.714282
5351.5 -4.71428
5352.5 29.1429
5353.5 -20
5354.5 23.7143
5355.5 -21.8571
5356.5 20
5357.5 -26.5714
5358.5 -20.7143
5359.5 12.7143
5360.5 -3.14285
5361.5 15.7143
5362.5 9.57143
5363.5 15.7143
5364.5 31.8571
5365.5 19.2857
5366.5 12
5367.5 -12.7143
5368.5 33.2857
5369.5 -0.999998
5370.5 -1.57143
5371.5 8.85714
5372.5 -8.57143
5373.5 14.5714
5374.5 2.71429
5375.5 14.4286
5376.5 7.14286
5377.5 -2.14286
5378.5 2.28572
5379.5 18.8571
5380.5 13.5714
5381.5 -0.285712
5382.5 9.28572
5383.5 10
5384.5 29.2857
5385.5 10.5714
5386.5 -31.8571
5387.5 -1.71428
5388.5 -30
5389.5 2.85715
5390.5 -53.5714
5391.5 -16.1429
5392.5 27.2857
5393.5 18.5714
5394.5 -3.14285
5395.5 -10.1428
5396.5 99.4286
5397.5 16.7143
5398.5 -47.2857
5399.5 -8.57142
5400.5 16.8571
5401.5 3.33786e-06
5402.5 15.4286
5403.5 28.5714
5404.5 17
5405.5 6.57143
5406.5 20.8571
5407.5 -3
5408.5 22.2857
5409.5 22
5410.5 35.7143
5411.5 10.7143
5412.5 41.8571
5413.5 35.1429
5414.5 1.85714
5415.5 49.7143
5416.5 12.4286
5417.5 17.7143
5418.5 15.8571
5419.5 9.71429
5420.5 8.57143
5421.5 22.4286
5422.5 -2.14286
5423.5 -18.2857
5424.5 -2.28571
5425.5 5.57143
5426.5 -24.2857
5427.5 0.714287
5428.5 9.57143
5429.5 9.42857
5430.5 -6.71428
5431.5 -14.7143
5432.5 22.4286
5433.5 -2.57143
5434.5 -1.71428
5435.5 5.14286
5436.5 12.4286
5437.5 2.14286
5438.5 0.285716
5439.5 13
5440.5 12.7143
5441.5 5.42857
5442.5 4.14286
5443.5 -3.14286
5444.5 5.71429
5445.5 22
5446.5 14.4286
5447.5 -0.571427
5448.5 4.14286
5449.5 13.5714
5450.5 29
5451.5 3.71429
5452.5 18.7143
5453.5 13.1429
5454.5 5.71429
5455.5 -19.1429
5456.5 12.7143
5457.5 4
5458.5 -10.5714
5459.5 -1.28571
5460.5 -0.999999
5461.5 -0.571427
5462.5 7.85714
5463.5 -0.285713
5464.5 -9.42857
5465.5 11.4286
5466.5 -1.71428
5467.5 -12.4286
5468.5 7.85714
5469.5 10.8571
5470.5 16.1429
5471.5 1.57143
5472.5 9.71429
5473.5 -3.85714
5474.5 -6.57143
5475.5 -10.8571
5476.5 -5.28571
5477.5 8.14286
5478.5 -0.571427
5479.5 30.8571
5480.5 -3.28571
5481.5 20
5482.5 13.2857
5483.5 -6.85714
5484.5 -10.8571
5485.5 -4.42857
5486.5 -24.1429
5487.5 33
5488.5 18.5714
5489.5 20.1429
5490.5 25
5491.5 -19.2857
5492.5 -0.714283
5493.5 8.28572
5494.5 11.7143
5495.5 -16
5496.5 11.1429
5497.5 0.857144
5498.5 -5.42857
5499.5 -16.7143
5500.5 -5.28571
5501.5 -21.1429
5502.5 19.5714
5503.5 -7.57143
5504.5 18.1429
5505.5 -16
5506.5 26
5507.5 -6.42857
5508.5 -13.5714
5509.5 21.1429
5510.5 7.71429
5511.5 15.2857
5512.5 12.4286
5513.5 88.5714
5514.5 112.714
5515.5 187.857
5516.5 223.143
5517.5 226
5518.5 229.571
5519.5 223.857
5520.5 162
5521.5 35.7143
5522.5 24.4286
5523.5 -6.28571
5524.5 16.1429
5525.5 10
5526.5 31
5527.5 3
5528.5 24.8571
5529.5 25.2857
5530.5 13
5531.5 58.2857
5532.5 130
5533.5 164.714
5534.5 277.857
5535.5 385
5536.5 578.571
5537.5 624.429
5538.5 587.143
5539.5 413.857
5540.5 193
5541.5 105.429
5542.5 38.7143
5543.5 37.1429
5544.5 -14.1429
5545.5 27.7143
5546.5 16.1429
5547.5 -10.4286
5548.5 -22.4286
5549.5 16.5714
5550.5 4.28572
5551.5 -9.42857
5552.5 -21.5714
5553.5 6.57143
5554.5 -14.7143
5555.5 3.28572
5556.5 -11.2857
5557.5 -15.4286
5558.5 -25.4286
5559.5 -17.7143
5560.5 -10.1429
5561.5 7.71429
5562.5 -22.4286
5563.5 -9
5564.5 -11.5714
5565.5 -13.8571
5566.5 12.1429
5567.5 -2.42857
5568.5 11.7143
5569.5 0.857144
5570.5 2.14286
5571.5 12.5714
5572.5 -8.28571
5573.5 2.42857
5574.5 -25.7143
5575.5 15.5714
5576.5 -0.142855
5577.5 -5.28571
5578.5 -19.5714
5579.5 22.8571
5580.5 8.28572
5581.5 -8.57142
5582.5 11.4286
5583.5 -21.1429
5584.5 11.2857
5585.5 -17.4286
5586.5 -7.85714
5587.5 -2
5588.5 11
5589.5 -6
5590.5 -23.2857
5591.5 3
5592.5 5.42857
5593.5 -2.14286
5594.5 19.4286
5595.5 -10.8571
5596.5 6.14286
5597.5 18.4286
5598.5 -11.5714
5599.5 -6.42857
5600.5 10.7143
5601.5 7.57143
5602.5 -5.42857
5603.5 0.714287
5604.5 0.857144
5605.5 -17.1429
5606.5 8.42857
5607.5 1
5608.5 -16.7143
5609.5 -10
5610.5 -26.7143
5611.5 9.42857
5612.5 8
5613.5 -33
5614.5 -21.8571
5615.5 -21.4286
5616.5 -9.57143
5617.5 -6.42857
5618.5 9.85714
5619.5 1.14286
5620.5 -12.4286
5621.5 -8.42857
5622.5 0.428573
5623.5 -10.8571
5624.5 -0.42857
5625.5 12.7143
5626.5 -6.28571
5627.5 12.5714
5628.5 17.5714
5629.5 12.7143
5630.5 -15.2857
5631.5 28.8571
5632.5 -19.4286
5633.5 2.71429
5634.5 6.14286
5635.5 1
5636.5 1
5637.5 -17.5714
5638.5 8.28572
5639.5 18.1429
5640.5 10
5641.5 -18.8571
5642.5 23.7143
5643.5 1.71429
5644.5 -29.5714
5645.5 -11
5646.5 21.8571
5647.5 -21.8571
5648.5 -29.4286
5649.5 -8
5650.5 1.14286
5651.5 24.2857
5652.5 1.42857
5653.5 -13.7143
5654.5 12.4286
5655.5 1.85714
5656.5 4.42857
5657.5 -7.71428
5658.5 16.1429
5659.5 -17.4286
5660.5 11
5661.5 -10.5714
5662.5 -5
5663.5 5
5664.5 23.4286
5665.5 1.14286
5666.5 -8.42857
5667.5 -20.5714
5668.5 -6.57143
5669.5 -26.5714
5670.5 -3
5671.5 -2.57143
5672.5 0.428574
5673.5 6.14286
5674.5 19.1429
5675.5 11.8571
5676.5 -20
5677.5 10.7143
5678.5 -0.857141
5679.5 -6
5680.5 -8.71428
5681.5 -22.5714
5682.5 5
5683.5 -10.8571
5684.5 16
5685.5 -2.57143
5686.5 -5.71428
5687.5 -5.57143
5688.5 22.5714
5689.5 -7.71428
5690.5 -25.5714
5691.5 -11.5714
5692.5 6
5693.5 -11.2857
5694.5 18.1429
5695.5 -0.571427
5696.5 12.7143
5697.5 5.71429
5698.5 -18.4286
5699.5 -21.7143
5700.5 11.5714
5701.5 -22.4286
5702.5 12
5703.5 4.14286
5704.5 14.8571
5705.5 -6.57143
5706.5 1.57143
5707.5 13
5708.5 -6.28571
5709.5 -9.42857
5710.5 -7
5711.5 -0.428569
5712.5 19.1429
5713.5 -21
5714.5 -9.85714
5715.5 -22.8571
5716.5 19.2857
5717.5 -11
5718.5 -6.57143
5719.5 18.5714
5720.5 -25.7143
5721.5 -17
5722.5 -4.71428
5723.5 -3
5724.5 14.2857
5725.5 21.2857
5726.5 -9
5727.5 -9.85714
5728.5 -1.71428
5729.5 -10.2857
5730.5 12.5714
5731.5 -2.28571
5732.5 -12
5733.5 -21.8571
5734.5 -3.14286
5735.5 -10.8571
5736.5 -19.7143
5737.5 -12.4286
5738.5 -3.14286
5739.5 -10.2857
5740.5 -3
5741.5 6.14286
5742.5 -16.4286
5743.5 -0.142856
5744.5 -3.85714
5745.5 -5.71428
5746.5 -1.57143
5747.5 -1.42857
5748.5 2.71429
5749.5 1
5750.5 -4.28571
5751.5 -1.71428
5752.5 -15.2857
5753.5 -37.8571
5754.5 -16.4286
5755.5 0.285717
5756.5 10.7143
5757.5 10.8571
5758.5 -7.42857
5759.5 -10.5714
5760.5 3.85714
5761.5 -12.8571
5762.5 4.14286
5763.5 0.57143
5764.5 -16.5714
5765.5 -0.999999
5766.5 10.1429
5767.5 8.85714
5768.5 2.14286
5769.5 -20.5714
5770.5 -2.85714
5771.5 11.5714
5772.5 -0.571427
5773.5 8
5774.5 5.57143
5775.5 15
5776.5 17.5714
5777.5 0.714287
5778.5 -2.71428
5779.5 20.1429
5780.5 -10.1429
5781.5 24.1429
5782.5 17
5783.5 37.1429
5784.5 34.5714
5785.5 89.8571
5786.5 94.5714
5787.5 145.857
5788.5 147.857
5789.5 182.286
5790.5 119.429
5791.5 70
5792.5 32.2857
5793.5 26.7143
5794.5 -1.42857
5795.5 28.7143
5796.5 18
5797.5 35.7143
5798.5 12.2857
5799.5 14
5800.5 6.85714
5801.5 -16.7143
5802.5 -6.57143
5803.5 -6.57143
5804.5 2.71429
5805.5 -1.57143
5806.5 -21.7143
5807.5 -5.85714
5808.5 7
5809.5 -8.14286
5810.5 -4.71428
5811.5 -16.7143
5812.5 14.5714
5813.5 -8.57143
5814.5 8.71429
5815.5 -14.8571
5816.5 -2
5817.5 -44.4286
5818.5 -12.7143
5819.5 2.85714
5820.5 -4.85714
5821.5 -10.5714
5822.5 -9
5823.5 -25
5824.5 -8.57143
5825.5 -8.42857
5826.5 -13.4286
5827.5 -41.1429
5828.5 -21
5829.5 1.85715
5830.5 -15.1429
5831.5 -41.4286
5832.5 -27.7143
5833.5 -12.7143
5834.5 -6
5835.5 -10.7143
5836.5 5.28572
5837.5 12.2857
5838.5 -18.2857
5839.5 -8.57143
5840.5 5.71429
5841.5 -1.14285
5842.5 -23.1429
5843.5 10.2857
5844.5 1.14286
5845.5 -9.57143
5846.5 7
5847.5 0.57143
5848.5 6.14286
5849.5 -3.28571
5850.5 6.14286
5851.5 -4.71428
5852.5 -4.42857
5853.5 -7.71428
5854.5 1.85714
5855.5 16.8571
5856.5 1
5857.5 -4.28571
5858.5 -0.857142
5859.5 -5.85714
5860.5 -0.857142
5861.5 11
5862.5 0.57143
5863.5 2
5864.5 -11.4286
5865.5 -7.42857
5866.5 10.4286
5867.5 -26.2857
5868.5 4.85714
5869.5 2.14286
5870.5 3.85714
5871.5 23.1429
5872.5 19.1429
5873.5 6.14286
5874.5 7.28572
5875.5 10.7143
5876.5 23.4286
5877.5 -13.2857
5878.5 3.28572
5879.5 10.1429
5880.5 -2.14286
5881.5 -9.85714
5882.5 5
5883.5 7.14286
5884.5 7.57143
5885.5 6.42857
5886.5 5.14286
5887.5 2
5888.5 12.5714
5889.5 9.14286
5890.5 -4
5891.5 9
5892.5 -6.85714
5893.5 0.714287
5894.5 3.14286
5895.5 -7.71428
5896.5 -7.71428
5897.5 -30.8571
5898.5 -59.5714
5899.5 -133.571
5900.5 -49.4286
5901.5 -74.7143
5902.5 -37.1428
5903.5 -25.7143
5904.5 22
5905.5 -0.714284
5906.5 -6.85714
5907.5 -32
5908.5 14.8571
5909.5 -4.71428
5910.5 -14.5714
5911.5 2.71429
5912.5 5.28572
5913.5 -2.14286
5914.5 6.57143
5915.5 -11.7143
5916.5 -24.1429
5917.5 6.57143
5918.5 14.4286
5919.5 -2
5920.5 14.5714
5921.5 -2.71428
5922.5 -14.2857
5923.5 -0.857142
5924.5 4.85714
5925.5 -3.71428
5926.5 -13.8571
5927.5 2.42857
5928.5 16
5929.5 17.1429
5930.5 0.714287
5931.5 -3.57143
5932.5 -13.1429
5933.5 6.57143
5934.5 5.57143
5935.5 18
5936.5 4.42857
5937.5 -8.14286
5938.5 13.5714
5939.5 -10.4286
5940.5 -15.4286
5941.5 -7.42857
5942.5 -1.57143
5943.5 12
5944.5 -8.71428
5945.5 -17.4286
5946.5 4.42857
5947.5 4
5948.5 9.85714
5949.5 5.42857
5950.5 -16.5714
5951.5 1.42857
5952.5 1.85714
5953.5 2.28572
5954.5 3.14286
5955.5 17.1429
5956.5 -6.42857
5957.5 -11.7143
5958.5 -2.14286
5959.5 2.14286
5960.5 9.85714
5961.5 -4
5962.5 2.42857
5963.5 -8.14286
5964.5 5.14286
5965.5 -6.85714
5966.5 0.428573
5967.5 3
5968.5 -20
5969.5 24.4286
5970.5 18
5971.5 -16.5714
5972.5 17.8571
5973.5 12.5714
5974.5 4.71429
5975.5 -3.14286
5976.5 5.28572
5977.5 2.14286
5978.5 3.57143
5979.5 -10
5980.5 -8.85714
5981.5 -1.85714
5982.5 3
5983.5 -2.71428
5984.5 -2.71428
5985.5 2.42857
5986.5 0.714286
5987.5 3.42857
5988.5 0.571429
5989.5 9.42857
5990.5 -4.71428
5991.5 -13.4286
5992.5 3.71429
5993.5 -4.71428
5994.5 6.57143
5995.5 10
5996.5 -5.28571
5997.5 -20.4286
5998.5 -13.7143
5999.5 -25.2857
6000.5 -65.5714
6001.5 -7.42856
6002.5 -6.71428
6003.5 -64.2857
6004.5 -35.4286
6005.5 29.5714
6006.5 2.42857
6007.5 -0.571428
6008.5 5.28572
6009.5 12.7143
6010.5 -0.857142
6011.5 -0.142857
6012.5 -4
6013.5 0.142858
6014.5 -2
6015.5 -11
6016.5 11.4286
6017.5 7.57143
6018.5 5
6019.5 -0.428571
6020.5 1
6021.5 0.714286
6022.5 -13.4286
6023.5 3.85714
6024.5 -1.28571
6025.5 -0.857142
6026.5 -13
6027.5 -3.85714
6028.5 6.42857
6029.5 -2.28571
6030.5 -8.14286
6031.5 -4.57143
6032.5 3.71429
6033.5 15.8571
6034.5 18.2857
6035.5 2.57143
6036.5 -13.8571
6037.5 -9.14285
6038.5 1.57143
6039.5 0.285716
6040.5 -12.2857
6041.5 6.71429
6042.5 -8.28571
6043.5 8
6044.5 -4.71428
6045.5 3.28572
6046.5 -4.71428
6047.5 -0.142856
6048.5 -2.71428
6049.5 7
6050.5 13.8571
6051.5 -21.2857
6052.5 -10.2857
6053.5 -5.71428
6054.5 -6
6055.5 8.14286
6056.5 -16.1429
6057.5 4.76837e-07
6058.5 -7.28571
6059.5 -3.57143
6060.5 13.4286
6061.5 -12.2857
6062.5 -20.4286
6063.5 25.2857
6064.5 -0.285714
6065.5 -2.85714
6066.5 -0.428571
6067.5 -9.28571
6068.5 -13.5714
6069.5 -6
6070.5 7.57143
6071.5 -12.4286
6072.5 1.71429
6073.5 -10.1429
6074.5 9.71429
6075.5 9.71429
6076.5 14
6077.5 6.14286
6078.5 -13.4286
6079.5 1.14286
6080.5 1.28572
6081.5 -4
6082.5 13.1429
6083.5 0.571429
6084.5 -14.8571
6085.5 2.85714
6086.5 -5
6087.5 8.85714
6088.5 -3.57143
6089.5 14.2857
6090.5 -0.857142
6091.5 -2.85714
6092.5 -7.57143
6093.5 0.857143
6094.5 -4.71428
6095.5 22
6096.5 2.57143
6097.5 -11.1429
6098.5 -14.1429
6099.5 9.28572
6100.5 0.142858
6101.5 7.42857
6102.5 15.4286
6103.5 -1.71428
6104.5 3.28572
6105.5 24.2857
6106.5 -5
6107.5 11
6108.5 6.42857
6109.5 -0.142856
6110.5 0.857144
6111.5 15
6112.5 7.85714
6113.5 1
6114.5 4.85714
6115.5 4.85714
6116.5 -8.71428
6117.5 2.71429
6118.5 1.71429
6119.5 -12.8571
6120.5 4.42857
6121.5 -12.2857
6122.5 -5.14285
6123.5 -16.1429
6124.5 -24.8571
6125.5 -63.7143
6126.5 -24.4286
6127.5 -48
6128.5 -18.1429
6129.5 21.7143
6130.5 15.8571
6131.5 -5.42857
6132.5 -8.14286
6133.5 2.57143
6134.5 3.42857
6135.5 3.14286
6136.5 3.28572
6137.5 2.85714
6138.5 1.28572
6139.5 -16
6140.5 7.42857
6141.5 3.71429
6142.5 5.42857
6143.5 -2.57143
6144.5 20.2857
6145.5 -2.28571
6146.5 3.57143
6147.5 -0.857142
6148.5 6.57143
6149.5 -18.2857
6150.5 -0.285714
6151.5 -11.7143
6152.5 -6.14286
6153.5 -10.8571
6154.5 6.57143
6155.5 2.57143
6156.5 0.857143
6157.5 -1
6158.5 5.71429
6159.5 -11.8571
6160.5 -16.1429
6161.5 -6.14286
6162.5 0.714286
6163.5 -9.71428
6164.5 2.28571
6165.5 5.85714
6166.5 -0.142857
6167.5 11.4286
6168.5 -3.42857
6169.5 1.71429
6170.5 14.5714
6171.5 -1.14286
6172.5 -5.57143
6173.5 14.2857
6174.5 -4.14286
6175.5 -6.42857
6176.5 -8.71428
6177.5 -7.57143
6178.5 -9.14286
6179.5 9.28571
6180.5 -9.71428
6181.5 6.14286
6182.5 14
6183.5 3
6184.5 9.71429
6185.5 1.28572
6186.5 -9.28571
6187.5 7.71429
6188.5 7
6189.5 10.1429
6190.5 -4.57143
6191.5 2.85714
6192.5 -1.42857
6193.5 6.57143
6194.5 1
6195.5 5
6196.5 -12
6197.5 -0.428571
6198.5 -7.28571
6199.5 5.57143
6200.5 14.1429
6201.5 -1.28571
6202.5 6.85714
6203.5 7.85714
6204.5 4.28571
6205.5 5.85714
6206.5 1.57143
6207.5 -0.714285
6208.5 -5.57143
6209.5 17.1429
6210.5 -20.2857
6211.5 -2.28571
6212.5 1.14286
6213.5 11.1429
6214.5 3.14286
6215.5 8
6216.5 5
6217.5 11.8571
6218.5 -6.57143
6219.5 -3.42857
6220.5 -9.28571
6221.5 -0.999999
6222.5 -10.8571
6223.5 2.42857
6224.5 0.285717
6225.5 2.14286
6226.5 -6.85714
6227.5 -13.8571
6228.5 10.7143
6229.5 -13.1429
6230.5 -11.1429
6231.5 -3.85714
6232.5 -13.2857
6233.5 8
6234.5 5.14286
6235.5 -3.85714
6236.5 2.85714
6237.5 -11.1429
6238.5 -9.71428
6239.5 1.71429
6240.5 6.28571
6241.5 -5.42857
6242.5 22.2857
6243.5 -3.28571
6244.5 3.85714
6245.5 -0.714285
6246.5 -2.57143
6247.5 9.14286
6248.5 4.71429
6249.5 -10
6250.5 -0.571428
6251.5 6.85714
6252.5 3.28571
6253.5 1
6254.5 -6
6255.5 13.2857
6256.5 9.53674e-07
6257.5 6.42857
6258.5 10.8571
6259.5 -5.28571
6260.5 -7
6261.5 10.5714
6262.5 0.142858
6263.5 8.71429
6264.5 -14.2857
6265.5 -11.1429
6266.5 -5.28571
6267.5 -9.57143
6268.5 -25.5714
6269.5 -13.4286
6270.5 -13.7143
6271.5 -7.57143
6272.5 10.8571
6273.5 3.28571
6274.5 -7.57143
6275.5 -5.14286
6276.5 3
6277.5 2.57143
6278.5 -1.42857
6279.5 1.28571
6280.5 -6.71428
6281.5 3
6282.5 4.76837e-07
6283.5 1.71429
6284.5 -17
6285.5 -12.8571
6286.5 -4.85714
6287.5 0.714286
6288.5 14.4286
6289.5 3.57143
6290.5 -3.42857
6291.5 -4.14286
6292.5 -5.42857
6293.5 -2.57143
6294.5 7.14286
6295.5 4.71429
6296.5 -6.57143
6297.5 -3.28571
6298.5 -15.4286
6299.5 1.57143
6300.5 10.4286
6301.5 -5.71428
6302.5 3.85714
6303.5 -4.28571
6304.5 8.14286
6305.5 -11.2857
6306.5 -19.7143
6307.5 -0.857142
6308.5 10.4286
6309.5 -0.142857
6310.5 4.14286
6311.5 -8.57143
6312.5 -1
6313.5 -1.42857
6314.5 -0.142857
6315.5 8.28571
6316.5 -5.28571
6317.5 4.14286
6318.5 11.4286
6319.5 3
6320.5 10
6321.5 -1.57143
6322.5 2.71429
6323.5 4.71429
6324.5 0.142858
6325.5 2.71429
6326.5 -5.85714
6327.5 -1.28571
6328.5 -9.85714
6329.5 -5.14286
6330.5 3.71429
6331.5 -7.57143
6332.5 -6.57143
6333.5 11.7143
6334.5 7.42857
6335.5 -16.7143
6336.5 -9.71428
6337.5 16.5714
6338.5 10.1429
6339.5 -2.28571
6340.5 -14.4286
6341.5 10.4286
6342.5 -13
6343.5 -1
6344.5 4.28571
6345.5 -2.28571
6346.5 -3.28571
6347.5 -2.14286
6348.5 -5.85714
6349.5 -10.2857
6350.5 5.14286
6351.5 6.42857
6352.5 -0.999999
6353.5 -3.14286
6354.5 4
6355.5 -0.714285
6356.5 2.85714
6357.5 -4.28571
6358.5 -8.28571
6359.5 0.857143
6360.5 2.14286
6361.5 4.76837e-07
6362.5 -1.14286
6363.5 -5.14286
6364.5 -4.85714
6365.5 2.28571
6366.5 3
6367.5 6.42857
6368.5 5.57143
6369.5 -8.28571
6370.5 -1
6371.5 4.42857
6372.5 -8.28571
6373.5 7.28571
6374.5 -3.57143
6375.5 -1.85714
6376.5 -2.28571
6377.5 -1.71429
6378.5 0.428572
6379.5 5.42857
6380.5 -5.71428
6381.5 -12.4286
6382.5 -1.85714
6383.5 9.71429
6384.5 -1.14286
6385.5 7.42857
6386.5 10.7143
6387.5 13.4286
6388.5 3.14286
6389.5 -2
6390.5 -2.85714
6391.5 5.42857
6392.5 3.14286
6393.5 -7.42857
6394.5 -0.428571
6395.5 -1.57143
6396.5 11.2857
6397.5 12.1429
6398.5 4.71429
6399.5 19.4286
6400.5 14
6401.5 18.8571
6402.5 17.4286
6403.5 18.2857
6404.5 -1.14286
6405.5 -3.42857
6406.5 2
6407.5 -1
6408.5 5.85714
6409.5 -0.857142
6410.5 -7
6411.5 0.571429
6412.5 6.42857
6413.5 -5
6414.5 -7.42857
6415.5 0.857143
6416.5 -4.42857
6417.5 10
6418.5 13.1429
6419.5 -11
6420.5 -12.4286
6421.5 -0.857142
6422.5 11
6423.5 -22.7143
6424.5 -11.1429
6425.5 5.71429
6426.5 -8.85714
6427.5 -5.42857
6428.5 2.71429
6429.5 -1
6430.5 7.42857
6431.5 16.1429
6432.5 0.857143
6433.5 6.14286
6434.5 16.4286
6435.5 -3.71428
6436.5 0.857143
6437.5 8.85714
6438.5 -5.57143
6439.5 15.2857
6440.5 24.1429
6441.5 14.4286
6442.5 6.28572
6443.5 -3.71428
6444.5 -16.4286
6445.5 7.14286
6446.5 -6.42857
6447.5 -3.14286
6448.5 -8.14286
6449.5 2.14286
6450.5 4.42857
6451.5 5
6452.5 0.428572
6453.5 3.57143
6454.5 -3.57143
6455.5 -0.714285
6456.5 1.28571
6457.5 -4.85714
6458.5 0.428572
6459.5 -5
6460.5 -11.2857
6461.5 10.5714
6462.5 -4
6463.5 -4
6464.5 -1.14286
6465.5 -10.8571
6466.5 4.76837e-07
6467.5 -1
6468.5 4.57143
6469.5 -8
6470.5 -13.5714
6471.5 0.142858
6472.5 3.14286
6473.5 7.71429
6474.5 -12.8571
6475.5 -5.85714
6476.5 19.2857
6477.5 -9.57143
6478.5 -13.5714
6479.5 -14
6480.5 -19.8571
6481.5 -12.2857
6482.5 -15.7143
6483.5 4.57143
6484.5 3.71429
6485.5 -5.14286
6486.5 0.857143
6487.5 6.42857
6488.5 4.76837e-07
6489.5 -6
6490.5 -4.57143
6491.5 -2
6492.5 0.142858
6493.5 4.28571
6494.5 14.8571
6495.5 7.71429
6496.5 -10.1429
6497.5 -6
6498.5 1.42857
6499.5 2.57143
6500.5 -0.714285
6501.5 -1.42857
6502.5 1.42857
6503.5 -5.85714
6504.5 3.42857
6505.5 -1.28571
6506.5 -1.71429
6507.5 -0.428571
6508.5 -9.28571
6509.5 -6.42857
6510.5 8.85714
6511.5 1.14286
6512.5 0.142858
6513.5 -4
6514.5 -5.14286
6515.5 1.28571
6516.5 -8.14286
6517.5 2.14286
6518.5 0.285715
6519.5 -2.85714
6520.5 -15.5714
6521.5 7.57143
6522.5 -3.71429
6523.5 4.42857
6524.5 1.57143
6525.5 -0.285714
6526.5 -3.71429
6527.5 -6.71429
6528.5 -4.71429
6529.5 -10
6530.5 0.142858
6531.5 0.285715
6532.5 -1.57143
6533.5 3.57143
6534.5 -0.571428
6535.5 -2
6536.5 -2.85714
6537.5 1.42857
6538.5 7.14286
6539.5 -6
6540.5 -15
6541.5 7.28572
6542.5 7.71429
6543.5 16
6544.5 3
6545.5 12.1429
6546.5 0.71429
6547.5 5.57143
6548.5 24.4286
6549.5 -19.7143
6550.5 -8.57143
6551.5 0.571429
6552.5 11.4286
6553.5 -7.14286
6554.5 12.7143
6555.5 8.57143
6556.5 9.14286
6557.5 -1.85714
6558.5 3.14286
6559.5 3.57143
6560.5 -1.85714
6561.5 2.57143
6562.5 11.5714
6563.5 5.28571
6564.5 2.28571
6565.5 -11.4286
6566.5 6.85714
6567.5 -13.5714
6568.5 -11.5714
6569.5 -0.714285
6570.5 -1.85714
6571.5 3.71429
6572.5 -3.85714
6573.5 3.57143
6574.5 -10.2857
6575.5 1.71429
6576.5 -2.85714
6577.5 -14.2857
6578.5 -11.2857
6579.5 -5
6580.5 -11.1429
6581.5 -13.5714
6582.5 5.57143
6583.5 -7.14286
6584.5 2.57143
6585.5 -7.85714
6586.5 2.28571
6587.5 10.8571
6588.5 -0.714285
6589.5 -7.42857
6590.5 8.28571
6591.5 -8.42857
6592.5 3.14286
6593.5 -0.571428
6594.5 0.428572
6595.5 5.57143
6596.5 1.42857
6597.5 -2.42857
6598.5 -4.85714
6599.5 -0.571428
6600.5 -2.85714
6601.5 3.57143
6602.5 -14.4286
6603.5 -0.714285
6604.5 1.71429
6605.5 3.71429
6606.5 10.4286
6607.5 -2
6608.5 -4.14286
6609.5 10.7143
6610.5 -0.857142
6611.5 1.42857
6612.5 4.71429
6613.5 -3.14286
6614.5 -2.57143
6615.5 -1
6616.5 -10.5714
6617.5 1.42857
6618.5 9.57143
6619.5 4.42857
6620.5 -0.571428
6621.5 3.57143
6622.5 -6.85714
6623.5 -2.57143
6624.5 2.42857
6625.5 -10
6626.5 -8
6627.5 1.42857
6628.5 -7
6629.5 1.57143
6630.5 5
6631.5 0.571429
6632.5 1.57143
6633.5 -5
6634.5 -8.85714
6635.5 1.42857
6636.5 -10.8571
6637.5 3.71429
6638.5 -6.85714
6639.5 -1.71429
6640.5 2.71429
6641.5 1.42857
6642.5 3.71429
6643.5 6.57143
6644.5 1
6645.5 5.14286
6646.5 5.85714
6647.5 -5.85714
6648.5 11.7143
6649.5 5
6650.5 26.8571
6651.5 14.2857
6652.5 11.2857
6653.5 -7.14286
6654.5 0.857143
6655.5 0.571429
6656.5 3.42857
6657.5 -0.714285
6658.5 6.57143
6659.5 -2.85714
6660.5 3.42857
6661.5 -9.14286
6662.5 -6
6663.5 4.71429
6664.5 3.85714
6665.5 4.71429
6666.5 0.428572
6667.5 1.57143
6668.5 5.85714
6669.5 4.57143
6670.5 0.571429
6671.5 2.71429
6672.5 9.85714
6673.5 3.57143
6674.5 -0.571428
6675.5 -0.428571
6676.5 -9
6677.5 -1.28571
6678.5 -4.71429
6679.5 -8
6680.5 -9
6681.5 -10
6682.5 -18.5714
6683.5 -5.71429
6684.5 -3.57143
6685.5 -3.71429
6686.5 -6.85714
6687.5 -7
6688.5 -0.428571
6689.5 -12.1429
6690.5 -3.85714
6691.5 -3.14286
6692.5 0.571429
6693.5 -7.14286
6694.5 -0.857142
6695.5 -7.85714
6696.5 0.142858
6697.5 8.57143
6698.5 1.28571
6699.5 2.85714
6700.5 1.71429
6701.5 5.42857
6702.5 -2.28571
6703.5 6.85714
6704.5 3.85714
6705.5 -6.14286
6706.5 -1.57143
6707.5 1.57143
6708.5 2.57143
6709.5 7.42857
6710.5 -3
6711.5 -0.285714
6712.5 0.428572
6713.5 7.57143
6714.5 -1.71429
6715.5 8.42857
6716.5 -4.14286
6717.5 7.57143
6718.5 2.28571
6719.5 -4.85714
6720.5 -4
6721.5 -0.285714
6722.5 2.85714
6723.5 2.57143
6724.5 3.42857
6725.5 -0.571428
6726.5 -1.42857
6727.5 -14.2857
6728.5 11.5714
6729.5 -5
6730.5 -3.85714
6731.5 1
6732.5 -10.1429
6733.5 0.285715
6734.5 3.71429
6735.5 3.57143
6736.5 3.85714
6737.5 0.428572
6738.5 3.71429
6739.5 2.28571
6740.5 -3.71429
6741.5 5.71429
6742.5 4.71429
6743.5 -0.714285
6744.5 -7.85714
6745.5 -4.85714
6746.5 -4.57143
6747.5 -1.42857
6748.5 9.57143
6749.5 -7
6750.5 5.57143
6751.5 -1
6752.5 -3
6753.5 -3.71429
6754.5 8.85714
6755.5 4.85714
6756.5 -5.71429
6757.5 1.71429
6758.5 4.85714
6759.5 5.71429
6760.5 1.57143
6761.5 4.71429
6762.5 7.71429
6763.5 -1.42857
6764.5 -3
6765.5 -1
6766.5 -4.28571
6767.5 -11
6768.5 11
6769.5 -10.7143
6770.5 14
6771.5 -6.42857
6772.5 -2.71428
6773.5 10.4286
6774.5 14.4286
6775.5 -6.57143
6776.5 1.42857
6777.5 4.71429
6778.5 7.85714
6779.5 4.85714
6780.5 -1.42857
6781.5 -9.14286
6782.5 0.714286
6783.5 5
6784.5 -0.428571
6785.5 7
6786.5 -5.85714
6787.5 -6.71429
6788.5 -2.57143
6789.5 -0.285714
6790.5 -0.571428
6791.5 1.71429
6792.5 -0.285714
6793.5 1.71429
6794.5 -2.71429
6795.5 4.71429
6796.5 -11.2857
6797.5 -5.57143
6798.5 1.57143
6799.5 8
6800.5 2.71429
6801.5 -2.42857
6802.5 7.57143
6803.5 10
6804.5 -5.85714
6805.5 -4.71429
6806.5 -4.71429
6807.5 2.42857
6808.5 3.71429
6809.5 1.57143
6810.5 4.85714
6811.5 -0.285714
6812.5 3.57143
6813.5 -2.57143
6814.5 -6.71429
6815.5 -3.71429
6816.5 -0.428571
6817.5 -1.71429
6818.5 -2.57143
6819.5 0.571429
6820.5 -3.57143
6821.5 2.71429
6822.5 4.71429
6823.5 -9
6824.5 0.714286
6825.5 0.714286
6826.5 -5.57143
6827.5 -4.71429
6828.5 -1.42857
6829.5 3.57143
6830.5 -3.57143
6831.5 1.71429
6832.5 6
6833.5 2.71429
6834.5 6.85714
6835.5 8
6836.5 -0.714285
6837.5 -6
6838.5 -3
6839.5 -0.714285
6840.5 -1.85714
6841.5 -1.42857
6842.5 -6
6843.5 -9.71428
6844.5 12.4286
6845.5 -2.14286
6846.5 -8.14286
6847.5 -11.2857
6848.5 -2.42857
6849.5 -2.42857
6850.5 -0.142857
6851.5 0.714286
6852.5 0.857143
6853.5 -4.71429
6854.5 -4.71429
6855.5 -0.714285
6856.5 -11.1429
6857.5 3.71429
6858.5 0.714286
6859.5 -4.71429
6860.5 -2.57143
6861.5 0.857143
6862.5 4.71429
6863.5 5
6864.5 1.71429
6865.5 1.57143
6866.5 -9
6867.5 3.85714
6868.5 -7.71429
6869.5 -8.85714
6870.5 -0.285714
6871.5 0.571429
6872.5 3.57143
6873.5 -5.71429
6874.5 -5.85714
6875.5 -4.71429
6876.5 -2.42857
6877.5 -2.42857
6878.5 -1.28571
6879.5 0.571429
6880.5 -7.85714
6881.5 5.85714
6882.5 1.71429
6883.5 -0.285714
6884.5 -0.571428
6885.5 -5.57143
6886.5 0.571429
6887.5 -0.428571
6888.5 -4.71429
6889.5 -3.42857
6890.5 -1.57143
6891.5 -0.714285
6892.5 -0.428571
6893.5 1.85714
6894.5 -0.571428
6895.5 -4.57143
6896.5 -4.42857
6897.5 -1.42857
6898.5 5.85714
6899.5 5.71429
6900.5 -2.42857
6901.5 -0.285714
6902.5 -2.57143
6903.5 -1.57143
6904.5 14.5714
6905.5 11.7143
6906.5 -3.14286
6907.5 24.5714
6908.5 23.2857
6909.5 23.7143
6910.5 36
6911.5 38.8571
6912.5 28.7143
6913.5 34
6914.5 18.5714
6915.5 13.4286
6916.5 2.28571
6917.5 0.714286
6918.5 0.714286
6919.5 -0.428571
6920.5 0.714286
6921.5 -3.42857
6922.5 7.85714
6923.5 -1.28571
6924.5 -4.57143
6925.5 2.85714
6926.5 -2.57143
6927.5 1.57143
6928.5 -7
6929.5 1.42857
6930.5 -8.42857
6931.5 -15.2857
6932.5 -6.14286
6933.5 4.14286
6934.5 -27.2857
6935.5 -36
6936.5 -3.28571
6937.5 -19.8571
6938.5 -8.42857
6939.5 3.42857
6940.5 -1.71429
6941.5 -9.14286
6942.5 -6.71429
6943.5 -2.85714
6944.5 5
6945.5 -0.428571
6946.5 -5.71429
6947.5 2.85714
6948.5 -5.71429
6949.5 -3.57143
6950.5 4
6951.5 0.571429
6952.5 2.85714
6953.5 -0.285714
6954.5 -6.57143
6955.5 -2.42857
6956.5 -5.57143
6957.5 -1.28571
6958.5 -1.42857
6959.5 -3.57143
6960.5 5.71429
6961.5 -4.42857
6962.5 0.857143
6963.5 -6.71429
6964.5 0.857143
6965.5 -1.28571
6966.5 4.85714
6967.5 -1.28571
6968.5 -4.42857
6969.5 -4.71429
6970.5 -4.42857
6971.5 1.85714
6972.5 0.571429
6973.5 -0.285714
6974.5 0.714286
6975.5 -9.85714
6976.5 -3.57143
6977.5 4
6978.5 -0.428571
6979.5 -0.571428
6980.5 2.57143
6981.5 4.71429
6982.5 -0.428571
6983.5 -0.285714
6984.5 -0.428571
6985.5 -4.57143
6986.5 -9.85714
6987.5 -4.42857
6988.5 -7.57143
6989.5 -7.57143
6990.5 3.71429
6991.5 -3.42857
6992.5 -1.28571
6993.5 -0.142857
6994.5 0.714286
6995.5 1.71429
6996.5 0.857143
6997.5 -1.28571
6998.5 -7.57143
6999.5 -2.57143
7000.5 2.85714
7001.5 -0.285714
7002.5 3
7003.5 -1.28571
7004.5 -0.285714
7005.5 -3.28571
7006.5 2.71429
7007.5 2
7008.5 -3.42857
7009.5 -3.42857
7010.5 2.57143
7011.5 -0.285714
7012.5 1
7013.5 -3.28571
7014.5 0.571429
7015.5 1
7016.5 -0.285714
7017.5 1.71429
7018.5 1.85714
7019.5 4.71429
7020.5 -0.142857
7021.5 -5.71429
7022.5 -7.71429
7023.5 5.85714
7024.5 -0.142857
7025.5 -2.42857
7026.5 -0.428571
7027.5 -3.42857
7028.5 -0.142857
7029.5 -1.42857
7030.5 5.71429
7031.5 2.71429
7032.5 -5.57143
7033.5 3.85714
7034.5 3.85714
7035.5 -2.42857
7036.5 -2.28571
7037.5 0.857143
7038.5 5
7039.5 -1.14286
7040.5 -2.28571
7041.5 -0.142857
7042.5 2.85714
7043.5 -1.42857
7044.5 -1.14286
7045.5 5
7046.5 -0.285714
7047.5 5
7048.5 2.71429
7049.5 -0.285714
7050.5 2.85714
7051.5 5.85714
7052.5 0.857143
7053.5 3
7054.5 1.85714
7055.5 -9
7056.5 -11
7057.5 -0.285714
7058.5 0.714286
7059.5 3
7060.5 -8.71429
7061.5 -9.71429
7062.5 -0.142857
7063.5 -5.42857
7064.5 -3.71429
7065.5 -1.28571
7066.5 -1.14286
7067.5 3.57143
7068.5 -0.285714
7069.5 -8.71429
7070.5 0.857143
7071.5 -1.28571
7072.5 5.85714
7073.5 3.85714
7074.5 5.85714
7075.5 -2.42857
7076.5 4.85714
7077.5 2.71429
7078.5 -2.42857
7079.5 -9.14286
7080.5 4
7081.5 -7.85714
7082.5 -7.85714
7083.5 -1.28571
7084.5 2
7085.5 6
7086.5 4
7087.5 3.85714
7088.5 2.85714
7089.5 -0.142857
7090.5 1.71429
7091.5 -4.42857
7092.5 -0.285714
7093.5 -2.28571
7094.5 -0.285714
7095.5 0.857143
7096.5 -1.28571
7097.5 -2.28571
7098.5 1.85714
7099.5 7
7100.5 -3.57143
7101.5 -0.285714
7102.5 3
7103.5 -3.42857
7104.5 -7.57143
7105.5 5.71429
7106.5 -1.28571
7107.5 -4.57143
7108.5 -1.28571
7109.5 -5.42857
7110.5 -1.42857
7111.5 -4.42857
7112.5 -2.42857
7113.5 -0.285714
7114.5 1.71429
7115.5 -7.71429
7116.5 -5.71429
7117.5 -8.85714
7118.5 5
7119.5 -2.42857
7120.5 0.714286
7121.5 -0.142857
7122.5 -11
7123.5 -4.57143
7124.5 -2.28571
7125.5 -1.28571
7126.5 0.714286
7127.5 2.71429
7128.5 1.85714
7129.5 -9.85714
7130.5 -6.71429
7131.5 -0.285714
7132.5 3.85714
7133.5 0.714286
7134.5 -1.28571
7135.5 7
7136.5 -2.57143
7137.5 -0.285714
7138.5 5
7139.5 -0.142857
7140.5 -3.42857
7141.5 2.57143
7142.5 3.85714
7143.5 -0.285714
7144.5 2.85714
7145.5 0.857143
7146.5 -2.57143
7147.5 2.85714
7148.5 -1.28571
7149.5 -5.42857
7150.5 -3.42857
7151.5 -1.42857
7152.5 0.714286
7153.5 -2.28571
7154.5 -1.42857
7155.5 -0.428571
7156.5 0.857143
7157.5 -4.28571
7158.5 2.85714
7159.5 -5.42857
7160.5 1.85714
7161.5 -1.28571
7162.5 -2.57143
7163.5 2.71429
7164.5 0.428572
7165.5 1.71429
7166.5 -2.28571
7167.5 4
7168.5 4.85714
7169.5 4.71429
7170.5 -0.285714
7171.5 2.85714
7172.5 3
7173.5 -3.57143
7174.5 -3.42857
7175.5 3
7176.5 -1.42857
7177.5 2.85714
7178.5 -0.285714
7179.5 2
7180.5 -0.285714
7181.5 -3.42857
7182.5 -2.28571
7183.5 -3.57143
7184.5 1
7185.5 -5.57143
7186.5 -1.42857
7187.5 -4.57143
7188.5 4
7189.5 -4.57143
7190.5 -3.28571
7191.5 3.85714
7192.5 1.71429
7193.5 -4.28571
7194.5 -5.57143
7195.5 -6.71429
7196.5 -0.428571
7197.5 -5.57143
7198.5 -5.57143
7199.5 -10
7200.5 4.71429
7201.5 -4.42857
7202.5 -0.285714
7203.5 3.71429
7204.5 2.85714
7205.5 3.85714
7206.5 -16.2857
7207.5 7.71429
7208.5 2.57143
7209.5 1.57143
7210.5 -3.42857
7211.5 -3.42857
7212.5 -6.85714
7213.5 -5.42857
7214.5 1.85714
7215.5 -0.428571
7216.5 -5.57143
7217.5 1.85714
7218.5 -3.42857
7219.5 -1.42857
7220.5 -1.57143
7221.5 1.85714
7222.5 2
7223.5 1.71429
7224.5 -5.42857
7225.5 0.714286
7226.5 1.71429
7227.5 -5.57143
7228.5 -5.57143
7229.5 0.857143
7230.5 -0.142857
7231.5 -0.142857
7232.5 -0.142857
7233.5 1
7234.5 2.85714
7235.5 -3.42857
7236.5 -0.142857
7237.5 0.857143
7238.5 -4.57143
7239.5 -4.42857
7240.5 -5.71429
7241.5 3
7242.5 2.85714
7243.5 0.857143
7244.5 0.714286
7245.5 -4.42857
7246.5 -5.57143
7247.5 0.857143
7248.5 -5.57143
7249.5 3
7250.5 -0.285714
7251.5 -3.42857
7252.5 0.857143
7253.5 -0.428571
7254.5 -0.428571
7255.5 -2.42857
7256.5 4
7257.5 6.85714
7258.5 -2.85714
7259.5 1.85714
7260.5 3.85714
7261.5 4.71429
7262.5 -2.85714
7263.5 5.85714
7264.5 -3.42857
7265.5 -0.428571
7266.5 1
7267.5 1.71429
7268.5 -0.142857
7269.5 -3.28571
7270.5 -3.28571
7271.5 -0.142857
7272.5 4
7273.5 -2.28571
7274.5 3.85714
7275.5 -5.42857
7276.5 -3.42857
7277.5 -0.285714
7278.5 -5.42857
7279.5 0.857143
7280.5 1.85714
7281.5 2
7282.5 1.85714
7283.5 -4.42857
7284.5 -1.14286
7285.5 0.714286
7286.5 0.857143
7287.5 1.85714
7288.5 -3.28571
7289.5 -7.57143
7290.5 3
7291.5 -4.57143
7292.5 -5.57143
7293.5 3
7294.5 4
7295.5 -7.71429
7296.5 -4.42857
7297.5 -2.28571
7298.5 -1.28571
7299.5 -2.42857
7300.5 -1.28571
7301.5 2
7302.5 0.857143
7303.5 1
7304.5 3.85714
7305.5 4
7306.5 -5.42857
7307.5 0.714286
7308.5 -0.428571
7309.5 2
7310.5 -2.28571
7311.5 0.428572
7312.5 3.85714
7313.5 3.71429
7314.5 0.714286
7315.5 -6
7316.5 9.57143
7317.5 0.714286
7318.5 -12.4286
7319.5 0.285715
7320.5 -0.714285
7321.5 4.85714
7322.5 -0.285714
7323.5 -2.42857
7324.5 5
7325.5 -0.142857
7326.5 2
7327.5 0.714286
7328.5 -3.28571
7329.5 -4.42857
7330.5 -0.285714
7331.5 2.85714
7332.5 -0.142857
7333.5 -3.28571
7334.5 -3.28571
7335.5 -1.14286
7336.5 4
7337.5 -0.142857
7338.5 -1.14286
7339.5 1.71429
7340.5 6
7341.5 -1.14286
7342.5 0.857143
7343.5 6
7344.5 -4.42857
7345.5 -2.28571
7346.5 3.71429
7347.5 -2.42857
7348.5 0.428572
7349.5 -3.14286
7350.5 10.2857
7351.5 -7.14286
7352.5 -22.8571
7353.5 14
7354.5 8.14286
7355.5 -5.85714
7356.5 -1.42857
7357.5 5.42857
7358.5 -8.85714
7359.5 -2.42857
7360.5 -0.285714
7361.5 -6.42857
7362.5 4
7363.5 -6.57143
7364.5 -1.28571
7365.5 3
7366.5 -0.285714
7367.5 3
7368.5 0.857143
7369.5 -3.28571
7370.5 3
7371.5 0.857143
7372.5 -1.14286
7373.5 -0.142857
7374.5 2
7375.5 -1.28571
7376.5 -2.28571
7377.5 -3.28571
7378.5 2
7379.5 2
7380.5 2.85714
7381.5 -1.14286
7382.5 -1.14286
7383.5 0.857143
7384.5 -4.42857
7385.5 1.85714
7386.5 -2.28571
7387.5 -0.142857
7388.5 0.857143
7389.5 -6.42857
7390.5 0
7391.5 2
7392.5 0
7393.5 -1.14286
7394.5 -2.28571
7395.5 0
7396.5 -0.285714
7397.5 4
7398.5 -1.14286
7399.5 -2.14286
7400.5 2
7401.5 2
7402.5 -3.28571
7403.5 -1.14286
7404.5 -0.142857
7405.5 -3.28571
7406.5 3
7407.5 1
7408.5 -0.142857
7409.5 0.857143
7410.5 2
7411.5 -0.285714
7412.5 -2.42857
7413.5 8
7414.5 2.85714
7415.5 1.85714
7416.5 -0.428571
7417.5 -1.28571
7418.5 1.85714
7419.5 -1.71429
7420.5 -4.42857
7421.5 0.857143
7422.5 0.857143
7423.5 2.85714
7424.5 -1.14286
7425.5 -3.28571
7426.5 4
7427.5 -2.28571
7428.5 -3.28571
7429.5 -1.14286
7430.5 -2.28571
7431.5 -0.142857
7432.5 2.85714
7433.5 1.85714
7434.5 0.857143
7435.5 1
7436.5 0
7437.5 0.857143
7438.5 -4.42857
7439.5 -3.28571
7440.5 2
7441.5 3
7442.5 -1.14286
7443.5 4
7444.5 3
7445.5 1
7446.5 -5.57143
7447.5 -1.14286
7448.5 0.857143
7449.5 3
7450.5 -9.71429
7451.5 -14.1429
7452.5 0.571429
7453.5 0.571429
7454.5 -5.71429
7455.5 -7.85714
7456.5 0.571429
7457.5 -9.85714
7458.5 -3.42857
7459.5 -2.28571
7460.5 -0.142857
7461.5 2
7462.5 1
7463.5 5
7464.5 3
7465.5 0
7466.5 -0.142857
7467.5 -4.28571
7468.5 -1.28571
7469.5 -1.14286
7470.5 0.857143
7471.5 0.714286
7472.5 -3.28571
7473.5 -1.14286
7474.5 0
7475.5 -1.14286
7476.5 0.857143
7477.5 1
7478.5 -2.14286
7479.5 2
7480.5 1
7481.5 -1.14286
7482.5 -3.28571
7483.5 -3.28571
7484.5 0.857143
7485.5 5
7486.5 5
7487.5 -1.14286
7488.5 1
7489.5 3
7490.5 2
7491.5 -0.142857
7492.5 -3.28571
7493.5 2
7494.5 -1.14286
7495.5 -1.28571
7496.5 0.857143
7497.5 1
7498.5 1
7499.5 2.85714
7500.5 3
7501.5 -5.57143
7502.5 1
7503.5 -0.142857
7504.5 2.85714
7505.5 -1.14286
7506.5 -3.28571
7507.5 1
7508.5 -1.28571
7509.5 5
7510.5 0.857143
7511.5 2.85714
7512.5 -0.142857
7513.5 1.85714
7514.5 -1.14286
7515.5 -4.42857
7516.5 2
7517.5 2.85714
7518.5 -0.142857
7519.5 -0.142857
7520.5 7
7521.5 -3.28571
7522.5 1
7523.5 1
7524.5 -2.14286
7525.5 -2.14286
7526.5 5
7527.5 3.85714
7528.5 2
7529.5 1
7530.5 2
7531.5 2
7532.5 -4.28571
7533.5 -1.14286
7534.5 -1.28571
7535.5 0.857143
7536.5 -4.42857
7537.5 -1.14286
7538.5 -1.14286
7539.5 -0.285714
7540.5 -2.14286
7541.5 -3.42857
7542.5 -1.14286
7543.5 -3.28571
7544.5 0.857143
7545.5 0.857143
7546.5 1
7547.5 3
7548.5 1
7549.5 1
7550.5 2
7551.5 0
7552.5 -5.42857
7553.5 -0.142857
7554.5 2
7555.5 -1.14286
7556.5 -7.71429
7557.5 -1.28571
7558.5 1.85714
7559.5 -4.42857
7560.5 0
7561.5 0.857143
7562.5 1.85714
7563.5 -3.42857
7564.5 -1.14286
7565.5 2
7566.5 1.85714
7567.5 -5.42857
7568.5 2
7569.5 1
7570.5 -0.142857
7571.5 -4.28571
7572.5 3
7573.5 0.857143
7574.5 -3.28571
7575.5 -5.71429
7576.5 0
7577.5 -0.142857
7578.5 1
7579.5 0.857143
7580.5 -0.142857
7581.5 -1.14286
7582.5 3.85714
7583.5 -1.42857
7584.5 -5.42857
7585.5 -1.28571
7586.5 1.85714
7587.5 1
7588.5 2
7589.5 -1.28571
7590.5 -2.28571
7591.5 -1.14286
7592.5 -0.142857
7593.5 -0.142857
7594.5 0
7595.5 2
7596.5 1
7597.5 2
7598.5 -1.14286
7599.5 1
7600.5 1
7601.5 -2.14286
7602.5 -2.28571
7603.5 2
7604.5 3
7605.5 1
7606.5 1
7607.5 2
7608.5 4
7609.5 0
7610.5 1
7611.5 0
7612.5 -1.14286
7613.5 -1.28571
7614.5 3
7615.5 -0.142857
7616.5 1
7617.5 -1.14286
7618.5 -2.28571
7619.5 0
7620.5 -2.14286
7621.5 1
7622.5 0
7623.5 0.857143
7624.5 5
7625.5 1.85714
7626.5 0
7627.5 4
7628.5 -0.142857
7629.5 2
7630.5 -3.28571
7631.5 -2.28571
7632.5 1.85714
7633.5 -1.14286
7634.5 -0.285714
7635.5 -2.28571
7636.5 3
7637.5 3
7638.5 -1.14286
7639.5 1
7640.5 0
7641.5 1
7642.5 -1.14286
7643.5 -1.14286
7644.5 -1.14286
7645.5 3
7646.5 0.857143
7647.5 1
7648.5 -2.28571
7649.5 -2.28571
7650.5 -3.28571
7651.5 -1.14286
7652.5 2
7653.5 1
7654.5 0
7655.5 -0.142857
7656.5 -2.28571
7657.5 2
7658.5 -1.14286
7659.5 -0.142857
7660.5 -2.14286
7661.5 -2.14286
7662.5 -1.42857
7663.5 0
7664.5 -1.14286
7665.5 -2.14286
7666.5 4
7667.5 -2.14286
7668.5 -1.14286
7669.5 -1.14286
7670.5 -0.142857
7671.5 -0.142857
7672.5 -1.14286
7673.5 1
7674.5 -2.28571
7675.5 -0.142857
7676.5 0.857143
7677.5 1
7678.5 0.857143
7679.5 0.857143
7680.5 1
7681.5 -4.28571
7682.5 -3.28571
7683.5 3
7684.5 2.85714
7685.5 0
7686.5 -0.142857
7687.5 0
7688.5 0
7689.5 -1.14286
7690.5 1
7691.5 3
7692.5 -2.28571
7693.5 -1.14286
7694.5 -2.14286
7695.5 2
7696.5 2
7697.5 -3.28571
7698.5 -1.14286
7699.5 -1.14286
7700.5 -1.14286
7701.5 -2.14286
7702.5 -5.42857
7703.5 -4.28571
7704.5 -3.28571
7705.5 -4.28571
7706.5 -7.57143
7707.5 -4.42857
7708.5 -6.42857
7709.5 -0.285714
7710.5 -0.285714
7711.5 -4.28571
7712.5 1
7713.5 -1.14286
7714.5 -4.28571
7715.5 1
7716.5 -1.14286
7717.5 -2.14286
7718.5 4
7719.5 -3.28571
7720.5 -1.14286
7721.5 -2.14286
7722.5 -1.14286
7723.5 0.857143
7724.5 -0.142857
7725.5 -3.28571
7726.5 0.857143
7727.5 -3.28571
7728.5 0
7729.5 2
7730.5 -1.14286
7731.5 -2.14286
7732.5 -5.42857
7733.5 -2.14286
7734.5 -3.28571
7735.5 -1.14286
7736.5 -0.142857
7737.5 -6.57143
7738.5 -1.14286
7739.5 -3.28571
7740.5 1
7741.5 1
7742.5 0
7743.5 -2.14286
7744.5 0
7745.5 -1.14286
7746.5 1
7747.5 3
7748.5 2
7749.5 0
7750.5 0
7751.5 -3.28571
7752.5 0
7753.5 -3.28571
7754.5 0
7755.5 -1.14286
7756.5 -1.14286
7757.5 0
7758.5 3
7759.5 1
7760.5 -1.14286
7761.5 -0.142857
7762.5 -6.42857
7763.5 -0.142857
7764.5 1
7765.5 1
7766.5 -4.42857
7767.5 1.85714
7768.5 0.714286
7769.5 1.85714
7770.5 1.57143
7771.5 2.42857
7772.5 1.57143
7773.5 -2.57143
7774.5 2.85714
7775.5 0.857143
7776.5 -2.28571
7777.5 3
7778.5 4
7779.5 0
7780.5 0.857143
7781.5 3
7782.5 -0.142857
7783.5 3
7784.5 -3.28571
7785.5 1
7786.5 -1.14286
7787.5 -5.42857
7788.5 2
7789.5 -3.28571
7790.5 -1.28571
7791.5 -1.14286
7792.5 -0.142857
7793.5 -3.28571
7794.5 0
7795.5 1
7796.5 0
7797.5 0
7798.5 1
7799.5 3
7800.5 1
7801.5 -0.142857
7802.5 3
7803.5 1.85714
7804.5 2
7805.5 3
7806.5 -6.42857
7807.5 2
7808.5 0
7809.5 -4.28571
7810.5 1
7811.5 0
7812.5 2
7813.5 0
7814.5 0
7815.5 2
7816.5 -1.14286
7817.5 -0.142857
7818.5 -3.28571
7819.5 -1.14286
7820.5 -0.142857
7821.5 2
7822.5 2.57143
7823.5 -3.42857
7824.5 -3.71429
7825.5 9.71429
7826.5 15.7143
7827.5 -10.1429
7828.5 5.42857
7829.5 7.14286
7830.5 3.42857
7831.5 -0.428571
7832.5 -1.28571
7833.5 0.714286
7834.5 -2.28571
7835.5 -0.142857
7836.5 1
7837.5 1
7838.5 -0.142857
7839.5 1
7840.5 -6.42857
7841.5 0
7842.5 0
7843.5 1
7844.5 0
7845.5 1
7846.5 1
7847.5 -0.142857
7848.5 -3.28571
7849.5 0
7850.5 0
7851.5 1
7852.5 0
7853.5 2
7854.5 1
7855.5 0
7856.5 1
7857.5 -0.142857
7858.5 1
7859.5 0
7860.5 0
7861.5 0
7862.5 2
7863.5 -0.142857
7864.5 1
7865.5 -2.14286
7866.5 -2.14286
7867.5 0
7868.5 0
7869.5 1
7870.5 0
7871.5 0
7872.5 1
7873.5 0
7874.5 0
7875.5 0
7876.5 2
7877.5 0
7878.5 -6.42857
7879.5 0
7880.5 -0.142857
7881.5 -2.14286
7882.5 0
7883.5 1
7884.5 1
7885.5 0
7886.5 0
7887.5 0
7888.5 1
7889.5 -3.28571
7890.5 -4.28571
7891.5 0
7892.5 -2.14286
7893.5 0
7894.5 0
7895.5 0
7896.5 -0.142857
7897.5 0
7898.5 2
7899.5 0
7900.5 1
7901.5 1
7902.5 0
7903.5 0
7904.5 2
7905.5 0
7906.5 1
7907.5 0
7908.5 -2.14286
7909.5 0
7910.5 -4.28571
7911.5 0
7912.5 1
7913.5 1
7914.5 2
7915.5 0
7916.5 -2.14286
7917.5 -0.142857
7918.5 -4.28571
7919.5 1
7920.5 0
7921.5 0.857143
7922.5 -2.14286
7923.5 -4.28571
7924.5 1
7925.5 -2.28571
7926.5 0
7927.5 -2.14286
7928.5 0
7929.5 -4.28571
7930.5 -2.14286
7931.5 0
7932.5 2
7933.5 1
7934.5 0
7935.5 1
7936.5 0
7937.5 0
7938.5 -0.142857
7939.5 2
7940.5 1
7941.5 -4.28571
7942.5 0
7943.5 1.85714
7944.5 2
7945.5 0
7946.5 2
7947.5 -1.14286
7948.5 0
7949.5 -1.14286
7950.5 -2.14286
7951.5 -1.14286
7952.5 1
7953.5 -2.14286
7954.5 1
7955.5 0
7956.5 1
7957.5 0
7958.5 2
7959.5 1
7960.5 4
7961.5 0
7962.5 0
7963.5 1
7964.5 1
7965.5 -0.142857
7966.5 1
7967.5 -1.14286
7968.5 -0.142857
7969.5 1
7970.5 0
7971.5 0
7972.5 3
7973.5 0
7974.5 0
7975.5 -1.14286
7976.5 -1.14286
7977.5 0
7978.5 -1.14286
7979.5 -1.14286
7980.5 -1.14286
7981.5 -0.142857
7982.5 0
7983.5 1
7984.5 0
7985.5 0
7986.5 0
7987.5 1
7988.5 -1.14286
7989.5 1
7990.5 2
7991.5 2
7992.5 0
7993.5 0
7994.5 2
7995.5 1
7996.5 -2.14286
7997.5 2
7998.5 2
7999.5 -2.28571
8000.5 -0.142857
8001.5 -4.28571
8002.5 2
8003.5 0
8004.5 0
8005.5 0
8006.5 1
8007.5 -1.14286
8008.5 -0.142857
8009.5 0
8010.5 2
8011.5 -2.14286
8012.5 3
8013.5 1
8014.5 0
8015.5 0
8016.5 1
8017.5 -2.14286
8018.5 0
8019.5 0
8020.5 0
8021.5 -1.14286
8022.5 1
8023.5 -2.14286
8024.5 0
8025.5 1
8026.5 0
8027.5 -2.14286
8028.5 2
8029.5 -0.142857
8030.5 0
8031.5 0
8032.5 1
8033.5 -1.14286
8034.5 1
8035.5 1
8036.5 0
8037.5 -2.14286
8038.5 1
8039.5 1
8040.5 0
8041.5 0
8042.5 1
8043.5 1
8044.5 0
8045.5 0
8046.5 1
8047.5 1
8048.5 -1.14286
8049.5 1
8050.5 2
8051.5 0
8052.5 -1.14286
8053.5 1
8054.5 0
8055.5 -2.14286
8056.5 -2.14286
8057.5 -2.14286
8058.5 -2.14286
8059.5 1
8060.5 1
8061.5 1
8062.5 -0.142857
8063.5 -0.142857
8064.5 0
8065.5 -5.42857
8066.5 1
8067.5 -2.28571
8068.5 1.85714
8069.5 0
8070.5 1
8071.5 -0.142857
8072.5 -0.142857
8073.5 1
8074.5 1
8075.5 1
8076.5 1
8077.5 -1.14286
8078.5 0
8079.5 1
8080.5 2
8081.5 -0.142857
8082.5 -4.28571
8083.5 2
8084.5 -2.14286
8085.5 -1.14286
8086.5 -2.28571
8087.5 3
8088.5 -1.14286
8089.5 0.857143
8090.5 -2.14286
8091.5 0
8092.5 1
8093.5 0
8094.5 1
8095.5 0
8096.5 0
8097.5 0
8098.5 0
8099.5 0
8100.5 -2.14286
8101.5 1
8102.5 0
8103.5 1
8104.5 0
8105.5 0
8106.5 0
8107.5 1
8108.5 -2.14286
8109.5 -1.14286
8110.5 2
8111.5 0
8112.5 1
8113.5 0
8114.5 0
8115.5 -1.14286
8116.5 1
8117.5 0
8118.5 0
8119.5 0
8120.5 0
8121.5 1
8122.5 0
8123.5 -1.14286
8124.5 1
8125.5 0
8126.5 1
8127.5 -1.14286
8128.5 1
8129.5 0
8130.5 2
8131.5 1
8132.5 1
8133.5 -2.14286
8134.5 0
8135.5 0
8136.5 1
8137.5 0
8138.5 -3.28571
8139.5 0
8140.5 0
8141.5 1
8142.5 1
8143.5 0
8144.5 0
8145.5 1
8146.5 0
8147.5 2
8148.5 1
8149.5 0
8150.5 1
8151.5 0
8152.5 -2.14286
8153.5 0
8154.5 0
8155.5 -2.14286
8156.5 0
8157.5 0
8158.5 3
8159.5 -2.14286
8160.5 1
8161.5 1
8162.5 1
8163.5 0
8164.5 0
8165.5 0
8166.5 0
8167.5 0
8168.5 0
8169.5 -1.14286
8170.5 1
8171.5 -0.142857
8172.5 0
8173.5 0
8174.5 1
8175.5 0
8176.5 0
8177.5 1
8178.5 1
8179.5 1
8180.5 -2.14286
8181.5 1
8182.5 -2.14286
8183.5 0
8184.5 3
8185.5 0
8186.5 1
8187.5 -1.14286
8188.5 1
8189.5 -1.14286
8190.5 2
8191.5 0
8192.5 0
8193.5 1
8194.5 0
8195.5 0
8196.5 -2.14286
8197.5 0
8198.5 -1.14286
8199.5 -3.28571
8200.5 2
8201.5 0
8202.5 1
8203.5 0
8204.5 -0.142857
8205.5 2
8206.5 1
8207.5 1
8208.5 1
8209.5 2
8210.5 1
8211.5 3
8212.5 0
8213.5 2
8214.5 1
8215.5 0
8216.5 0
8217.5 1
8218.5 0
8219.5 0
8220.5 -1.14286
8221.5 -4.28571
8222.5 0
8223.5 0
8224.5 0
8225.5 -2.14286
8226.5 2
8227.5 -1.14286
8228.5 0
8229.5 0
8230.5 0
8231.5 0
8232.5 1
8233.5 1
8234.5 0
8235.5 0
8236.5 -1.14286
8237.5 1
8238.5 0
8239.5 -2.14286
8240.5 1
8241.5 1
8242.5 0
8243.5 1
8244.5 -1.14286
8245.5 -2.14286
8246.5 0
8247.5 0
8248.5 1
8249.5 0
8250.5 -1.14286
8251.5 0
8252.5 0
8253.5 0
8254.5 0
8255.5 1
8256.5 0
8257.5 -1.28571
8258.5 0
8259.5 0
8260.5 1
8261.5 0
8262.5 0
8263.5 0
8264.5 0
8265.5 1
8266.5 0
8267.5 3
8268.5 0
8269.5 0
8270.5 0
8271.5 0
8272.5 -2.14286
8273.5 1
8274.5 0
8275.5 1
8276.5 1
8277.5 0
8278.5 -2.14286
8279.5 1
8280.5 0
8281.5 1
8282.5 0
8283.5 1
8284.5 -1.14286
8285.5 0
8286.5 -1.14286
8287.5 0
8288.5 0
8289.5 0
8290.5 0
8291.5 0
8292.5 0
8293.5 2
8294.5 0
8295.5 0
8296.5 0
8297.5 -2.14286
8298.5 0
8299.5 0
8300.5 0
8301.5 0
8302.5 0
8303.5 0
8304.5 0
8305.5 -2.14286
8306.5 0
8307.5 0
8308.5 -2.14286
8309.5 -2.14286
8310.5 -0.142857
8311.5 0
8312.5 2
8313.5 2
8314.5 -5.42857
8315.5 2
8316.5 -2.14286
8317.5 2
8318.5 -5.42857
8319.5 0
8320.5 0
8321.5 1
8322.5 -1.14286
8323.5 0
8324.5 0.857143
8325.5 1
8326.5 -2.14286
8327.5 0
8328.5 2
8329.5 0
8330.5 0
8331.5 0
8332.5 1
8333.5 1
8334.5 0
8335.5 0
8336.5 0
8337.5 0
8338.5 0
8339.5 -2.14286
8340.5 0
8341.5 0
8342.5 0
8343.5 0
8344.5 -1.14286
8345.5 -2.14286
8346.5 1
8347.5 1
8348.5 0
8349.5 0
8350.5 -1.14286
8351.5 -2.14286
8352.5 1
8353.5 1
8354.5 1
8355.5 1
8356.5 1
8357.5 -1.14286
8358.5 0.857143
8359.5 -1.14286
8360.5 0
8361.5 0
8362.5 1
8363.5 0
8364.5 -1.14286
8365.5 0
8366.5 1
8367.5 1
8368.5 0
8369.5 1
8370.5 1
8371.5 0
8372.5 2
8373.5 0
8374.5 1
8375.5 0
8376.5 1
8377.5 0
8378.5 0
8379.5 0
8380.5 0
8381.5 0
8382.5 0
8383.5 1
8384.5 0
8385.5 0
8386.5 0
8387.5 0
8388.5 -2.14286
8389.5 -2.14286
8390.5 0
8391.5 1
8392.5 0
8393.5 0
8394.5 1
8395.5 0
8396.5 -2.14286
8397.5 3
8398.5 1
8399.5 0
8400.5 0
8401.5 0
8402.5 1
8403.5 0
8404.5 0
8405.5 1
8406.5 -1.14286
8407.5 0
8408.5 -2.14286
8409.5 0
8410.5 1
8411.5 1
8412.5 0
8413.5 -2.14286
8414.5 1
8415.5 0
8416.5 0
8417.5 0
8418.5 -2.14286
8419.5 1
8420.5 0
8421.5 0
8422.5 0
8423.5 1
8424.5 0
8425.5 0
8426.5 0
8427.5 1
8428.5 0
8429.5 0
8430.5 0
8431.5 2
8432.5 1
8433.5 0
8434.5 0
8435.5 0
8436.5 0
8437.5 1
8438.5 -1.14286
8439.5 0
8440.5 1
8441.5 1
8442.5 0
8443.5 0
8444.5 2
8445.5 1
8446.5 0
8447.5 0
8448.5 -2.14286
8449.5 0
8450.5 1
8451.5 1
8452.5 0
8453.5 0
8454.5 1
8455.5 0
8456.5 -2.14286
8457.5 -1.14286
8458.5 1
8459.5 0
8460.5 0
8461.5 0
8462.5 -2.14286
8463.5 -1.14286
8464.5 0
8465.5 1
8466.5 0
8467.5 0
8468.5 0
8469.5 0
8470.5 2
8471.5 1
8472.5 2
8473.5 1
8474.5 -2.14286
8475.5 0
8476.5 0
8477.5 -2.14286
8478.5 0
8479.5 -2.14286
8480.5 -3.28571
8481.5 1
8482.5 1
8483.5 1
8484.5 0
8485.5 0
8486.5 0
8487.5 1
8488.5 0
8489.5 -2.14286
8490.5 0
8491.5 0
8492.5 0
8493.5 1
8494.5 0
8495.5 0
8496.5 1
8497.5 -2.14286
8498.5 0
8499.5 1
8500.5 0
8501.5 0
8502.5 0
8503.5 0
8504.5 0
8505.5 0
8506.5 0
8507.5 1
8508.5 1
8509.5 -1.14286
8510.5 2
8511.5 1
8512.5 0
8513.5 0
8514.5 0
8515.5 0
8516.5 0
8517.5 0
8518.5 0
8519.5 0
8520.5 2
8521.5 -2.14286
8522.5 0
8523.5 0
8524.5 2
8525.5 1
8526.5 -2.14286
8527.5 1
8528.5 0
8529.5 0
8530.5 0
8531.5 1
8532.5 1
8533.5 -2.14286
8534.5 1
8535.5 1
8536.5 0
8537.5 0
8538.5 2
8539.5 1
8540.5 1
8541.5 -2.14286
8542.5 0
8543.5 1
8544.5 1
8545.5 1
8546.5 -2.14286
8547.5 0
8548.5 1
8549.5 0
8550.5 -0.142857
8551.5 1
8552.5 0
8553.5 0
8554.5 0
8555.5 0
8556.5 0
8557.5 0
8558.5 -2.14286
8559.5 -1.14286
8560.5 1
8561.5 0
8562.5 -1.14286
8563.5 0
8564.5 0.857143
8565.5 0
8566.5 1
8567.5 -2.14286
8568.5 1
8569.5 1
8570.5 0
8571.5 0
8572.5 1
8573.5 0
8574.5 0
8575.5 1
8576.5 1
8577.5 0
8578.5 0
8579.5 0
8580.5 1
8581.5 -3.28571
8582.5 0
8583.5 0
8584.5 1
8585.5 1
8586.5 -1.14286
8587.5 1
8588.5 0
8589.5 0
8590.5 0
8591.5 0
8592.5 0
8593.5 1
8594.5 0
8595.5 0
8596.5 0
8597.5 0
8598.5 0
8599.5 -2.14286
8600.5 2
8601.5 -2.28571
8602.5 0
8603.5 1
8604.5 0
8605.5 -1.14286
8606.5 0
8607.5 0
8608.5 0
8609.5 0
8610.5 0
8611.5 1
8612.5 0
8613.5 0
8614.5 1
8615.5 0
8616.5 1
8617.5 0
8618.5 0
8619.5 0
8620.5 1
8621.5 0
8622.5 1
8623.5 -2.14286
8624.5 1
8625.5 0
8626.5 0
8627.5 0
8628.5 0
8629.5 -2.14286
8630.5 1
8631.5 1
8632.5 0
8633.5 0
8634.5 1
8635.5 -2.14286
8636.5 1
8637.5 -1.14286
8638.5 1
8639.5 0
8640.5 0
8641.5 -4.28571
8642.5 0
8643.5 0
8644.5 1
8645.5 0
8646.5 0
8647.5 0
8648.5 0
8649.5 0
8650.5 0
8651.5 0
8652.5 -2.14286
8653.5 0
8654.5 1
8655.5 1
8656.5 0
8657.5 -2.14286
8658.5 0
8659.5 0
8660.5 0
8661.5 1
8662.5 0
8663.5 0
8664.5 0
8665.5 0
8666.5 0
8667.5 0
8668.5 0
8669.5 1
8670.5 0
8671.5 1
8672.5 1
8673.5 1
8674.5 0
8675.5 0
8676.5 0
8677.5 1
8678.5 0
8679.5 1
8680.5 0
8681.5 0
8682.5 -2.14286
8683.5 -2.14286
8684.5 -4.28571
8685.5 -2.14286
8686.5 0
8687.5 0
8688.5 1
8689.5 -2.14286
8690.5 -2.14286
8691.5 0
8692.5 1
8693.5 0
8694.5 0
8695.5 -2.14286
8696.5 0
8697.5 0
8698.5 0
8699.5 0
8700.5 0
8701.5 0
8702.5 0
8703.5 1
8704.5 1
8705.5 0
8706.5 0
8707.5 0
8708.5 1
8709.5 0
8710.5 -0.142857
8711.5 0
8712.5 1
8713.5 -2.14286
8714.5 0
8715.5 0
8716.5 0
8717.5 -2.14286
8718.5 -2.14286
8719.5 0
8720.5 1
8721.5 0
8722.5 -1.14286
8723.5 1
8724.5 0
8725.5 1
8726.5 0
8727.5 0
8728.5 -1.14286
8729.5 0
8730.5 2
8731.5 -4.28571
8732.5 2
8733.5 0
8734.5 0
8735.5 -4.28571
8736.5 0
8737.5 0
8738.5 0
8739.5 -1.14286
8740.5 0
8741.5 1
8742.5 -2.14286
8743.5 1
8744.5 2
8745.5 0
8746.5 1
8747.5 0
8748.5 1
8749.5 0
8750.5 0
8751.5 1
8752.5 0
8753.5 0
8754.5 0
8755.5 0
8756.5 1
8757.5 0
8758.5 0
8759.5 2
8760.5 0
8761.5 0
8762.5 0
8763.5 0
8764.5 0
8765.5 0
8766.5 0
8767.5 0
8768.5 -1.14286
8769.5 0
8770.5 0
8771.5 0
8772.5 0
8773.5 1
8774.5 0
8775.5 1
8776.5 0
8777.5 0
8778.5 0
8779.5 0
8780.5 0
8781.5 -2.14286
8782.5 1
8783.5 -2.14286
8784.5 0
8785.5 0
8786.5 -2.14286
8787.5 0
8788.5 0
8789.5 0
8790.5 0
8791.5 0
8792.5 0
8793.5 0
8794.5 1
8795.5 0
8796.5 0
8797.5 0
8798.5 0
8799.5 -2.14286
8800.5 1
8801.5 0
8802.5 0
8803.5 -1.14286
8804.5 -2.14286
8805.5 0
8806.5 -1.14286
8807.5 0
8808.5 0
8809.5 0
8810.5 0
8811.5 1
8812.5 0
8813.5 0
8814.5 0
8815.5 0
8816.5 1
8817.5 0
8818.5 1
8819.5 1
8820.5 0
8821.5 1
8822.5 0
8823.5 0
8824.5 0
8825.5 1
8826.5 0
8827.5 0
8828.5 0
8829.5 2
8830.5 -2.14286
8831.5 1
8832.5 -2.14286
8833.5 2
8834.5 0
8835.5 0
8836.5 -1.14286
8837.5 -2.14286
8838.5 2
8839.5 -1.14286
8840.5 -2.14286
8841.5 1
8842.5 1
8843.5 0
8844.5 -0.142857
8845.5 0
8846.5 1
8847.5 2
8848.5 2
8849.5 0
8850.5 -2.14286
8851.5 0
8852.5 1
8853.5 0
8854.5 0
8855.5 0
8856.5 0
8857.5 0
8858.5 1
8859.5 0
8860.5 0
8861.5 0
8862.5 0
8863.5 0
8864.5 1
8865.5 0
8866.5 1
8867.5 -2.14286
8868.5 -2.14286
8869.5 0
8870.5 0
8871.5 0
8872.5 0
8873.5 -1.14286
8874.5 0
8875.5 1
8876.5 0
8877.5 1
8878.5 0
8879.5 0
8880.5 1
8881.5 -4.28571
8882.5 0
8883.5 1
8884.5 0
8885.5 -2.14286
8886.5 0
8887.5 0
8888.5 0
8889.5 0
8890.5 0
8891.5 1
8892.5 -4.28571
8893.5 -1.14286
8894.5 1
8895.5 0
8896.5 0
8897.5 1
8898.5 0
8899.5 0
8900.5 0
8901.5 0
8902.5 0
8903.5 2
8904.5 0
8905.5 0
8906.5 0
8907.5 0
8908.5 1
8909.5 0
8910.5 0
8911.5 0
8912.5 0
8913.5 0
8914.5 -2.14286
8915.5 2
8916.5 -2.14286
8917.5 0
8918.5 -1.14286
8919.5 0
8920.5 0
8921.5 0
8922.5 1
8923.5 1
8924.5 -2.14286
8925.5 2
8926.5 1
8927.5 0
8928.5 0
8929.5 0
8930.5 0
8931.5 0
8932.5 0
8933.5 0
8934.5 0
8935.5 2
8936.5 0
8937.5 0
8938.5 0
8939.5 0
8940.5 1
8941.5 1
8942.5 0
8943.5 0
8944.5 0
8945.5 1
8946.5 0
8947.5 0
8948.5 1
8949.5 0
8950.5 -2.14286
8951.5 1
8952.5 0
8953.5 0
8954.5 0
8955.5 0
8956.5 0
8957.5 1
8958.5 0
8959.5 0
8960.5 0
8961.5 0
8962.5 0
8963.5 1
8964.5 1
8965.5 0
8966.5 1
8967.5 0
8968.5 0
8969.5 0
8970.5 2
8971.5 0
8972.5 0
8973.5 1
8974.5 0
8975.5 0
8976.5 0
8977.5 0
8978.5 0
8979.5 1
8980.5 0
8981.5 0
8982.5 -1.14286
8983.5 0
8984.5 0
8985.5 -2.14286
8986.5 0
8987.5 -2.14286
8988.5 0
8989.5 0
8990.5 0
8991.5 0
8992.5 0
8993.5 0
8994.5 0
8995.5 1
8996.5 -1.14286
8997.5 0
8998.5 0
8999.5 0
9000.5 1
9001.5 -2.14286
9002.5 1
9003.5 0
9004.5 2
9005.5 1
9006.5 0
9007.5 0
9008.5 0
9009.5 0
9010.5 1
9011.5 0
9012.5 0
9013.5 0
9014.5 1
9015.5 1
9016.5 0
9017.5 0
9018.5 0
9019.5 0
9020.5 0
9021.5 1
9022.5 0
9023.5 0
9024.5 -2.14286
9025.5 0
9026.5 2
9027.5 0
9028.5 0
9029.5 0
9030.5 0
9031.5 0
9032.5 0
9033.5 0
9034.5 1
9035.5 0
9036.5 0
9037.5 0
9038.5 0
9039.5 0
9040.5 0
9041.5 0
9042.5 0
9043.5 0
9044.5 1
9045.5 0
9046.5 0
9047.5 -2.14286
9048.5 0
9049.5 0
9050.5 0
9051.5 0
9052.5 0
9053.5 1
9054.5 0
9055.5 1
9056.5 1
9057.5 0
9058.5 0
9059.5 0
9060.5 0
9061.5 0
9062.5 0
9063.5 -3.28571
9064.5 1
9065.5 0
9066.5 0
9067.5 0
9068.5 0
9069.5 0
9070.5 -2.14286
9071.5 0
9072.5 0
9073.5 0
9074.5 -2.14286
9075.5 0
9076.5 1
9077.5 -4.28571
9078.5 1
9079.5 -2.14286
9080.5 0
9081.5 2
9082.5 0
9083.5 0
9084.5 0
9085.5 0
9086.5 0
9087.5 0
9088.5 0
9089.5 0
9090.5 1
9091.5 0
9092.5 -2.14286
9093.5 1
9094.5 -2.14286
9095.5 1
9096.5 0
9097.5 0
9098.5 1
9099.5 0
9100.5 -2.14286
9101.5 0
9102.5 0
9103.5 0
9104.5 0
9105.5 0
9106.5 0
9107.5 0
9108.5 0
9109.5 1
9110.5 -2.14286
9111.5 -2.14286
9112.5 0
9113.5 1
9114.5 1
9115.5 0
9116.5 -2.14286
9117.5 -2.14286
9118.5 0
9119.5 0
9120.5 0
9121.5 0
9122.5 0
9123.5 1
9124.5 0
9125.5 -2.14286
9126.5 0
9127.5 0
9128.5 0
9129.5 0
9130.5 0
9131.5 0
9132.5 1
9133.5 0
9134.5 -2.14286
9135.5 1
9136.5 2
9137.5 -2.14286
9138.5 0
9139.5 1
9140.5 -2.14286
9141.5 0
9142.5 0
9143.5 0
9144.5 -1.14286
9145.5 1
9146.5 1
9147.5 0
9148.5 1
9149.5 0
9150.5 0
9151.5 1
9152.5 0
9153.5 0
9154.5 -2.14286
9155.5 0
9156.5 0
9157.5 0
9158.5 0
9159.5 0
9160.5 0
9161.5 0
9162.5 0
9163.5 0
9164.5 0
9165.5 0
9166.5 0
9167.5 1
9168.5 0
9169.5 1
9170.5 -2.14286
9171.5 1
9172.5 1
9173.5 0
9174.5 -2.14286
9175.5 0
9176.5 -2.14286
9177.5 0
9178.5 0
9179.5 -2.14286
9180.5 -2.14286
9181.5 0
9182.5 0
9183.5 0
9184.5 -2.14286
9185.5 0
9186.5 0
9187.5 0
9188.5 0
9189.5 0
9190.5 0
9191.5 0
9192.5 0
9193.5 0
9194.5 0
9195.5 0
9196.5 0
9197.5 0
9198.5 0
9199.5 1
9200.5 1
9201.5 0
9202.5 0
9203.5 0
9204.5 0
9205.5 1
9206.5 1
9207.5 0
9208.5 0
9209.5 2
9210.5 -2.14286
9211.5 0
9212.5 1
9213.5 0
9214.5 0
9215.5 -1.14286
9216.5 0
9217.5 0
9218.5 0
9219.5 1
9220.5 -2.14286
9221.5 0
9222.5 0
9223.5 1
9224.5 0
9225.5 0
9226.5 0
9227.5 0
9228.5 -1.14286
9229.5 0
9230.5 0
9231.5 0
9232.5 0
9233.5 0
9234.5 0
9235.5 0
9236.5 0
9237.5 0
9238.5 0
9239.5 1
9240.5 2
9241.5 0
9242.5 0
9243.5 0
9244.5 0
9245.5 0
9246.5 0
9247.5 0
9248.5 0
9249.5 0
9250.5 0
9251.5 0
9252.5 0
9253.5 0
9254.5 0
9255.5 0
9256.5 -2.14286
9257.5 0
9258.5 0
9259.5 -2.14286
9260.5 0
9261.5 0
9262.5 0
9263.5 1
9264.5 0
9265.5 0
9266.5 0
9267.5 0
9268.5 0
9269.5 -2.14286
9270.5 -4.28571
9271.5 0
9272.5 0
9273.5 0
9274.5 0
9275.5 0
9276.5 1
9277.5 0
9278.5 0
9279.5 0
9280.5 0
9281.5 0
9282.5 0
9283.5 0
9284.5 0
9285.5 0
9286.5 3
9287.5 0
9288.5 0
9289.5 0
9290.5 1
9291.5 0
9292.5 0
9293.5 0
9294.5 0
9295.5 0
9296.5 2
9297.5 -1.14286
9298.5 0
9299.5 0
9300.5 0
9301.5 0
9302.5 0
9303.5 0
9304.5 -2.14286
9305.5 0
9306.5 1
9307.5 0
9308.5 0
9309.5 1
9310.5 0
9311.5 0
9312.5 -2.14286
9313.5 0
9314.5 0
9315.5 0
9316.5 -2.14286
9317.5 0
9318.5 0
9319.5 0
9320.5 0
9321.5 0
9322.5 -2.14286
9323.5 0
9324.5 0
9325.5 0
9326.5 0
9327.5 0
9328.5 0
9329.5 0
9330.5 0
9331.5 0
9332.5 -2.14286
9333.5 0
9334.5 0
9335.5 0
9336.5 0
9337.5 0
9338.5 0
9339.5 0
9340.5 0
9341.5 0
9342.5 0
9343.5 -2.14286
9344.5 1
9345.5 -4.28571
9346.5 -1.14286
9347.5 0
9348.5 2
9349.5 0
9350.5 0
9351.5 0
9352.5 0
9353.5 1
9354.5 1
9355.5 0
9356.5 0
9357.5 -2.14286
9358.5 1
9359.5 0
9360.5 2
9361.5 0
9362.5 0
9363.5 1
9364.5 0
9365.5 0
9366.5 0
9367.5 1
9368.5 0
9369.5 1
9370.5 0
9371.5 0
9372.5 1
9373.5 0
9374.5 0
9375.5 0
9376.5 0
9377.5 0
9378.5 1
9379.5 0
9380.5 0
9381.5 1
9382.5 0
9383.5 1
9384.5 -1.14286
9385.5 0
9386.5 -2.14286
9387.5 0
9388.5 0
9389.5 0
9390.5 0
9391.5 0
9392.5 0
9393.5 0
9394.5 1
9395.5 0
9396.5 0
9397.5 0
9398.5 0
9399.5 0
9400.5 -1.14286
9401.5 0
9402.5 0
9403.5 1
9404.5 1
9405.5 0
9406.5 0
9407.5 2
9408.5 0
9409.5 1
9410.5 0
9411.5 0
9412.5 0
9413.5 1
9414.5 -2.14286
9415.5 0
9416.5 0
9417.5 1
9418.5 0
9419.5 0
9420.5 1
9421.5 0
9422.5 1
9423.5 1
9424.5 0
9425.5 0
9426.5 0
9427.5 0
9428.5 1
9429.5 0
9430.5 0
9431.5 0
9432.5 1
9433.5 0
9434.5 0
9435.5 0
9436.5 1
9437.5 0
9438.5 0
9439.5 0
9440.5 0
9441.5 1
9442.5 0
9443.5 1
9444.5 0
9445.5 1
9446.5 0
9447.5 0
9448.5 0
9449.5 2
9450.5 0
9451.5 -2.14286
9452.5 0
9453.5 0
9454.5 0
9455.5 0
9456.5 0
9457.5 0
9458.5 1
9459.5 0
9460.5 1
9461.5 -2.14286
9462.5 0
9463.5 -2.14286
9464.5 0
9465.5 0
9466.5 0
9467.5 1
9468.5 1
9469.5 1
9470.5 1
9471.5 0
9472.5 0
9473.5 0
9474.5 0
9475.5 0
9476.5 0
9477.5 -2.14286
9478.5 0
9479.5 0
9480.5 0
9481.5 0
9482.5 1
9483.5 0
9484.5 0
9485.5 0
9486.5 0
9487.5 0
9488.5 0
9489.5 0
9490.5 0
9491.5 -1.14286
9492.5 0
9493.5 1
9494.5 1
9495.5 1
9496.5 0
9497.5 0
9498.5 0
9499.5 0
9500.5 0
9501.5 0
9502.5 0
9503.5 1
9504.5 1
9505.5 0
9506.5 0
9507.5 0
9508.5 1
9509.5 0
9510.5 0
9511.5 0
9512.5 0
9513.5 0
9514.5 1
9515.5 0
9516.5 1
9517.5 0
9518.5 0
9519.5 0
9520.5 -2.14286
9521.5 0
9522.5 0
9523.5 -2.14286
9524.5 -1.14286
9525.5 0
9526.5 -2.14286
9527.5 0
9528.5 0
9529.5 0
9530.5 0
9531.5 0
9532.5 0
9533.5 0
9534.5 0
9535.5 0
9536.5 0
9537.5 0
9538.5 1
9539.5 0
9540.5 0
9541.5 0
9542.5 0
9543.5 1
9544.5 0
9545.5 -2.14286
9546.5 0
9547.5 1
9548.5 0
9549.5 0
9550.5 0
9551.5 0
9552.5 1
9553.5 0
9554.5 0
9555.5 0
9556.5 0
9557.5 0
9558.5 0
9559.5 2
9560.5 0
9561.5 0
9562.5 0
9563.5 0
9564.5 0
9565.5 1
9566.5 0
9567.5 1
9568.5 0
9569.5 0
9570.5 0
9571.5 0
9572.5 0
9573.5 0
9574.5 0
9575.5 1
9576.5 0
9577.5 0
9578.5 0
9579.5 -1.14286
9580.5 0
9581.5 1
9582.5 0
9583.5 0
9584.5 0
9585.5 0
9586.5 0
9587.5 0
9588.5 0
9589.5 0
9590.5 0
9591.5 0
9592.5 0
9593.5 0
9594.5 0
9595.5 0
9596.5 0
9597.5 0
9598.5 0
9599.5 -2.14286
9600.5 1
9601.5 0
9602.5 -2.14286
9603.5 0
9604.5 0
9605.5 0
9606.5 0
9607.5 0
9608.5 0
9609.5 0
9610.5 0
9611.5 0
9612.5 0
9613.5 2
9614.5 -2.14286
9615.5 0
9616.5 0
9617.5 0
9618.5 0
9619.5 0
9620.5 -2.14286
9621.5 0
9622.5 1
9623.5 0
9624.5 -1.14286
9625.5 0
9626.5 -4.28571
9627.5 0
9628.5 0
9629.5 0
9630.5 0
9631.5 0
9632.5 1
9633.5 1
9634.5 0
9635.5 0
9636.5 0
9637.5 0
9638.5 0
9639.5 0
9640.5 0
9641.5 0
9642.5 0
9643.5 0
9644.5 0
9645.5 1
9646.5 0
9647.5 0
9648.5 0
9649.5 1
9650.5 0
9651.5 0
9652.5 1
9653.5 0
9654.5 0
9655.5 0
9656.5 0
9657.5 0
9658.5 0
9659.5 0
9660.5 0
9661.5 0
9662.5 0
9663.5 0
9664.5 0
9665.5 0
9666.5 0
9667.5 0
9668.5 0
9669.5 0
9670.5 0
9671.5 1
9672.5 0
9673.5 0
9674.5 0
9675.5 0
9676.5 0
9677.5 0
9678.5 1
9679.5 0
9680.5 0
9681.5 0
9682.5 0
9683.5 0
9684.5 0
9685.5 0
9686.5 0
9687.5 0
9688.5 0
9689.5 0
9690.5 0
9691.5 0
9692.5 0
9693.5 0
9694.5 0
9695.5 0
9696.5 0
9697.5 0
9698.5 0
9699.5 0
9700.5 0
9701.5 0
9702.5 1
9703.5 0
9704.5 0
9705.5 0
9706.5 0
9707.5 0
9708.5 0
9709.5 0
9710.5 -2.14286
9711.5 0
9712.5 0
9713.5 0
9714.5 0
9715.5 0
9716.5 0
9717.5 1
9718.5 0
9719.5 0
9720.5 0
9721.5 0
9722.5 0
9723.5 0
9724.5 0
9725.5 1
9726.5 0
9727.5 0
9728.5 1
9729.5 0
9730.5 0
9731.5 0
9732.5 0
9733.5 0
9734.5 0
9735.5 0
9736.5 0
9737.5 0
9738.5 0
9739.5 0
9740.5 0
9741.5 0
9742.5 0
9743.5 0
9744.5 0
9745.5 0
9746.5 0
9747.5 0
9748.5 0
9749.5 0
9750.5 0
9751.5 0
9752.5 0
9753.5 0
9754.5 0
9755.5 0
9756.5 0
9757.5 0
9758.5 0
9759.5 0
9760.5 0
9761.5 0
9762.5 0
9763.5 0
9764.5 0
9765.5 0
9766.5 0
9767.5 0
9768.5 0
9769.5 0
9770.5 -2.14286
9771.5 0
9772.5 0
9773.5 0
9774.5 0
9775.5 1
9776.5 0
9777.5 0
9778.5 0
9779.5 0
9780.5 0
9781.5 0
9782.5 1
9783.5 0
9784.5 0
9785.5 0
9786.5 0
9787.5 0
9788.5 0
9789.5 0
9790.5 1
9791.5 0
9792.5 0
9793.5 1
9794.5 0
9795.5 0
9796.5 0
9797.5 0
9798.5 0
9799.5 0
9800.5 0
9801.5 0
9802.5 0
9803.5 0
9804.5 0
9805.5 0
9806.5 0
9807.5 0
9808.5 0
9809.5 0
9810.5 0
9811.5 0
9812.5 0
9813.5 0
9814.5 0
9815.5 0
9816.5 0
9817.5 0
9818.5 0
9819.5 0
9820.5 0
9821.5 0
9822.5 0
9823.5 0
9824.5 0
9825.5 -2.14286
9826.5 0
9827.5 0
9828.5 0
9829.5 0
9830.5 0
9831.5 0
9832.5 0
9833.5 0
9834.5 0
9835.5 0
9836.5 0
9837.5 0
9838.5 0
9839.5 0
9840.5 0
9841.5 -2.14286
9842.5 0
9843.5 -2.14286
9844.5 0
9845.5 1
9846.5 0
9847.5 0
9848.5 0
9849.5 0
9850.5 0
9851.5 0
9852.5 0
9853.5 0
9854.5 0
9855.5 0
9856.5 0
9857.5 0
9858.5 0
9859.5 0
9860.5 0
9861.5 0
9862.5 0
9863.5 0
9864.5 0
9865.5 0
9866.5 0
9867.5 0
9868.5 -2.14286
9869.5 0
9870.5 0
9871.5 0
9872.5 0
9873.5 0
9874.5 0
9875.5 -2.14286
9876.5 0
9877.5 0
9878.5 0
9879.5 0
9880.5 0
9881.5 0
9882.5 0
9883.5 0
9884.5 0
9885.5 0
9886.5 0
9887.5 0
9888.5 0
9889.5 0
9890.5 0
9891.5 0
9892.5 0
9893.5 0
9894.5 0
9895.5 0
9896.5 0
9897.5 0
9898.5 0
9899.5 0
9900.5 0
9901.5 0
9902.5 0
9903.5 0
9904.5 0
9905.5 0
9906.5 1
9907.5 0
9908.5 0
9909.5 1
9910.5 0
9911.5 0
9912.5 0
9913.5 0
9914.5 0
9915.5 2
9916.5 0
9917.5 0
9918.5 0
9919.5 0
9920.5 0
9921.5 0
9922.5 -1.14286
9923.5 0
9924.5 -4.28571
9925.5 0
9926.5 0
9927.5 0
9928.5 0
9929.5 0
9930.5 0
9931.5 0
9932.5 0
9933.5 0
9934.5 1
9935.5 0
9936.5 0
9937.5 0
9938.5 0
9939.5 0
9940.5 0
9941.5 0
9942.5 0
9943.5 0
9944.5 0
9945.5 0
9946.5 0
9947.5 0
9948.5 0
9949.5 0
9950.5 0
9951.5 0
9952.5 0
9953.5 0
9954.5 0
9955.5 0
9956.5 0
9957.5 0
9958.5 0
9959.5 0
9960.5 0
9961.5 0
9962.5 0
9963.5 0
9964.5 0
9965.5 0
9966.5 0
9967.5 1
9968.5 1
9969.5 0
9970.5 0
9971.5 0
9972.5 0
9973.5 1
9974.5 0
9975.5 0
9976.5 0
9977.5 0
9978.5 0
9979.5 0
9980.5 0
9981.5 0
9982.5 0
9983.5 0
9984.5 0
9985.5 0
9986.5 0
9987.5 0
9988.5 0
9989.5 0
9990.5 0
9991.5 0
9992.5 0
9993.5 0
9994.5 0
9995.5 0
9996.5 0
9997.5 0
9998.5 0
9999.5 0
10000.5 0
10001.5 0
10002.5 0
10003.5 0
10004.5 0
10005.5 0
10006.5 0
10007.5 0
10008.5 0
10009.5 0
10010.5 0
10011.5 0
10012.5 0
10013.5 0
10014.5 0
10015.5 0
10016.5 0
10017.5 1
10018.5 0
10019.5 0
10020.5 0
10021.5 0
10022.5 0
10023.5 0
10024.5 0
10025.5 0
10026.5 0
10027.5 0
10028.5 0
10029.5 0
10030.5 0
10031.5 -2.14286
10032.5 0
10033.5 0
10034.5 0
10035.5 0
10036.5 0
10037.5 0
10038.5 0
10039.5 1
10040.5 0
10041.5 0
10042.5 0
10043.5 0
10044.5 0
10045.5 0
10046.5 0
10047.5 1
10048.5 0
10049.5 0
10050.5 0
10051.5 0
10052.5 0
10053.5 0
10054.5 0
10055.5 0
10056.5 0
10057.5 0
10058.5 0
10059.5 0
10060.5 0
10061.5 0
10062.5 0
10063.5 0
10064.5 0
10065.5 0
10066.5 0
10067.5 0
10068.5 0
10069.5 0
10070.5 0
10071.5 0
10072.5 0
10073.5 0
10074.5 0
10075.5 0
10076.5 0
10077.5 0
10078.5 0
10079.5 0
10080.5 0
10081.5 0
10082.5 0
10083.5 0
10084.5 0
10085.5 0
10086.5 0
10087.5 0
10088.5 0
10089.5 0
10090.5 0
10091.5 0
10092.5 0
10093.5 0
10094.5 0
10095.5 0
10096.5 0
10097.5 0
10098.5 0
10099.5 0
10100.5 0
10101.5 0
10102.5 0
10103.5 0
10104.5 1
10105.5 0
10106.5 0
10107.5 0
10108.5 0
10109.5 0
10110.5 0
10111.5 0
10112.5 1
10113.5 0
10114.5 0
10115.5 0
10116.5 0
10117.5 0
10118.5 0
10119.5 0
10120.5 0
10121.5 0
10122.5 0
10123.5 0
10124.5 0
10125.5 0
10126.5 0
10127.5 0
10128.5 0
10129.5 0
10130.5 0
10131.5 0
10132.5 0
10133.5 0
10134.5 1
10135.5 0
10136.5 0
10137.5 0
10138.5 0
10139.5 0
10140.5 0
10141.5 0
10142.5 0
10143.5 0
10144.5 0
10145.5 0
10146.5 0
10147.5 0
10148.5 0
10149.5 0
10150.5 0
10151.5 0
10152.5 0
10153.5 0
10154.5 0
10155.5 0
10156.5 0
10157.5 1
10158.5 0
10159.5 0
10160.5 0
10161.5 0
10162.5 0
10163.5 0
10164.5 0
10165.5 0
10166.5 0
10167.5 0
10168.5 0
10169.5 1
10170.5 0
10171.5 0
10172.5 0
10173.5 0
10174.5 0
10175.5 0
10176.5 0
10177.5 0
10178.5 0
10179.5 0
10180.5 0
10181.5 0
10182.5 0
10183.5 0
10184.5 0
10185.5 0
10186.5 0
10187.5 0
10188.5 0
10189.5 0
10190.5 0
10191.5 0
10192.5 0
10193.5 0
10194.5 0
10195.5 -2.14286
10196.5 0
10197.5 0
10198.5 0
10199.5 0
10200.5 0
10201.5 0
10202.5 0
10203.5 0
10204.5 0
10205.5 0
10206.5 0
10207.5 0
10208.5 0
10209.5 0
10210.5 0
10211.5 0
10212.5 0
10213.5 0
10214.5 0
10215.5 0
10216.5 0
10217.5 0
10218.5 0
10219.5 0
10220.5 0
10221.5 0
10222.5 0
10223.5 0
10224.5 0
10225.5 0
10226.5 0
10227.5 0
10228.5 0
10229.5 0
10230.5 0
10231.5 0
10232.5 0
10233.5 0
10234.5 0
10235.5 0
10236.5 0
10237.5 0
10238.5 0
10239.5 0
10240.5 0
10241.5 0
10242.5 0
10243.5 0
10244.5 0
10245.5 0
10246.5 0
10247.5 0
10248.5 0
10249.5 0
10250.5 0
10251.5 0
10252.5 0
10253.5 0
10254.5 0
10255.5 0
10256.5 0
10257.5 0
10258.5 0
10259.5 0
10260.5 0
10261.5 0
10262.5 0
10263.5 0
10264.5 0
10265.5 0
10266.5 0
10267.5 0
10268.5 0
10269.5 0
10270.5 0
10271.5 0
10272.5 0
10273.5 0
10274.5 0
10275.5 0
10276.5 0
10277.5 0
10278.5 0
10279.5 0
10280.5 0
10281.5 0
10282.5 0
10283.5 0
10284.5 0
10285.5 0
10286.5 0
10287.5 0
10288.5 0
10289.5 0
10290.5 0
10291.5 0
10292.5 0
10293.5 0
10294.5 0
10295.5 0
10296.5 0
10297.5 0
10298.5 0
10299.5 0
10300.5 0
10301.5 0
10302.5 0
10303.5 0
10304.5 0
10305.5 0
10306.5 0
10307.5 0
10308.5 0
10309.5 0
10310.5 0
10311.5 0
10312.5 0
10313.5 0
10314.5 0
10315.5 0
10316.5 0
10317.5 0
10318.5 0
10319.5 0
10320.5 0
10321.5 0
10322.5 0
10323.5 0
10324.5 0
10325.5 0
10326.5 0
10327.5 0
10328.5 0
10329.5 0
10330.5 0
10331.5 0
10332.5 0
10333.5 0
10334.5 0
10335.5 0
10336.5 1
10337.5 0
10338.5 0
10339.5 0
10340.5 0
10341.5 0
10342.5 0
10343.5 0
10344.5 0
10345.5 0
10346.5 0
10347.5 0
10348.5 0
10349.5 0
10350.5 0
10351.5 0
10352.5 0
10353.5 0
10354.5 0
10355.5 0
10356.5 0
10357.5 0
10358.5 0
10359.5 0
10360.5 0
10361.5 0
10362.5 0
10363.5 0
10364.5 0
10365.5 0
10366.5 0
10367.5 0
10368.5 0
10369.5 0
10370.5 0
10371.5 0
10372.5 0
10373.5 0
10374.5 0
10375.5 0
10376.5 0
10377.5 0
10378.5 0
10379.5 0
10380.5 0
10381.5 0
10382.5 0
10383.5 0
10384.5 0
10385.5 0
10386.5 0
10387.5 0
10388.5 0
10389.5 0
10390.5 0
10391.5 0
10392.5 0
10393.5 1
10394.5 0
10395.5 0
10396.5 0
10397.5 0
10398.5 0
10399.5 0
10400.5 0
10401.5 0
10402.5 0
10403.5 0
10404.5 0
10405.5 0
10406.5 0
10407.5 0
10408.5 0
10409.5 0
10410.5 0
10411.5 0
10412.5 0
10413.5 0
10414.5 0
10415.5 0
10416.5 0
10417.5 0
10418.5 0
10419.5 0
10420.5 0
10421.5 0
10422.5 0
10423.5 0
10424.5 0
10425.5 0
10426.5 0
10427.5 0
10428.5 0
10429.5 0
10430.5 0
10431.5 0
10432.5 0
10433.5 0
10434.5 0
10435.5 0
10436.5 0
10437.5 0
10438.5 0
10439.5 0
10440.5 0
10441.5 0
10442.5 0
10443.5 0
10444.5 0
10445.5 0
10446.5 0
10447.5 0
10448.5 0
10449.5 0
10450.5 0
10451.5 0
10452.5 0
10453.5 0
10454.5 1
10455.5 0
10456.5 0
10457.5 0
10458.5 0
10459.5 0
10460.5 0
10461.5 0
10462.5 0
10463.5 0
10464.5 0
10465.5 0
10466.5 0
10467.5 0
10468.5 0
10469.5 0
10470.5 0
10471.5 0
10472.5 0
10473.5 0
10474.5 0
10475.5 0
10476.5 0
10477.5 0
10478.5 0
10479.5 0
10480.5 0
10481.5 0
10482.5 0
10483.5 0
10484.5 0
10485.5 0
10486.5 0
10487.5 0
10488.5 0
10489.5 0
10490.5 0
10491.5 0
10492.5 0
10493.5 0
10494.5 1
10495.5 0
10496.5 0
10497.5 0
10498.5 0
10499.5 0
10500.5 0
10501.5 0
10502.5 0
10503.5 0
10504.5 0
10505.5 0
10506.5 0
10507.5 0
10508.5 0
10509.5 0
10510.5 0
10511.5 0
10512.5 0
10513.5 0
10514.5 0
10515.5 0
10516.5 0
10517.5 0
10518.5 0
10519.5 0
10520.5 0
10521.5 0
10522.5 0
10523.5 0
10524.5 0
10525.5 0
10526.5 0
10527.5 0
10528.5 0
10529.5 0
10530.5 0
10531.5 0
10532.5 0
10533.5 0
10534.5 0
10535.5 0
10536.5 0
10537.5 0
10538.5 0
10539.5 0
10540.5 0
10541.5 0
10542.5 0
10543.5 0
10544.5 0
10545.5 0
10546.5 0
10547.5 0
10548.5 0
10549.5 0
10550.5 0
10551.5 0
10552.5 0
10553.5 0
10554.5 0
10555.5 1
10556.5 0
10557.5 0
10558.5 0
10559.5 0
10560.5 0
10561.5 0
10562.5 0
10563.5 0
10564.5 0
10565.5 0
10566.5 0
10567.5 0
10568.5 0
10569.5 0
10570.5 0
10571.5 0
10572.5 0
10573.5 0
10574.5 0
10575.5 0
10576.5 0
10577.5 0
10578.5 0
10579.5 0
10580.5 0
10581.5 0
10582.5 0
10583.5 0
10584.5 0
10585.5 0
10586.5 0
10587.5 0
10588.5 0
10589.5 0
10590.5 0
10591.5 0
10592.5 0
10593.5 0
10594.5 0
10595.5 0
10596.5 0
10597.5 0
10598.5 0
10599.5 0
10600.5 0
10601.5 -2.14286
10602.5 0
10603.5 0
10604.5 0
10605.5 0
10606.5 0
10607.5 0
10608.5 0
10609.5 0
10610.5 0
10611.5 0
10612.5 0
10613.5 0
10614.5 0
10615.5 0
10616.5 0
10617.5 0
10618.5 0
10619.5 0
10620.5 0
10621.5 0
10622.5 0
10623.5 0
10624.5 1
10625.5 0
10626.5 0
10627.5 0
10628.5 0
10629.5 0
10630.5 0
10631.5 0
10632.5 0
10633.5 0
10634.5 0
10635.5 0
10636.5 0
10637.5 0
10638.5 0
10639.5 0
10640.5 0
10641.5 0
10642.5 0
10643.5 0
10644.5 0
10645.5 0
10646.5 0
10647.5 0
10648.5 0
10649.5 0
10650.5 0
10651.5 0
10652.5 0
10653.5 0
10654.5 0
10655.5 0
10656.5 0
10657.5 0
10658.5 0
10659.5 0
10660.5 0
10661.5 0
10662.5 0
10663.5 0
10664.5 0
10665.5 0
10666.5 0
10667.5 0
10668.5 0
10669.5 0
10670.5 0
10671.5 0
10672.5 0
10673.5 0
10674.5 0
10675.5 0
10676.5 0
10677.5 0
10678.5 0
10679.5 0
10680.5 0
10681.5 0
10682.5 0
10683.5 0
10684.5 0
10685.5 0
10686.5 0
10687.5 0
10688.5 0
10689.5 0
10690.5 0
10691.5 0
10692.5 0
10693.5 0
10694.5 0
10695.5 0
10696.5 0
10697.5 0
10698.5 0
10699.5 0
10700.5 0
10701.5 0
10702.5 0
10703.5 0
10704.5 0
10705.5 1
10706.5 0
10707.5 0
10708.5 0
10709.5 0
10710.5 0
10711.5 0
10712.5 0
10713.5 0
10714.5 0
10715.5 0
10716.5 -2.14286
10717.5 0
10718.5 0
10719.5 0
10720.5 0
10721.5 0
10722.5 -2.14286
10723.5 0
10724.5 0
10725.5 -2.14286
10726.5 0
10727.5 0
10728.5 0
10729.5 0
10730.5 0
10731.5 0
10732.5 0
10733.5 0
10734.5 0
10735.5 0
10736.5 0
10737.5 0
10738.5 0
10739.5 0
10740.5 0
10741.5 0
10742.5 0
10743.5 0
10744.5 0
10745.5 0
10746.5 0
10747.5 0
10748.5 0
10749.5 0
10750.5 0
10751.5 0
10752.5 0
10753.5 0
10754.5 0
10755.5 0
10756.5 0
10757.5 0
10758.5 0
10759.5 0
10760.5 0
10761.5 0
10762.5 0
10763.5 0
10764.5 0
10765.5 0
10766.5 0
10767.5 0
10768.5 0
10769.5 0
10770.5 0
10771.5 0
10772.5 0
10773.5 0
10774.5 0
10775.5 0
10776.5 0
10777.5 0
10778.5 0
10779.5 0
10780.5 0
10781.5 0
10782.5 0
10783.5 0
10784.5 0
10785.5 0
10786.5 0
10787.5 0
10788.5 0
10789.5 0
10790.5 0
10791.5 0
10792.5 0
10793.5 0
10794.5 0
10795.5 0
10796.5 0
10797.5 1
10798.5 0
10799.5 0
10800.5 0
10801.5 0
10802.5 0
10803.5 0
10804.5 0
10805.5 0
10806.5 0
10807.5 0
10808.5 0
10809.5 0
10810.5 0
10811.5 0
10812.5 0
10813.5 0
10814.5 0
10815.5 0
10816.5 0
10817.5 0
10818.5 0
10819.5 0
10820.5 0
10821.5 0
10822.5 0
10823.5 0
10824.5 0
10825.5 0
10826.5 0
10827.5 0
10828.5 0
10829.5 0
10830.5 0
10831.5 0
10832.5 0
10833.5 0
10834.5 0
10835.5 0
10836.5 0
10837.5 0
10838.5 0
10839.5 0
10840.5 0
10841.5 0
10842.5 0
10843.5 0
10844.5 0
10845.5 0
10846.5 0
10847.5 0
10848.5 0
10849.5 0
10850.5 0
10851.5 0
10852.5 0
10853.5 0
10854.5 0
10855.5 0
10856.5 0
10857.5 0
10858.5 0
10859.5 0
10860.5 0
10861.5 0
10862.5 0
10863.5 0
10864.5 -2.14286
10865.5 -2.14286
10866.5 0
10867.5 0
10868.5 0
10869.5 0
10870.5 0
10871.5 0
10872.5 0
10873.5 0
10874.5 0
10875.5 0
10876.5 0
10877.5 0
10878.5 0
10879.5 0
10880.5 0
10881.5 0
10882.5 0
10883.5 0
10884.5 0
10885.5 0
10886.5 0
10887.5 0
10888.5 0
10889.5 0
10890.5 0
10891.5 0
10892.5 0
10893.5 0
10894.5 0
10895.5 0
10896.5 1
10897.5 0
10898.5 0
10899.5 -2.14286
10900.5 0
10901.5 0
10902.5 0
10903.5 0
10904.5 0
10905.5 0
10906.5 0
10907.5 0
10908.5 0
10909.5 0
10910.5 0
10911.5 0
10912.5 0
10913.5 0
10914.5 0
10915.5 0
10916.5 0
10917.5 0
10918.5 0
10919.5 0
10920.5 0
10921.5 0
10922.5 0
10923.5 0
10924.5 0
10925.5 -2.14286
10926.5 0
10927.5 0
10928.5 0
10929.5 0
10930.5 0
10931.5 0
10932.5 0
10933.5 0
10934.5 0
10935.5 1
10936.5 0
10937.5 0
10938.5 0
10939.5 0
10940.5 0
10941.5 0
10942.5 0
10943.5 0
10944.5 0
10945.5 0
10946.5 0
10947.5 0
10948.5 0
10949.5 0
10950.5 0
10951.5 0
10952.5 0
10953.5 0
10954.5 0
10955.5 0
10956.5 0
10957.5 0
10958.5 0
10959.5 0
10960.5 0
10961.5 0
10962.5 0
10963.5 0
10964.5 0
10965.5 0
10966.5 0
10967.5 0
10968.5 0
10969.5 0
10970.5 -1.14286
10971.5 0
10972.5 0
10973.5 0
10974.5 0
10975.5 0
10976.5 0
10977.5 0
10978.5 0
10979.5 0
10980.5 1
10981.5 0
10982.5 0
10983.5 0
10984.5 0
10985.5 0
10986.5 0
10987.5 0
10988.5 0
10989.5 0
10990.5 0
10991.5 0
10992.5 0
10993.5 0
10994.5 0
10995.5 0
10996.5 0
10997.5 0
10998.5 0
10999.5 0
11000.5 0
11001.5 0
11002.5 0
11003.5 0
11004.5 0
11005.5 0
11006.5 0
11007.5 0
11008.5 0
11009.5 0
11010.5 0
11011.5 0
11012.5 0
11013.5 0
11014.5 0
11015.5 0
11016.5 0
11017.5 0
11018.5 0
11019.5 0
11020.5 0
11021.5 0
11022.5 0
11023.5 0
11024.5 0
11025.5 0
11026.5 0
11027.5 0
11028.5 0
11029.5 0
11030.5 0
11031.5 0
11032.5 0
11033.5 0
11034.5 0
11035.5 0
11036.5 0
11037.5 0
11038.5 0
11039.5 0
11040.5 0
11041.5 0
11042.5 0
11043.5 0
11044.5 0
11045.5 0
11046.5 0
11047.5 0
11048.5 0
11049.5 0
11050.5 0
11051.5 0
11052.5 0
11053.5 0
11054.5 0
11055.5 0
11056.5 0
11057.5 0
11058.5 0
11059.5 0
11060.5 0
11061.5 0
11062.5 0
11063.5 0
11064.5 0
11065.5 0
11066.5 0
11067.5 0
11068.5 0
11069.5 0
11070.5 0
11071.5 0
11072.5 0
11073.5 0
11074.5 0
11075.5 0
11076.5 0
11077.5 0
11078.5 0
11079.5 0
11080.5 -2.14286
11081.5 0
11082.5 0
11083.5 0
11084.5 0
11085.5 0
11086.5 -2.14286
11087.5 0
11088.5 0
11089.5 0
11090.5 0
11091.5 0
11092.5 0
11093.5 0
11094.5 0
11095.5 0
11096.5 0
11097.5 0
11098.5 0
11099.5 0
11100.5 1
11101.5 0
11102.5 0
11103.5 0
11104.5 0
11105.5 0
11106.5 0
11107.5 0
11108.5 0
11109.5 0
11110.5 1
11111.5 0
11112.5 0
11113.5 0
11114.5 0
11115.5 0
11116.5 0
11117.5 0
11118.5 0
11119.5 0
11120.5 0
11121.5 0
11122.5 0
11123.5 0
11124.5 0
11125.5 0
11126.5 0
11127.5 0
11128.5 0
11129.5 0
11130.5 0
11131.5 0
11132.5 0
11133.5 0
11134.5 0
11135.5 0
11136.5 0
11137.5 0
11138.5 0
11139.5 0
11140.5 0
11141.5 0
11142.5 0
11143.5 0
11144.5 0
11145.5 0
11146.5 0
11147.5 0
11148.5 0
11149.5 0
11150.5 0
11151.5 0
11152.5 0
11153.5 0
11154.5 0
11155.5 0
11156.5 0
11157.5 0
11158.5 0
11159.5 0
11160.5 0
11161.5 0
11162.5 0
11163.5 0
11164.5 0
11165.5 0
11166.5 0
11167.5 0
11168.5 0
11169.5 0
11170.5 0
11171.5 0
11172.5 0
11173.5 0
11174.5 0
11175.5 0
11176.5 0
11177.5 0
11178.5 0
11179.5 0
11180.5 0
11181.5 0
11182.5 0
11183.5 0
11184.5 0
11185.5 0
11186.5 0
11187.5 0
11188.5 0
11189.5 0
11190.5 0
11191.5 0
11192.5 0
11193.5 0
11194.5 0
11195.5 0
11196.5 0
11197.5 0
11198.5 0
11199.5 0
11200.5 0
11201.5 0
11202.5 0
11203.5 0
11204.5 0
11205.5 0
11206.5 0
11207.5 0
11208.5 0
11209.5 0
11210.5 0
11211.5 0
11212.5 0
11213.5 0
11214.5 0
11215.5 0
11216.5 0
11217.5 0
11218.5 0
11219.5 0
11220.5 0
11221.5 0
11222.5 0
11223.5 0
11224.5 0
11225.5 0
11226.5 0
11227.5 0
11228.5 0
11229.5 0
11230.5 0
11231.5 0
11232.5 0
11233.5 0
11234.5 0
11235.5 0
11236.5 0
11237.5 0
11238.5 0
11239.5 0
11240.5 0
11241.5 0
11242.5 0
11243.5 0
11244.5 0
11245.5 0
11246.5 0
11247.5 0
11248.5 0
11249.5 0
11250.5 0
11251.5 0
11252.5 0
11253.5 0
11254.5 0
11255.5 0
11256.5 0
11257.5 0
11258.5 0
11259.5 0
11260.5 0
11261.5 1
11262.5 0
11263.5 0
11264.5 0
11265.5 0
11266.5 0
11267.5 0
11268.5 0
11269.5 0
11270.5 0
11271.5 0
11272.5 0
11273.5 0
11274.5 0
11275.5 0
11276.5 0
11277.5 0
11278.5 0
11279.5 0
11280.5 0
11281.5 0
11282.5 0
11283.5 0
11284.5 0
11285.5 0
11286.5 0
11287.5 0
11288.5 0
11289.5 0
11290.5 0
11291.5 0
11292.5 0
11293.5 0
11294.5 0
11295.5 0
11296.5 0
11297.5 0
11298.5 0
11299.5 0
11300.5 0
11301.5 0
11302.5 0
11303.5 0
11304.5 0
11305.5 0
11306.5 0
11307.5 0
11308.5 0
11309.5 0
11310.5 0
11311.5 0
11312.5 0
11313.5 0
11314.5 0
11315.5 0
11316.5 0
11317.5 0
11318.5 0
11319.5 0
11320.5 0
11321.5 0
11322.5 0
11323.5 0
11324.5 0
11325.5 0
11326.5 0
11327.5 0
11328.5 0
11329.5 0
11330.5 0
11331.5 0
11332.5 0
11333.5 0
11334.5 0
11335.5 0
11336.5 0
11337.5 0
11338.5 0
11339.5 0
11340.5 0
11341.5 0
11342.5 0
11343.5 0
11344.5 0
11345.5 0
11346.5 0
11347.5 0
11348.5 1
11349.5 0
11350.5 0
11351.5 0
11352.5 0
11353.5 0
11354.5 0
11355.5 0
11356.5 0
11357.5 0
11358.5 0
11359.5 0
11360.5 0
11361.5 0
11362.5 0
11363.5 0
11364.5 0
11365.5 0
11366.5 0
11367.5 0
11368.5 0
11369.5 0
11370.5 0
11371.5 0
11372.5 0
11373.5 0
11374.5 0
11375.5 0
11376.5 0
11377.5 0
11378.5 0
11379.5 0
11380.5 0
11381.5 0
11382.5 0
11383.5 0
11384.5 0
11385.5 0
11386.5 0
11387.5 0
11388.5 0
11389.5 0
11390.5 0
11391.5 0
11392.5 0
11393.5 0
11394.5 0
11395.5 0
11396.5 0
11397.5 0
11398.5 0
11399.5 0
11400.5 0
11401.5 0
11402.5 0
11403.5 0
11404.5 0
11405.5 0
11406.5 0
11407.5 0
11408.5 0
11409.5 0
11410.5 0
11411.5 0
11412.5 0
11413.5 0
11414.5 0
11415.5 0
11416.5 0
11417.5 0
11418.5 0
11419.5 0
11420.5 1
11421.5 0
11422.5 0
11423.5 0
11424.5 0
11425.5 0
11426.5 0
11427.5 0
11428.5 0
11429.5 0
11430.5 0
11431.5 0
11432.5 0
11433.5 0
11434.5 0
11435.5 0
11436.5 0
11437.5 0
11438.5 0
11439.5 0
11440.5 0
11441.5 0
11442.5 0
11443.5 0
11444.5 0
11445.5 0
11446.5 0
11447.5 0
11448.5 0
11449.5 0
11450.5 0
11451.5 0
11452.5 0
11453.5 0
11454.5 0
11455.5 0
11456.5 0
11457.5 0
11458.5 0
11459.5 0
11460.5 0
11461.5 0
11462.5 0
11463.5 0
11464.5 0
11465.5 0
11466.5 0
11467.5 0
11468.5 0
11469.5 0
11470.5 0
11471.5 0
11472.5 0
11473.5 0
11474.5 0
11475.5 0
11476.5 0
11477.5 0
11478.5 0
11479.5 0
11480.5 0
11481.5 0
11482.5 0
11483.5 0
11484.5 0
11485.5 0
11486.5 0
11487.5 0
11488.5 0
11489.5 0
11490.5 0
11491.5 0
11492.5 0
11493.5 0
11494.5 0
11495.5 0
11496.5 0
11497.5 0
11498.5 0
11499.5 0
11500.5 0
11501.5 0
11502.5 0
11503.5 0
11504.5 0
11505.5 0
11506.5 0
11507.5 0
11508.5 0
11509.5 0
11510.5 0
11511.5 0
11512.5 0
11513.5 0
11514.5 0
11515.5 0
11516.5 0
11517.5 0
11518.5 0
11519.5 0
11520.5 0
11521.5 -2.14286
11522.5 0
11523.5 0
11524.5 0
11525.5 0
11526.5 0
11527.5 0
11528.5 0
11529.5 0
11530.5 0
11531.5 0
11532.5 0
11533.5 0
11534.5 0
11535.5 0
11536.5 0
11537.5 0
11538.5 0
11539.5 0
11540.5 0
11541.5 0
11542.5 0
11543.5 0
11544.5 0
11545.5 0
11546.5 0
11547.5 0
11548.5 0
11549.5 0
11550.5 0
11551.5 0
11552.5 0
11553.5 0
11554.5 0
11555.5 0
11556.5 0
11557.5 0
11558.5 0
11559.5 0
11560.5 0
11561.5 0
11562.5 0
11563.5 0
11564.5 0
11565.5 0
11566.5 0
11567.5 0
11568.5 0
11569.5 0
11570.5 0
11571.5 0
11572.5 0
11573.5 0
11574.5 0
11575.5 0
11576.5 0
11577.5 0
11578.5 0
11579.5 0
11580.5 0
11581.5 0
11582.5 0
11583.5 0
11584.5 0
11585.5 0
11586.5 0
11587.5 0
11588.5 0
11589.5 0
11590.5 0
11591.5 0
11592.5 0
11593.5 0
11594.5 0
11595.5 0
11596.5 0
11597.5 0
11598.5 0
11599.5 0
11600.5 0
11601.5 0
11602.5 0
11603.5 0
11604.5 0
11605.5 0
11606.5 0
11607.5 0
11608.5 0
11609.5 0
11610.5 0
11611.5 0
11612.5 0
11613.5 0
11614.5 0
11615.5 0
11616.5 0
11617.5 0
11618.5 0
11619.5 0
11620.5 0
11621.5 0
11622.5 0
11623.5 0
11624.5 0
11625.5 0
11626.5 0
11627.5 0
11628.5 0
11629.5 0
11630.5 0
11631.5 0
11632.5 0
11633.5 0
11634.5 0
11635.5 0
11636.5 0
11637.5 0
11638.5 0
11639.5 0
11640.5 0
11641.5 0
11642.5 0
11643.5 0
11644.5 0
11645.5 0
11646.5 0
11647.5 0
11648.5 0
11649.5 0
11650.5 0
11651.5 0
11652.5 0
11653.5 0
11654.5 0
11655.5 0
11656.5 0
11657.5 0
11658.5 0
11659.5 0
11660.5 0
11661.5 0
11662.5 0
11663.5 0
11664.5 0
11665.5 0
11666.5 0
11667.5 0
11668.5 0
11669.5 0
11670.5 0
11671.5 0
11672.5 0
11673.5 0
11674.5 0
11675.5 0
11676.5 0
11677.5 0
11678.5 0
11679.5 0
11680.5 0
11681.5 0
11682.5 0
11683.5 0
11684.5 0
11685.5 0
11686.5 0
11687.5 0
11688.5 0
11689.5 0
11690.5 0
11691.5 0
11692.5 0
11693.5 0
11694.5 0
11695.5 0
11696.5 0
11697.5 0
11698.5 0
11699.5 0
11700.5 0
11701.5 0
11702.5 0
11703.5 0
11704.5 0
11705.5 0
11706.5 0
11707.5 0
11708.5 -2.14286
11709.5 0
11710.5 0
11711.5 0
11712.5 0
11713.5 0
11714.5 0
11715.5 0
11716.5 0
11717.5 0
11718.5 0
11719.5 0
11720.5 0
11721.5 0
11722.5 0
11723.5 0
11724.5 0
11725.5 0
11726.5 0
11727.5 -2.14286
11728.5 0
11729.5 0
11730.5 0
11731.5 0
11732.5 0
11733.5 0
11734.5 0
11735.5 0
11736.5 0
11737.5 0
11738.5 0
11739.5 0
11740.5 0
11741.5 0
11742.5 0
11743.5 0
11744.5 0
11745.5 0
11746.5 0
11747.5 0
11748.5 0
11749.5 0
11750.5 0
11751.5 0
11752.5 0
11753.5 0
11754.5 0
11755.5 0
11756.5 0
11757.5 0
11758.5 0
11759.5 0
11760.5 0
11761.5 0
11762.5 0
11763.5 0
11764.5 0
11765.5 0
11766.5 0
11767.5 0
11768.5 0
11769.5 0
11770.5 0
11771.5 0
11772.5 0
11773.5 0
11774.5 0
11775.5 0
11776.5 0
11777.5 0
11778.5 0
11779.5 0
11780.5 0
11781.5 0
11782.5 0
11783.5 0
11784.5 0
11785.5 0
11786.5 0
11787.5 0
11788.5 0
11789.5 0
11790.5 0
11791.5 0
11792.5 0
11793.5 0
11794.5 0
11795.5 0
11796.5 0
11797.5 0
11798.5 0
11799.5 0
11800.5 0
11801.5 0
11802.5 0
11803.5 0
11804.5 0
11805.5 0
11806.5 0
11807.5 -2.14286
11808.5 0
11809.5 0
11810.5 0
11811.5 0
11812.5 0
11813.5 0
11814.5 0
11815.5 0
11816.5 0
11817.5 0
11818.5 0
11819.5 0
11820.5 0
11821.5 0
11822.5 0
11823.5 0
11824.5 0
11825.5 0
11826.5 0
11827.5 0
11828.5 0
11829.5 0
11830.5 0
11831.5 0
11832.5 0
11833.5 0
11834.5 0
11835.5 0
11836.5 0
11837.5 0
11838.5 0
11839.5 0
11840.5 0
11841.5 0
11842.5 0
11843.5 0
11844.5 0
11845.5 0
11846.5 0
11847.5 0
11848.5 0
11849.5 0
11850.5 0
11851.5 0
11852.5 0
11853.5 0
11854.5 0
11855.5 0
11856.5 0
11857.5 0
11858.5 0
11859.5 0
11860.5 0
11861.5 0
11862.5 0
11863.5 0
11864.5 0
11865.5 0
11866.5 0
11867.5 0
11868.5 0
11869.5 0
11870.5 0
11871.5 0
11872.5 0
11873.5 0
11874.5 0
11875.5 0
11876.5 0
11877.5 0
11878.5 0
11879.5 0
11880.5 0
11881.5 0
11882.5 0
11883.5 0
11884.5 0
11885.5 0
11886.5 0
11887.5 0
11888.5 0
11889.5 0
11890.5 0
11891.5 0
11892.5 0
11893.5 0
11894.5 0
11895.5 0
11896.5 0
11897.5 0
11898.5 0
11899.5 0
11900.5 0
11901.5 0
11902.5 0
11903.5 0
11904.5 0
11905.5 0
11906.5 0
11907.5 0
11908.5 0
11909.5 0
11910.5 0
11911.5 0
11912.5 0
11913.5 0
11914.5 0
11915.5 0
11916.5 0
11917.5 0
11918.5 0
11919.5 0
11920.5 0
11921.5 0
11922.5 0
11923.5 0
11924.5 0
11925.5 0
11926.5 0
11927.5 0
11928.5 0
11929.5 0
11930.5 0
11931.5 0
11932.5 0
11933.5 0
11934.5 0
11935.5 0
11936.5 0
11937.5 0
11938.5 0
11939.5 0
11940.5 0
11941.5 0
11942.5 0
11943.5 0
11944.5 0
11945.5 0
11946.5 0
11947.5 0
11948.5 0
11949.5 0
11950.5 0
11951.5 0
11952.5 0
11953.5 0
11954.5 0
11955.5 0
11956.5 0
11957.5 0
11958.5 0
11959.5 0
11960.5 0
11961.5 0
11962.5 0
11963.5 0
11964.5 0
11965.5 0
11966.5 0
11967.5 0
11968.5 0
11969.5 0
11970.5 0
11971.5 0
11972.5 0
11973.5 0
11974.5 0
11975.5 0
11976.5 0
11977.5 0
11978.5 0
11979.5 0
11980.5 0
11981.5 0
11982.5 0
11983.5 0
11984.5 0
11985.5 0
11986.5 0
11987.5 0
11988.5 0
11989.5 0
11990.5 0
11991.5 0
11992.5 0
11993.5 0
11994.5 0
11995.5 0
11996.5 0
11997.5 0
11998.5 0
11999.5 0
