# EGG_ProjY_E4392.0(5.0)_B4401.0(2.0)_B4364.5(1.5)
# X axis : Energy (keV) [Y axis]
# Y axis : Counts/1 keV
# N Bins : 12000
# X Min : 0
# X Max : 12000
# X value at the center of the bins
0.5 0
1.5 0
2.5 0
3.5 0
4.5 0
5.5 -2.28572
6.5 -2
7.5 -0.857144
8.5 -20.2857
9.5 16
10.5 9
11.5 30.5714
12.5 20.7143
13.5 24.5714
14.5 22.2857
15.5 38
16.5 50.4286
17.5 29.8571
18.5 34.2857
19.5 21.4286
20.5 53.7143
21.5 75.2857
22.5 49.4286
23.5 91.4286
24.5 190
25.5 13.7143
26.5 232.857
27.5 247.429
28.5 212.143
29.5 139.286
30.5 242.571
31.5 285.571
32.5 316.857
33.5 343.571
34.5 199.571
35.5 286
36.5 168.429
37.5 189
38.5 150.571
39.5 257.286
40.5 266.857
41.5 296.286
42.5 205
43.5 159.429
44.5 331
45.5 374.143
46.5 376.286
47.5 293.571
48.5 292
49.5 319.143
50.5 238.714
51.5 345.429
52.5 311.714
53.5 427.714
54.5 401.429
55.5 329.143
56.5 388.429
57.5 505.571
58.5 445.857
59.5 532.143
60.5 417.429
61.5 382.286
62.5 329.857
63.5 331.857
64.5 327
65.5 401.714
66.5 393.286
67.5 448.429
68.5 395.143
69.5 364
70.5 291.143
71.5 524.143
72.5 392.571
73.5 323.286
74.5 655.857
75.5 682.571
76.5 507.286
77.5 703.428
78.5 486
79.5 357.571
80.5 300.429
81.5 317.143
82.5 347.143
83.5 360.429
84.5 354.571
85.5 372
86.5 460
87.5 324.143
88.5 338.143
89.5 515.857
90.5 301.429
91.5 377.286
92.5 298
93.5 444.429
94.5 363.714
95.5 327
96.5 395.571
97.5 331
98.5 377.429
99.5 300
100.5 330.143
101.5 243.571
102.5 325.714
103.5 392.857
104.5 373.571
105.5 238.714
106.5 387
107.5 378.286
108.5 366.714
109.5 463.286
110.5 391.143
111.5 451.143
112.5 390
113.5 401.143
114.5 375.286
115.5 387.286
116.5 408.571
117.5 328.143
118.5 348
119.5 402
120.5 248.429
121.5 433.571
122.5 384.857
123.5 228
124.5 293.571
125.5 450.571
126.5 350.429
127.5 467.429
128.5 551.857
129.5 421.143
130.5 412.857
131.5 396.714
132.5 490
133.5 454.286
134.5 581.143
135.5 457.857
136.5 362.286
137.5 439.143
138.5 463.571
139.5 575.857
140.5 496.857
141.5 553.857
142.5 415.714
143.5 338.429
144.5 366.714
145.5 589.429
146.5 319.429
147.5 493
148.5 456.714
149.5 444.143
150.5 342.571
151.5 318.286
152.5 451.429
153.5 308.714
154.5 413.143
155.5 366.143
156.5 365.714
157.5 378.857
158.5 506.429
159.5 482.143
160.5 441
161.5 469.714
162.5 445.714
163.5 666.429
164.5 591.857
165.5 504.714
166.5 591.143
167.5 618.857
168.5 766
169.5 743.714
170.5 566.143
171.5 783
172.5 759
173.5 725.714
174.5 1080.71
175.5 776.571
176.5 561.857
177.5 683.429
178.5 526.714
179.5 469.857
180.5 579.286
181.5 457.571
182.5 553
183.5 565.571
184.5 580.571
185.5 601.571
186.5 602.714
187.5 511.571
188.5 492.143
189.5 605
190.5 544.571
191.5 531.286
192.5 385.286
193.5 402
194.5 368.286
195.5 621.286
196.5 452.714
197.5 543
198.5 559
199.5 412.429
200.5 471
201.5 473.857
202.5 481.714
203.5 628.143
204.5 493.857
205.5 475.143
206.5 664.571
207.5 541
208.5 472.714
209.5 592.143
210.5 577
211.5 730.286
212.5 543.286
213.5 676.429
214.5 423.143
215.5 560
216.5 580.143
217.5 637.286
218.5 521.714
219.5 535.429
220.5 480
221.5 323.571
222.5 556.857
223.5 404.286
224.5 596.714
225.5 684.857
226.5 617.571
227.5 785.286
228.5 670
229.5 729.571
230.5 743.429
231.5 684
232.5 713.571
233.5 710.286
234.5 613.429
235.5 837.286
236.5 625.571
237.5 534.714
238.5 534.857
239.5 496.286
240.5 497.857
241.5 600.714
242.5 664.857
243.5 567.429
244.5 486.571
245.5 534.286
246.5 495.429
247.5 222.143
248.5 158.286
249.5 204
250.5 198.143
251.5 290
252.5 430.286
253.5 481.571
254.5 656.429
255.5 675.571
256.5 693.714
257.5 817.143
258.5 678.429
259.5 511.286
260.5 429.857
261.5 635.143
262.5 605.857
263.5 630.286
264.5 539.429
265.5 490.714
266.5 525.143
267.5 407.286
268.5 403.429
269.5 486
270.5 324.857
271.5 516.143
272.5 539.286
273.5 350.286
274.5 458.714
275.5 416.429
276.5 289.857
277.5 380.143
278.5 356.857
279.5 425.714
280.5 389
281.5 307
282.5 117.286
283.5 245.714
284.5 215.714
285.5 274.714
286.5 326.571
287.5 426.857
288.5 533
289.5 434.429
290.5 596.857
291.5 460.714
292.5 599.857
293.5 497.857
294.5 440
295.5 580.571
296.5 553
297.5 620.714
298.5 390.429
299.5 542.143
300.5 545.286
301.5 378.429
302.5 433
303.5 475.571
304.5 523.429
305.5 381.857
306.5 428.857
307.5 404.143
308.5 428.571
309.5 214.714
310.5 380.857
311.5 359.286
312.5 331
313.5 436
314.5 497
315.5 363
316.5 512.143
317.5 323.286
318.5 330.714
319.5 463.286
320.5 492.857
321.5 464
322.5 410.571
323.5 480.429
324.5 460.857
325.5 370.857
326.5 410.714
327.5 371.429
328.5 440.571
329.5 286.286
330.5 368.857
331.5 426.429
332.5 391.857
333.5 402.286
334.5 415.571
335.5 453
336.5 502
337.5 382.429
338.5 402.143
339.5 429.143
340.5 358.143
341.5 437.286
342.5 414
343.5 320.286
344.5 323.429
345.5 307.286
346.5 193.571
347.5 232.714
348.5 296.857
349.5 303.714
350.5 235.857
351.5 421
352.5 413.143
353.5 425.143
354.5 445
355.5 413.286
356.5 520.286
357.5 502.571
358.5 436.286
359.5 399.571
360.5 373.143
361.5 374.429
362.5 417.857
363.5 348.857
364.5 353.429
365.5 326.429
366.5 260.714
367.5 325.143
368.5 276
369.5 414.429
370.5 386.714
371.5 267.429
372.5 332.286
373.5 264.857
374.5 354
375.5 340.143
376.5 372.714
377.5 330.429
378.5 361.143
379.5 396.857
380.5 304.143
381.5 264.714
382.5 259
383.5 361.429
384.5 214.286
385.5 302.571
386.5 309.857
387.5 350.286
388.5 259.143
389.5 296.143
390.5 295.857
391.5 256.714
392.5 278.286
393.5 216
394.5 361.571
395.5 408.143
396.5 283.714
397.5 302.429
398.5 254.286
399.5 262.143
400.5 347.286
401.5 217.143
402.5 230
403.5 275
404.5 341.857
405.5 277.857
406.5 196.857
407.5 153.714
408.5 368.286
409.5 321.857
410.5 267.857
411.5 212.143
412.5 298
413.5 342.571
414.5 454.429
415.5 355.143
416.5 328.429
417.5 297
418.5 288.857
419.5 346.714
420.5 393.571
421.5 304.286
422.5 399.429
423.5 400.714
424.5 338.571
425.5 315.429
426.5 382
427.5 251.857
428.5 251.714
429.5 236.714
430.5 260.571
431.5 211.857
432.5 131.857
433.5 227.143
434.5 256.429
435.5 306.286
436.5 128
437.5 208.714
438.5 165.857
439.5 187.143
440.5 145
441.5 171.429
442.5 207.143
443.5 216
444.5 201.429
445.5 222
446.5 351.714
447.5 358
448.5 405.714
449.5 349.429
450.5 311.571
451.5 466.857
452.5 308.571
453.5 357.143
454.5 250.429
455.5 310.429
456.5 317.857
457.5 312.286
458.5 331.143
459.5 357.429
460.5 283
461.5 299.714
462.5 192.143
463.5 176.857
464.5 257.714
465.5 355
466.5 322.714
467.5 209.571
468.5 230.429
469.5 260.429
470.5 337.143
471.5 239
472.5 281.429
473.5 218.857
474.5 231.571
475.5 246.857
476.5 225.714
477.5 165.429
478.5 196.143
479.5 260.286
480.5 125.571
481.5 143.429
482.5 189.857
483.5 62.7143
484.5 100.429
485.5 230.857
486.5 216.857
487.5 291.286
488.5 350.857
489.5 425.429
490.5 415.571
491.5 461.286
492.5 456
493.5 382
494.5 494.286
495.5 399.286
496.5 377.143
497.5 335.571
498.5 340.143
499.5 324.286
500.5 231.429
501.5 255
502.5 184.857
503.5 248
504.5 157.286
505.5 378.286
506.5 689.286
507.5 1160.57
508.5 1906.57
509.5 3040.71
510.5 3552.29
511.5 3300.86
512.5 1873.29
513.5 854.429
514.5 428.571
515.5 346.286
516.5 182
517.5 92
518.5 126.429
519.5 125.286
520.5 290
521.5 238.429
522.5 225.857
523.5 153.286
524.5 248.286
525.5 351.714
526.5 197.714
527.5 235
528.5 295
529.5 240.857
530.5 272.571
531.5 289
532.5 197.286
533.5 153.429
534.5 46.7143
535.5 197.571
536.5 180.857
537.5 200
538.5 141.714
539.5 121
540.5 66.5714
541.5 99.8571
542.5 79.2857
543.5 106.714
544.5 116.143
545.5 125.857
546.5 211.429
547.5 300.429
548.5 223.143
549.5 384.714
550.5 242.857
551.5 243
552.5 210
553.5 332
554.5 278.286
555.5 226.571
556.5 228.286
557.5 202.714
558.5 157.429
559.5 192.857
560.5 214.857
561.5 212.714
562.5 143.571
563.5 150
564.5 192.571
565.5 168.286
566.5 187
567.5 140.857
568.5 86.2857
569.5 145.286
570.5 201.286
571.5 156.571
572.5 170.143
573.5 170.143
574.5 143.714
575.5 173.571
576.5 150.143
577.5 157.857
578.5 80.7143
579.5 96.8571
580.5 102.429
581.5 84.8571
582.5 171.286
583.5 192.143
584.5 228.143
585.5 271
586.5 266.286
587.5 253.286
588.5 257.857
589.5 229.429
590.5 308.429
591.5 325.857
592.5 270.571
593.5 236.571
594.5 288
595.5 260.714
596.5 289.429
597.5 251.571
598.5 204.857
599.5 129.714
600.5 171.714
601.5 142.571
602.5 122.571
603.5 148
604.5 141.571
605.5 221.286
606.5 192.857
607.5 133.286
608.5 232.714
609.5 157.429
610.5 159.714
611.5 257.143
612.5 132.714
613.5 156
614.5 169.571
615.5 251.286
616.5 75.2857
617.5 219
618.5 150.143
619.5 227.143
620.5 122.143
621.5 182.429
622.5 76.5714
623.5 144.714
624.5 148.857
625.5 192.857
626.5 131.714
627.5 65.7143
628.5 118.429
629.5 52.8571
630.5 184.571
631.5 138.857
632.5 190.857
633.5 207.714
634.5 271.429
635.5 216.857
636.5 559
637.5 768.714
638.5 551.143
639.5 295
640.5 188.143
641.5 257.286
642.5 251.286
643.5 323.143
644.5 206.286
645.5 239.286
646.5 166
647.5 230.143
648.5 188.714
649.5 256.143
650.5 267
651.5 190
652.5 290
653.5 215.857
654.5 231.143
655.5 208.571
656.5 251.571
657.5 95.2857
658.5 179
659.5 93
660.5 179.286
661.5 135.143
662.5 123.143
663.5 238.714
664.5 204.857
665.5 202.429
666.5 129.143
667.5 205.857
668.5 53.1428
669.5 204.429
670.5 247.143
671.5 140.286
672.5 200.429
673.5 177.286
674.5 132
675.5 200
676.5 157.857
677.5 220
678.5 258
679.5 202.286
680.5 182.143
681.5 225.571
682.5 160
683.5 167.286
684.5 171
685.5 85
686.5 175
687.5 73.4286
688.5 177
689.5 210.714
690.5 132.429
691.5 266.571
692.5 134.857
693.5 258.714
694.5 178
695.5 238.429
696.5 274.286
697.5 187.429
698.5 182.714
699.5 177.571
700.5 209
701.5 281.286
702.5 196
703.5 210.714
704.5 151.857
705.5 188
706.5 265
707.5 308.143
708.5 251.429
709.5 224.714
710.5 194.571
711.5 200.571
712.5 181.571
713.5 260
714.5 171.714
715.5 151.429
716.5 172.143
717.5 154.714
718.5 227.286
719.5 163.286
720.5 161.429
721.5 169.714
722.5 239.143
723.5 224.571
724.5 227
725.5 96.8571
726.5 162.571
727.5 142.714
728.5 139.571
729.5 216.857
730.5 285
731.5 178.571
732.5 180
733.5 200.143
734.5 234.857
735.5 210.857
736.5 241.857
737.5 137.286
738.5 191.286
739.5 221.429
740.5 243
741.5 207
742.5 180.714
743.5 105
744.5 160.429
745.5 200.286
746.5 234
747.5 207.857
748.5 190.429
749.5 132.143
750.5 243.857
751.5 130.429
752.5 201.143
753.5 182.857
754.5 148.857
755.5 226.286
756.5 157.714
757.5 208
758.5 190
759.5 303.571
760.5 484.857
761.5 592.857
762.5 451.857
763.5 241.714
764.5 249.714
765.5 203.857
766.5 240.286
767.5 209.714
768.5 273
769.5 260
770.5 188.143
771.5 213.571
772.5 196
773.5 168
774.5 213
775.5 229.143
776.5 201.571
777.5 185
778.5 188.714
779.5 199.857
780.5 207.143
781.5 207.714
782.5 264.857
783.5 220.429
784.5 185.714
785.5 163.286
786.5 200.286
787.5 230.286
788.5 189.571
789.5 122.857
790.5 147.571
791.5 199.714
792.5 162.286
793.5 180
794.5 158.571
795.5 165.571
796.5 251.429
797.5 157.571
798.5 220
799.5 199.571
800.5 185.857
801.5 205.714
802.5 190.857
803.5 200.714
804.5 197.714
805.5 150
806.5 253.286
807.5 255.429
808.5 158.571
809.5 160
810.5 171.429
811.5 137
812.5 229.143
813.5 282.429
814.5 245.286
815.5 184.429
816.5 228.571
817.5 163.714
818.5 163.857
819.5 181.143
820.5 193.714
821.5 206.571
822.5 237.286
823.5 251.286
824.5 157.143
825.5 201.857
826.5 187.714
827.5 198.714
828.5 144.143
829.5 236
830.5 173.571
831.5 193.143
832.5 170.143
833.5 203.143
834.5 160.429
835.5 143.143
836.5 222.286
837.5 252.714
838.5 146
839.5 225
840.5 198.571
841.5 204.571
842.5 210.571
843.5 226.714
844.5 264.571
845.5 225
846.5 262.143
847.5 223.857
848.5 177.429
849.5 238.286
850.5 217
851.5 190.571
852.5 210.857
853.5 213.714
854.5 143.714
855.5 126.571
856.5 158.857
857.5 181.571
858.5 129.714
859.5 209.714
860.5 209.429
861.5 146.429
862.5 253.143
863.5 171.714
864.5 281.143
865.5 276.571
866.5 182.429
867.5 238.143
868.5 156.714
869.5 141.143
870.5 185
871.5 323.571
872.5 200.571
873.5 199.714
874.5 247.714
875.5 259.857
876.5 409.714
877.5 584.571
878.5 675.857
879.5 435
880.5 250.286
881.5 216.857
882.5 275.286
883.5 292.429
884.5 335.857
885.5 261.286
886.5 206.714
887.5 271.143
888.5 203.429
889.5 244.857
890.5 286.429
891.5 309.286
892.5 225.429
893.5 304.429
894.5 320
895.5 261
896.5 266.429
897.5 264.429
898.5 194
899.5 294.143
900.5 277.429
901.5 234.286
902.5 280.143
903.5 304
904.5 294.571
905.5 283
906.5 260.571
907.5 226.714
908.5 267.857
909.5 316.571
910.5 173
911.5 291.714
912.5 240.857
913.5 237.714
914.5 358.571
915.5 282.286
916.5 222.857
917.5 305
918.5 268
919.5 263.571
920.5 306.857
921.5 259.714
922.5 247.143
923.5 339.143
924.5 260.143
925.5 312.429
926.5 253
927.5 241.286
928.5 294.429
929.5 355.143
930.5 336.429
931.5 312.143
932.5 246.714
933.5 285.429
934.5 302.857
935.5 336.857
936.5 376
937.5 264
938.5 319.571
939.5 359
940.5 286.143
941.5 325.714
942.5 329.143
943.5 264.571
944.5 264.143
945.5 303.857
946.5 263.143
947.5 303.429
948.5 334.429
949.5 127.571
950.5 252
951.5 276.429
952.5 236.429
953.5 191.571
954.5 282.429
955.5 228.857
956.5 232.429
957.5 289.429
958.5 274.857
959.5 227.571
960.5 220.143
961.5 245.571
962.5 269
963.5 234.143
964.5 228.571
965.5 252.857
966.5 313.286
967.5 282.571
968.5 181.714
969.5 134.429
970.5 188.571
971.5 161.143
972.5 141.571
973.5 193.286
974.5 165.429
975.5 218
976.5 207.286
977.5 183.429
978.5 200.571
979.5 234.143
980.5 142.429
981.5 128.286
982.5 194.143
983.5 175.571
984.5 218.429
985.5 137.714
986.5 115.286
987.5 115
988.5 121.429
989.5 157.143
990.5 101.286
991.5 80.8571
992.5 208.571
993.5 188
994.5 143.714
995.5 209.143
996.5 139.714
997.5 177.714
998.5 178.429
999.5 234.857
1000.5 302.429
1001.5 486.571
1002.5 474
1003.5 322.571
1004.5 208.857
1005.5 282.143
1006.5 159.143
1007.5 173.714
1008.5 210.286
1009.5 202.429
1010.5 111
1011.5 207.857
1012.5 92.8571
1013.5 127.571
1014.5 102.429
1015.5 167.571
1016.5 118
1017.5 187.143
1018.5 196.429
1019.5 139.571
1020.5 157.143
1021.5 135
1022.5 119.714
1023.5 163.714
1024.5 200.429
1025.5 196.714
1026.5 129.429
1027.5 177.143
1028.5 129.429
1029.5 104.571
1030.5 109
1031.5 109.857
1032.5 114.429
1033.5 76.7143
1034.5 146.429
1035.5 136.286
1036.5 120.143
1037.5 114.143
1038.5 130.286
1039.5 129.857
1040.5 170.571
1041.5 83.1428
1042.5 101.143
1043.5 108.857
1044.5 150.571
1045.5 146.286
1046.5 149.143
1047.5 147.857
1048.5 63.1428
1049.5 69.8571
1050.5 139.143
1051.5 44.1428
1052.5 58.2857
1053.5 111.857
1054.5 40.7143
1055.5 106.714
1056.5 78.4286
1057.5 132.143
1058.5 137.286
1059.5 66.5714
1060.5 82.5714
1061.5 109.714
1062.5 101.857
1063.5 143
1064.5 86.2857
1065.5 119.571
1066.5 110.286
1067.5 36.5714
1068.5 118
1069.5 98.7143
1070.5 150
1071.5 137.143
1072.5 179.571
1073.5 216.429
1074.5 305
1075.5 157.857
1076.5 128.857
1077.5 98.1428
1078.5 95
1079.5 41.4286
1080.5 90.5714
1081.5 108.857
1082.5 85.5714
1083.5 144.143
1084.5 110.143
1085.5 74.8571
1086.5 112.143
1087.5 91.5714
1088.5 25.7143
1089.5 123.143
1090.5 89.8571
1091.5 99.7143
1092.5 81.4286
1093.5 159.143
1094.5 112.714
1095.5 71.4286
1096.5 73.2857
1097.5 121.857
1098.5 40.1428
1099.5 135
1100.5 144.429
1101.5 112.714
1102.5 97
1103.5 156
1104.5 109.571
1105.5 129.143
1106.5 73.4286
1107.5 88.5714
1108.5 40
1109.5 114.429
1110.5 83.4286
1111.5 114.571
1112.5 79.7143
1113.5 65.2857
1114.5 75
1115.5 52.4286
1116.5 104.571
1117.5 78
1118.5 126.429
1119.5 116.429
1120.5 112.429
1121.5 101.286
1122.5 377.571
1123.5 654.286
1124.5 2401.71
1125.5 5410.14
1126.5 6255.57
1127.5 2863.14
1128.5 652.143
1129.5 233.857
1130.5 63.5714
1131.5 45.7143
1132.5 78.7143
1133.5 82
1134.5 9.71428
1135.5 160.857
1136.5 80.8571
1137.5 89.7143
1138.5 108.286
1139.5 99.2857
1140.5 36.7143
1141.5 88.5714
1142.5 101.286
1143.5 125.286
1144.5 81.5714
1145.5 35.7143
1146.5 37
1147.5 120
1148.5 98.5714
1149.5 89
1150.5 101.429
1151.5 57.8571
1152.5 244.429
1153.5 620
1154.5 1974.43
1155.5 7343.86
1156.5 15782
1157.5 16211.4
1158.5 6720.71
1159.5 1373
1160.5 359
1161.5 129.714
1162.5 80.8571
1163.5 17
1164.5 46.8571
1165.5 31.8571
1166.5 54.8571
1167.5 20
1168.5 64.7143
1169.5 32.1429
1170.5 47.2857
1171.5 25.5714
1172.5 27.4286
1173.5 43
1174.5 7.99999
1175.5 33.4286
1176.5 24.1429
1177.5 20.4286
1178.5 -5.57143
1179.5 33.2857
1180.5 40.5714
1181.5 96.4286
1182.5 3.99999
1183.5 35.2857
1184.5 -1.28572
1185.5 34.1429
1186.5 48.1429
1187.5 26
1188.5 48
1189.5 4.42857
1190.5 34.7143
1191.5 34
1192.5 32.8571
1193.5 38.8571
1194.5 52.1429
1195.5 31.1429
1196.5 43.7143
1197.5 31.5714
1198.5 34
1199.5 69.2857
1200.5 69.5714
1201.5 -0.714291
1202.5 33
1203.5 80.1429
1204.5 58.2857
1205.5 29.1429
1206.5 53.5714
1207.5 -1.00001
1208.5 9.99999
1209.5 32.8571
1210.5 14.5714
1211.5 45.5714
1212.5 20
1213.5 41.1429
1214.5 48.4286
1215.5 -0.28572
1216.5 17.1429
1217.5 13
1218.5 16.4286
1219.5 118.429
1220.5 73.8571
1221.5 24.7143
1222.5 -12
1223.5 30
1224.5 -30.4286
1225.5 44.1429
1226.5 16.4286
1227.5 89.7143
1228.5 42.1429
1229.5 7.99999
1230.5 34.1429
1231.5 39.8571
1232.5 20.5714
1233.5 13.5714
1234.5 88.4286
1235.5 69
1236.5 11.1429
1237.5 62.5714
1238.5 88.4286
1239.5 31.2857
1240.5 -3.28572
1241.5 36.8571
1242.5 84.2857
1243.5 27.1429
1244.5 48.4286
1245.5 75
1246.5 107.857
1247.5 63.1429
1248.5 16.2857
1249.5 16
1250.5 51.5714
1251.5 67.5714
1252.5 8.28571
1253.5 32.7143
1254.5 55
1255.5 12.2857
1256.5 32.7143
1257.5 80.4286
1258.5 66.7143
1259.5 2.28571
1260.5 57.7143
1261.5 41.1429
1262.5 53.7143
1263.5 54.4286
1264.5 26.5714
1265.5 68.1429
1266.5 75.5714
1267.5 34.4286
1268.5 71.5714
1269.5 73.7143
1270.5 43.1429
1271.5 34.7143
1272.5 33.2857
1273.5 36.1429
1274.5 57.2857
1275.5 45.5714
1276.5 61
1277.5 65.4286
1278.5 60.8571
1279.5 46.8571
1280.5 28.8571
1281.5 30.5714
1282.5 78
1283.5 42.4286
1284.5 63.4286
1285.5 41.7143
1286.5 0.28571
1287.5 27
1288.5 -32.1429
1289.5 42.7143
1290.5 12
1291.5 9
1292.5 17.7143
1293.5 32.1429
1294.5 55.5714
1295.5 42.7143
1296.5 35.8571
1297.5 17.8571
1298.5 76.2857
1299.5 32
1300.5 47.5714
1301.5 51.8571
1302.5 46.4286
1303.5 -7.00001
1304.5 23.1429
1305.5 16.8571
1306.5 26.1429
1307.5 95.1429
1308.5 43.4286
1309.5 -14
1310.5 58.8571
1311.5 15
1312.5 41.1429
1313.5 23.4286
1314.5 30.7143
1315.5 51.4286
1316.5 79.5714
1317.5 6.57142
1318.5 40.1429
1319.5 16.5714
1320.5 27
1321.5 49.1429
1322.5 48.4286
1323.5 22.7143
1324.5 27
1325.5 37.8571
1326.5 19.8571
1327.5 -4.85715
1328.5 7.28571
1329.5 0.428567
1330.5 28.7143
1331.5 -24.7143
1332.5 55.8571
1333.5 86.4286
1334.5 61.4286
1335.5 24.4286
1336.5 40.4286
1337.5 -5.71429
1338.5 23
1339.5 56.7143
1340.5 6
1341.5 9.14285
1342.5 -7.57143
1343.5 39.2857
1344.5 28.8571
1345.5 30.7143
1346.5 54.7143
1347.5 31
1348.5 56.5714
1349.5 39
1350.5 27.2857
1351.5 17.1429
1352.5 12
1353.5 54.1429
1354.5 20.8571
1355.5 20.5714
1356.5 22.2857
1357.5 36.5714
1358.5 23.4286
1359.5 24.2857
1360.5 17.2857
1361.5 28
1362.5 57.5714
1363.5 2.42857
1364.5 70.4286
1365.5 19.2857
1366.5 -5.71429
1367.5 6
1368.5 68.4286
1369.5 31.4286
1370.5 -12.2857
1371.5 52.4286
1372.5 7.42857
1373.5 50.1429
1374.5 46.7143
1375.5 46
1376.5 23.7143
1377.5 33.1429
1378.5 50.4286
1379.5 27.4286
1380.5 62.8571
1381.5 25.7143
1382.5 75.5714
1383.5 46.2857
1384.5 51.8571
1385.5 7.14285
1386.5 42.7143
1387.5 17.1428
1388.5 45
1389.5 4.57142
1390.5 -1.71429
1391.5 44.5714
1392.5 10.2857
1393.5 32.8571
1394.5 51.5714
1395.5 18.1429
1396.5 13.7143
1397.5 29.5714
1398.5 39.7143
1399.5 23
1400.5 38.4286
1401.5 16.5714
1402.5 11.2857
1403.5 55.4286
1404.5 13.8571
1405.5 -5.28572
1406.5 25
1407.5 40.2857
1408.5 45.5714
1409.5 -5.28572
1410.5 44.2857
1411.5 49
1412.5 28.2857
1413.5 84.2857
1414.5 51.8571
1415.5 62.8571
1416.5 49.7143
1417.5 31.4286
1418.5 48.2857
1419.5 66.7143
1420.5 39.8571
1421.5 31.2857
1422.5 30.7143
1423.5 -27.5714
1424.5 20.7143
1425.5 51
1426.5 38.1429
1427.5 27.8571
1428.5 99
1429.5 43.7143
1430.5 33.2857
1431.5 20
1432.5 13
1433.5 -15.5714
1434.5 76
1435.5 32.5714
1436.5 -11.4286
1437.5 63
1438.5 20
1439.5 34
1440.5 5.42857
1441.5 14.8571
1442.5 -0.857148
1443.5 60.5714
1444.5 29.1429
1445.5 67.8571
1446.5 48.7143
1447.5 34.5714
1448.5 58.1429
1449.5 26.2857
1450.5 56.8571
1451.5 22
1452.5 38.1429
1453.5 40.1429
1454.5 18.5714
1455.5 54.1429
1456.5 18.1429
1457.5 38.8571
1458.5 18.8571
1459.5 30.7143
1460.5 54.8571
1461.5 33.1429
1462.5 20.7143
1463.5 25.2857
1464.5 27.8571
1465.5 36
1466.5 64
1467.5 57.7143
1468.5 68.7143
1469.5 39.7143
1470.5 12.8571
1471.5 8.57142
1472.5 0.428567
1473.5 36
1474.5 7.71428
1475.5 12.7143
1476.5 17
1477.5 5.71428
1478.5 19.5714
1479.5 65.5714
1480.5 57.5714
1481.5 19.2857
1482.5 7.57142
1483.5 57.1429
1484.5 28.1429
1485.5 43.4286
1486.5 34.8571
1487.5 49.7143
1488.5 36.2857
1489.5 22.4286
1490.5 71
1491.5 25
1492.5 47.1429
1493.5 -34
1494.5 14.1429
1495.5 20.7143
1496.5 87.7143
1497.5 235.714
1498.5 385.143
1499.5 585.286
1500.5 400
1501.5 158.571
1502.5 48.2857
1503.5 65
1504.5 40.8571
1505.5 58.4286
1506.5 35
1507.5 47.4286
1508.5 38.1429
1509.5 43.8571
1510.5 115.857
1511.5 39.4286
1512.5 29.5714
1513.5 53.2857
1514.5 67
1515.5 29.2857
1516.5 57.1429
1517.5 64.1429
1518.5 59.8571
1519.5 57.4286
1520.5 53.5714
1521.5 39.4286
1522.5 16.8571
1523.5 19.2857
1524.5 55.5714
1525.5 24.4286
1526.5 40.1429
1527.5 19.5714
1528.5 50.8571
1529.5 33.8571
1530.5 3.42857
1531.5 39.7143
1532.5 -20.8571
1533.5 -29
1534.5 9.57142
1535.5 20.5714
1536.5 46.5714
1537.5 10.7143
1538.5 73
1539.5 4.28571
1540.5 7.57142
1541.5 45
1542.5 38.7143
1543.5 40
1544.5 21.4286
1545.5 35
1546.5 18.7143
1547.5 37.7143
1548.5 81
1549.5 33.1429
1550.5 50.2857
1551.5 21.2857
1552.5 32.8571
1553.5 17.2857
1554.5 -3.71429
1555.5 58.1429
1556.5 33.7143
1557.5 20.8571
1558.5 11.2857
1559.5 32.7143
1560.5 -3.57628e-06
1561.5 16.1429
1562.5 12.7143
1563.5 17.1429
1564.5 21.8571
1565.5 29.2857
1566.5 48.7143
1567.5 20
1568.5 37
1569.5 26.7143
1570.5 41
1571.5 -3.42858
1572.5 64.8571
1573.5 120.714
1574.5 133.714
1575.5 89.1429
1576.5 70.5714
1577.5 22.7143
1578.5 10.8571
1579.5 9
1580.5 53.1429
1581.5 49.7143
1582.5 7.28571
1583.5 8.85714
1584.5 26.7143
1585.5 35.5714
1586.5 12.5714
1587.5 -6.57143
1588.5 37.2857
1589.5 31
1590.5 59
1591.5 23
1592.5 27.5714
1593.5 27.5714
1594.5 28.1429
1595.5 5.71428
1596.5 -3
1597.5 -18.1429
1598.5 0.857139
1599.5 5.57142
1600.5 16.7143
1601.5 16.2857
1602.5 -6.42858
1603.5 40
1604.5 19.2857
1605.5 59.5714
1606.5 36.1429
1607.5 51.5714
1608.5 25.1429
1609.5 73.5714
1610.5 90.7143
1611.5 48.7143
1612.5 1.28571
1613.5 18.5714
1614.5 17.2857
1615.5 5.85714
1616.5 56.8571
1617.5 22.8571
1618.5 66.1429
1619.5 30.7143
1620.5 40.5714
1621.5 23.7143
1622.5 34.4286
1623.5 21.2857
1624.5 22.8571
1625.5 7.42857
1626.5 5.57142
1627.5 31.8571
1628.5 21.1429
1629.5 18.5714
1630.5 -29
1631.5 1.85714
1632.5 63
1633.5 100.571
1634.5 50.7143
1635.5 25
1636.5 25
1637.5 28.4286
1638.5 47.8571
1639.5 110.857
1640.5 138.857
1641.5 140.286
1642.5 104
1643.5 42.8571
1644.5 33.8571
1645.5 18.7143
1646.5 79.7143
1647.5 23.1428
1648.5 61.4286
1649.5 94
1650.5 59.7143
1651.5 8.85714
1652.5 10.2857
1653.5 18.8571
1654.5 30.2857
1655.5 38
1656.5 53.5714
1657.5 40.8571
1658.5 63.2857
1659.5 69.5714
1660.5 3
1661.5 65.2857
1662.5 17
1663.5 7.57143
1664.5 33.7143
1665.5 9.28571
1666.5 37.4286
1667.5 39.2857
1668.5 25.2857
1669.5 52.7143
1670.5 34.5714
1671.5 34.4286
1672.5 53
1673.5 1.28571
1674.5 18.7143
1675.5 37.4286
1676.5 28.5714
1677.5 42.2857
1678.5 56.8571
1679.5 66
1680.5 42.8571
1681.5 37
1682.5 9.71428
1683.5 11.2857
1684.5 -6
1685.5 27.5714
1686.5 -6.85715
1687.5 48.2857
1688.5 37
1689.5 57.1429
1690.5 17.1429
1691.5 13.5714
1692.5 6
1693.5 44.8571
1694.5 27.2857
1695.5 9
1696.5 45
1697.5 22.7143
1698.5 35
1699.5 1.85714
1700.5 -1.57143
1701.5 34.4286
1702.5 41.2857
1703.5 46.5714
1704.5 23.4286
1705.5 38.8571
1706.5 70.7143
1707.5 28.1429
1708.5 37.7143
1709.5 37.8571
1710.5 22.1429
1711.5 20.8571
1712.5 12.5714
1713.5 41
1714.5 13.8571
1715.5 23.2857
1716.5 13.5714
1717.5 36.7143
1718.5 8.42857
1719.5 25.2857
1720.5 39
1721.5 14.2857
1722.5 2.57142
1723.5 9.85714
1724.5 27.1428
1725.5 102.429
1726.5 24.7143
1727.5 85
1728.5 41.7143
1729.5 47.2857
1730.5 24.4286
1731.5 24.8571
1732.5 31.2857
1733.5 52.7143
1734.5 13
1735.5 32.1429
1736.5 30.1429
1737.5 25.4286
1738.5 37.5714
1739.5 4.57143
1740.5 49.7143
1741.5 9.42857
1742.5 35.4286
1743.5 47.2857
1744.5 42.7143
1745.5 40.5714
1746.5 33.8571
1747.5 30.5714
1748.5 4.28571
1749.5 38.4286
1750.5 17
1751.5 49.7143
1752.5 30.2857
1753.5 40.5714
1754.5 4.85714
1755.5 8.14285
1756.5 17.8571
1757.5 15
1758.5 31.2857
1759.5 44
1760.5 50
1761.5 63.1429
1762.5 33
1763.5 6.28571
1764.5 30.1429
1765.5 4.71428
1766.5 26.8571
1767.5 27.1429
1768.5 0.428569
1769.5 72.1429
1770.5 39.5714
1771.5 70.2857
1772.5 23.8571
1773.5 62
1774.5 33
1775.5 17
1776.5 43.1429
1777.5 34.2857
1778.5 47.8571
1779.5 46
1780.5 7.42857
1781.5 15
1782.5 51
1783.5 -7.14286
1784.5 11.7143
1785.5 28.5714
1786.5 61.7143
1787.5 14.4286
1788.5 30.4286
1789.5 11.8571
1790.5 40.7143
1791.5 40.7143
1792.5 42.4286
1793.5 70.5714
1794.5 34.8571
1795.5 42.7143
1796.5 24.2857
1797.5 5.85714
1798.5 34.1429
1799.5 16.4286
1800.5 2.71428
1801.5 53.4286
1802.5 49.5714
1803.5 64
1804.5 53.5714
1805.5 7.71428
1806.5 48.1429
1807.5 -0.571434
1808.5 54.5714
1809.5 -0.571435
1810.5 52.8571
1811.5 32.4286
1812.5 13.2857
1813.5 28.5714
1814.5 23.4286
1815.5 7.57143
1816.5 26
1817.5 -9.14286
1818.5 13.2857
1819.5 12.4286
1820.5 10.4286
1821.5 16.4286
1822.5 34.1429
1823.5 17.5714
1824.5 40.1429
1825.5 41.1429
1826.5 20
1827.5 34.4286
1828.5 31.4286
1829.5 22.2857
1830.5 39.4286
1831.5 65.2857
1832.5 46.5714
1833.5 26.5714
1834.5 16.2857
1835.5 30.1429
1836.5 48.8571
1837.5 25.8571
1838.5 22.1429
1839.5 29.8571
1840.5 48.7143
1841.5 19
1842.5 63.4286
1843.5 69.5714
1844.5 51.1429
1845.5 33.1429
1846.5 22.7143
1847.5 24.4286
1848.5 13.7143
1849.5 -1.42857
1850.5 7.42857
1851.5 7.57143
1852.5 14
1853.5 -3.28572
1854.5 -0.285717
1855.5 18.8571
1856.5 -7.85715
1857.5 3.57143
1858.5 9.14285
1859.5 1.14285
1860.5 17.7143
1861.5 20.4286
1862.5 12.1429
1863.5 12.8571
1864.5 17.1429
1865.5 43.8571
1866.5 31.8571
1867.5 25.5714
1868.5 33.8571
1869.5 9.85714
1870.5 60
1871.5 27.2857
1872.5 14.5714
1873.5 68.1428
1874.5 82.4286
1875.5 13.4286
1876.5 8.28571
1877.5 45.5714
1878.5 10.5714
1879.5 15
1880.5 -12.5714
1881.5 21.1429
1882.5 35.1429
1883.5 19.1429
1884.5 15.4286
1885.5 154.714
1886.5 105.571
1887.5 276.143
1888.5 87.8571
1889.5 83.7143
1890.5 30.4286
1891.5 39.7143
1892.5 33.8571
1893.5 29.7143
1894.5 51.8571
1895.5 -5.71429
1896.5 29.7143
1897.5 34.4286
1898.5 42.7143
1899.5 -0.857147
1900.5 -4.14286
1901.5 15.4286
1902.5 28.5714
1903.5 26.4286
1904.5 49.4286
1905.5 4.57143
1906.5 30.8571
1907.5 24
1908.5 37.1429
1909.5 35
1910.5 47.4286
1911.5 34.1429
1912.5 126
1913.5 31.4286
1914.5 33.4286
1915.5 3.57143
1916.5 15.7143
1917.5 24.7143
1918.5 11.2857
1919.5 52.5714
1920.5 47.7143
1921.5 45
1922.5 -5.28572
1923.5 47.2857
1924.5 20.4286
1925.5 38.4286
1926.5 61.2857
1927.5 36.1429
1928.5 12.5714
1929.5 32.8571
1930.5 23.5714
1931.5 29
1932.5 62.4286
1933.5 13.1429
1934.5 9.71428
1935.5 38.1429
1936.5 8.42857
1937.5 30.4286
1938.5 -0.857146
1939.5 59.2857
1940.5 30.2857
1941.5 30.5714
1942.5 14.2857
1943.5 18.5714
1944.5 30.4286
1945.5 29.2857
1946.5 27.4286
1947.5 28.4286
1948.5 23
1949.5 42
1950.5 -0.142862
1951.5 13.5714
1952.5 34.4286
1953.5 14.4286
1954.5 34.8571
1955.5 13
1956.5 40.4286
1957.5 74.8571
1958.5 92.2857
1959.5 122.857
1960.5 94.4286
1961.5 20.2857
1962.5 28
1963.5 39.1429
1964.5 23.1429
1965.5 33.1429
1966.5 34.8571
1967.5 48.1429
1968.5 49.5714
1969.5 37.8571
1970.5 35
1971.5 29.7143
1972.5 48.4286
1973.5 28.4286
1974.5 43.1429
1975.5 35.1429
1976.5 17.4286
1977.5 31.4286
1978.5 -0.285717
1979.5 22.8571
1980.5 3.14285
1981.5 30
1982.5 24
1983.5 37.7143
1984.5 44.7143
1985.5 34.5714
1986.5 -3
1987.5 11
1988.5 14.5714
1989.5 61.5714
1990.5 23.5714
1991.5 28.1429
1992.5 33.4286
1993.5 5.99999
1994.5 61.4286
1995.5 33.8571
1996.5 44.2857
1997.5 45.5714
1998.5 71.8571
1999.5 43
2000.5 33.5714
2001.5 39.2857
2002.5 30.5714
2003.5 12.8571
2004.5 31.5714
2005.5 25.7143
2006.5 43.2857
2007.5 40.2857
2008.5 11.7143
2009.5 17.4286
2010.5 1.42857
2011.5 -2.71429
2012.5 58.7143
2013.5 14
2014.5 26.8571
2015.5 22.8571
2016.5 3.85714
2017.5 -15.5714
2018.5 -4.71429
2019.5 14
2020.5 12.4286
2021.5 13.8571
2022.5 24.8571
2023.5 38.2857
2024.5 -15.1429
2025.5 50.4286
2026.5 96.2857
2027.5 158.571
2028.5 300.714
2029.5 319.857
2030.5 257.714
2031.5 127.429
2032.5 62.7143
2033.5 18
2034.5 39.2857
2035.5 24.4286
2036.5 -7.14286
2037.5 45.7143
2038.5 36.5714
2039.5 10.7143
2040.5 30.7143
2041.5 2.71428
2042.5 -14.1429
2043.5 9.57143
2044.5 3.42857
2045.5 8.57143
2046.5 22.2857
2047.5 11.4286
2048.5 7.14285
2049.5 34.1429
2050.5 18.1429
2051.5 24.2857
2052.5 -1.85715
2053.5 5.85714
2054.5 40.2857
2055.5 -14.1429
2056.5 30.1429
2057.5 -5.42857
2058.5 2.42857
2059.5 35.1429
2060.5 32.1429
2061.5 9.85714
2062.5 33.7143
2063.5 16.4286
2064.5 18.7143
2065.5 7.85714
2066.5 43.2857
2067.5 21.8571
2068.5 8.85714
2069.5 58.1429
2070.5 -1.42857
2071.5 38.2857
2072.5 20
2073.5 11.1429
2074.5 30.2857
2075.5 30.2857
2076.5 27
2077.5 11
2078.5 40.2857
2079.5 35.8571
2080.5 -9
2081.5 24.1429
2082.5 57
2083.5 14.1429
2084.5 46.1429
2085.5 27.1429
2086.5 -16.5714
2087.5 16.5714
2088.5 -21
2089.5 69.2857
2090.5 37.4286
2091.5 20.2857
2092.5 27.8571
2093.5 26.7143
2094.5 9.28571
2095.5 12.8571
2096.5 22.8571
2097.5 4.14285
2098.5 21.5714
2099.5 17.1429
2100.5 -19.4286
2101.5 64.4286
2102.5 25.1429
2103.5 23.1429
2104.5 64.1429
2105.5 6.42857
2106.5 44.5714
2107.5 21.2857
2108.5 23.5714
2109.5 27.2857
2110.5 18.2857
2111.5 8.57143
2112.5 45.4286
2113.5 23.1429
2114.5 29
2115.5 18.8571
2116.5 42.8571
2117.5 6.42857
2118.5 30.4286
2119.5 22.4286
2120.5 39.5714
2121.5 13.7143
2122.5 33.4286
2123.5 26.4286
2124.5 49.1429
2125.5 21.8571
2126.5 27.5714
2127.5 31.8571
2128.5 33.7143
2129.5 37.2857
2130.5 2.71428
2131.5 27.2857
2132.5 30.1429
2133.5 5.85714
2134.5 43.7143
2135.5 -11.8571
2136.5 14.4286
2137.5 16.2857
2138.5 16.4286
2139.5 19.4286
2140.5 14.8571
2141.5 8
2142.5 54.8571
2143.5 82.7143
2144.5 34.8571
2145.5 34.2857
2146.5 46.1429
2147.5 32
2148.5 39
2149.5 244.286
2150.5 118.571
2151.5 250.286
2152.5 33.1428
2153.5 35.1429
2154.5 17
2155.5 57.7143
2156.5 26.2857
2157.5 59
2158.5 13.5714
2159.5 28.5714
2160.5 22.2857
2161.5 0.714284
2162.5 39.8571
2163.5 40.8571
2164.5 4.28571
2165.5 -5.85715
2166.5 28.7143
2167.5 16.2857
2168.5 23.4286
2169.5 23.1429
2170.5 41
2171.5 20.4286
2172.5 20.4286
2173.5 33.8571
2174.5 24.5714
2175.5 26.1429
2176.5 27.7143
2177.5 28.5714
2178.5 7.42857
2179.5 3.85714
2180.5 20.4286
2181.5 26.1429
2182.5 17.5714
2183.5 -12.8571
2184.5 -12.4286
2185.5 56.5714
2186.5 20
2187.5 21.8571
2188.5 13.1429
2189.5 30.2857
2190.5 57.4286
2191.5 49.1429
2192.5 71.7143
2193.5 37
2194.5 -2.42857
2195.5 18
2196.5 44
2197.5 12.8571
2198.5 19.8571
2199.5 12.7143
2200.5 23.1428
2201.5 51.7143
2202.5 17
2203.5 64.5714
2204.5 25.1429
2205.5 35
2206.5 -6.71429
2207.5 19.7143
2208.5 31.1429
2209.5 22
2210.5 -7.85715
2211.5 27
2212.5 17.2857
2213.5 19
2214.5 67.1429
2215.5 59.7143
2216.5 31.2857
2217.5 35.1429
2218.5 53.5714
2219.5 49.1429
2220.5 24.8571
2221.5 30
2222.5 110.286
2223.5 85
2224.5 86.4286
2225.5 37
2226.5 24.5714
2227.5 8.28571
2228.5 19
2229.5 26.4286
2230.5 49.1429
2231.5 13
2232.5 38
2233.5 29.7143
2234.5 31.7143
2235.5 22.8571
2236.5 27
2237.5 26.2857
2238.5 37.2857
2239.5 28.5714
2240.5 14.8571
2241.5 14
2242.5 30.4286
2243.5 33.5714
2244.5 30.1429
2245.5 19.2857
2246.5 21.5714
2247.5 37
2248.5 20.2857
2249.5 27.2857
2250.5 25.5714
2251.5 23.8571
2252.5 19.4286
2253.5 33.7143
2254.5 26.7143
2255.5 39.5714
2256.5 -17.4286
2257.5 23.4286
2258.5 24.7143
2259.5 20.8571
2260.5 10.2857
2261.5 19
2262.5 40.8571
2263.5 15.8571
2264.5 36.4286
2265.5 23
2266.5 41.2857
2267.5 31.7143
2268.5 33.7143
2269.5 34.5714
2270.5 4.71428
2271.5 12
2272.5 31.7143
2273.5 7
2274.5 43.8571
2275.5 26.7143
2276.5 47.5714
2277.5 46.2857
2278.5 29.2857
2279.5 13
2280.5 39
2281.5 34
2282.5 36.8571
2283.5 30.5714
2284.5 20.7143
2285.5 18.1429
2286.5 18.5714
2287.5 1.14286
2288.5 21.1429
2289.5 2.42857
2290.5 12.5714
2291.5 38.1429
2292.5 16.1429
2293.5 38.8571
2294.5 17.4286
2295.5 -16.4286
2296.5 -48.8571
2297.5 -38
2298.5 -39.7143
2299.5 -24.5714
2300.5 -3.57143
2301.5 19.4286
2302.5 52.5714
2303.5 31
2304.5 44.1429
2305.5 37.2857
2306.5 40.4286
2307.5 23
2308.5 22.7143
2309.5 30.1429
2310.5 15.5714
2311.5 26.4286
2312.5 21.2857
2313.5 1.28571
2314.5 -0.571431
2315.5 42.2857
2316.5 47
2317.5 25.5714
2318.5 20.8571
2319.5 12.7143
2320.5 19.7143
2321.5 10
2322.5 6.71428
2323.5 31.4286
2324.5 -1.28572
2325.5 44
2326.5 22.5714
2327.5 16
2328.5 23.1429
2329.5 3.85714
2330.5 2
2331.5 7.57143
2332.5 7.57143
2333.5 -3.42857
2334.5 32.4286
2335.5 15.5714
2336.5 33
2337.5 35.7143
2338.5 13.5714
2339.5 37
2340.5 40.1429
2341.5 18.7143
2342.5 41.5714
2343.5 38.4286
2344.5 53.2857
2345.5 20.1429
2346.5 51.4286
2347.5 7.85714
2348.5 38
2349.5 20.4286
2350.5 63.5714
2351.5 45
2352.5 16.7143
2353.5 39.2857
2354.5 56.2857
2355.5 35.8571
2356.5 48.8571
2357.5 56.8571
2358.5 13.8571
2359.5 38.2857
2360.5 17.1429
2361.5 15
2362.5 32.2857
2363.5 9.42857
2364.5 18.5714
2365.5 34.8571
2366.5 11.7143
2367.5 -2.71429
2368.5 13.4286
2369.5 35.1429
2370.5 29.5714
2371.5 31.2857
2372.5 28.1429
2373.5 13.2857
2374.5 13.4286
2375.5 9.71428
2376.5 -4.28572
2377.5 36.2857
2378.5 36.7143
2379.5 6
2380.5 2.14285
2381.5 19.8571
2382.5 13
2383.5 25.7143
2384.5 17.1429
2385.5 28.5714
2386.5 27.7143
2387.5 41.1429
2388.5 19.8571
2389.5 45.2857
2390.5 19.7143
2391.5 35.7143
2392.5 6
2393.5 9
2394.5 36.4286
2395.5 22.2857
2396.5 -2.85714
2397.5 11.5714
2398.5 13.5714
2399.5 53.2857
2400.5 44.8571
2401.5 18.1429
2402.5 22.4286
2403.5 35.7143
2404.5 20.1429
2405.5 34.8571
2406.5 8.71428
2407.5 34.1429
2408.5 9.57143
2409.5 33.2857
2410.5 18.4286
2411.5 28.1429
2412.5 20.4286
2413.5 18.8571
2414.5 15.2857
2415.5 60.5714
2416.5 26.1429
2417.5 23.4286
2418.5 2.28571
2419.5 24.2857
2420.5 17.2857
2421.5 29.5714
2422.5 28.4286
2423.5 24.4286
2424.5 34.2857
2425.5 17.2857
2426.5 16.7143
2427.5 34.4286
2428.5 11.7143
2429.5 47.4286
2430.5 18.8571
2431.5 26.7143
2432.5 24.7143
2433.5 28.2857
2434.5 29.5714
2435.5 25.4286
2436.5 6
2437.5 27.5714
2438.5 46.4286
2439.5 3.28571
2440.5 36.7143
2441.5 25.7143
2442.5 29.1429
2443.5 20.1429
2444.5 12.4286
2445.5 31.7143
2446.5 3
2447.5 64.8571
2448.5 56.5714
2449.5 48.8571
2450.5 18
2451.5 34.4286
2452.5 15.8571
2453.5 36
2454.5 12.7143
2455.5 37.4286
2456.5 10.1429
2457.5 21.7143
2458.5 6.71428
2459.5 27.7143
2460.5 36.1429
2461.5 -9
2462.5 37.8571
2463.5 20
2464.5 29.1429
2465.5 28.4286
2466.5 -1.90735e-06
2467.5 21.5714
2468.5 40.4286
2469.5 32.5714
2470.5 21.7143
2471.5 38.8571
2472.5 17.7143
2473.5 20
2474.5 21
2475.5 42.1429
2476.5 15.4286
2477.5 51.8571
2478.5 25.8571
2479.5 7.14286
2480.5 39.7143
2481.5 22.2857
2482.5 31.7143
2483.5 0.714284
2484.5 5.71428
2485.5 2
2486.5 10.1429
2487.5 40.1429
2488.5 37.4286
2489.5 23
2490.5 32.5714
2491.5 12.4286
2492.5 4
2493.5 23.5714
2494.5 13.1429
2495.5 20.4286
2496.5 -12.5714
2497.5 10.5714
2498.5 22.2857
2499.5 6.57143
2500.5 -8
2501.5 6.14286
2502.5 11.5714
2503.5 19.4286
2504.5 -4.14286
2505.5 21
2506.5 7.14286
2507.5 35.4286
2508.5 25.5714
2509.5 -4.42857
2510.5 30.2857
2511.5 36.1429
2512.5 16.5714
2513.5 66.7143
2514.5 84
2515.5 78.8571
2516.5 84.1429
2517.5 84.8571
2518.5 116
2519.5 119.429
2520.5 142.857
2521.5 65.2857
2522.5 39.4286
2523.5 7
2524.5 13.7143
2525.5 62.1429
2526.5 69.1429
2527.5 59.2857
2528.5 52.8571
2529.5 36
2530.5 42.2857
2531.5 40.7143
2532.5 4
2533.5 33.2857
2534.5 22.2857
2535.5 17.5714
2536.5 1.57143
2537.5 9.28571
2538.5 -1.57143
2539.5 2
2540.5 26.8571
2541.5 -8.28572
2542.5 30
2543.5 8.42857
2544.5 26
2545.5 34.4286
2546.5 56.5714
2547.5 100.286
2548.5 113.429
2549.5 131.429
2550.5 121
2551.5 58.2857
2552.5 59.4286
2553.5 42.1429
2554.5 64
2555.5 7
2556.5 18.4286
2557.5 45
2558.5 2.85714
2559.5 43.1429
2560.5 21.2857
2561.5 23.2857
2562.5 5.57143
2563.5 25.5714
2564.5 4.57143
2565.5 -0.285716
2566.5 27.7143
2567.5 24.4286
2568.5 31.5714
2569.5 60.1429
2570.5 24.1429
2571.5 26.5714
2572.5 65
2573.5 11.4286
2574.5 21.4286
2575.5 30.4286
2576.5 25.1429
2577.5 23.4286
2578.5 51.5714
2579.5 42.7143
2580.5 33.1429
2581.5 26
2582.5 14
2583.5 24.5714
2584.5 31.8571
2585.5 18.5714
2586.5 36.1429
2587.5 5.71428
2588.5 48
2589.5 45.2857
2590.5 2.42857
2591.5 -5.85714
2592.5 9
2593.5 21.1429
2594.5 30
2595.5 16.5714
2596.5 26.5714
2597.5 32.5714
2598.5 0.285712
2599.5 11
2600.5 11.2857
2601.5 39
2602.5 39.1429
2603.5 55
2604.5 39
2605.5 0.42857
2606.5 6.71428
2607.5 36.2857
2608.5 15.7143
2609.5 8.57143
2610.5 35.8571
2611.5 16.5714
2612.5 76.4286
2613.5 34.7143
2614.5 54.8571
2615.5 37.5714
2616.5 27.4286
2617.5 42
2618.5 33.2857
2619.5 69.5714
2620.5 31.1429
2621.5 25.7143
2622.5 26.1429
2623.5 29
2624.5 20.5714
2625.5 20.2857
2626.5 31.5714
2627.5 28.5714
2628.5 53.4286
2629.5 23.5714
2630.5 34.4286
2631.5 23
2632.5 18.2857
2633.5 -9
2634.5 41.1429
2635.5 17.5714
2636.5 26
2637.5 27
2638.5 6
2639.5 18
2640.5 13.4286
2641.5 11
2642.5 22
2643.5 24.7143
2644.5 23.8571
2645.5 25.5714
2646.5 33.1429
2647.5 39
2648.5 12.2857
2649.5 1.57143
2650.5 41.8571
2651.5 18.5714
2652.5 30.8571
2653.5 50.2857
2654.5 43.1429
2655.5 60.2857
2656.5 108.571
2657.5 95
2658.5 52
2659.5 28.7143
2660.5 27.7143
2661.5 17.2857
2662.5 32.1429
2663.5 7
2664.5 20.7143
2665.5 40
2666.5 5.85714
2667.5 30.8571
2668.5 30.8571
2669.5 35.4286
2670.5 36.7143
2671.5 22.5714
2672.5 46
2673.5 23.8571
2674.5 25.8571
2675.5 17.7143
2676.5 27.5714
2677.5 27
2678.5 17.2857
2679.5 10.2857
2680.5 5.42857
2681.5 4.14285
2682.5 -23.5714
2683.5 12.7143
2684.5 31.8571
2685.5 8.28571
2686.5 10
2687.5 43
2688.5 23.5714
2689.5 16.8571
2690.5 32.4286
2691.5 21
2692.5 47.1429
2693.5 6.71428
2694.5 45.8571
2695.5 26.1429
2696.5 24.2857
2697.5 14.2857
2698.5 9.57143
2699.5 9.14286
2700.5 -0.428573
2701.5 18.8571
2702.5 24.1429
2703.5 17.4286
2704.5 7.71428
2705.5 21.4286
2706.5 0.571427
2707.5 6.85714
2708.5 22.1429
2709.5 14.1429
2710.5 18.7143
2711.5 27
2712.5 28.2857
2713.5 15.8571
2714.5 26.2857
2715.5 9.14286
2716.5 38
2717.5 27.4286
2718.5 39
2719.5 11.8571
2720.5 39.2857
2721.5 66.4286
2722.5 63.2857
2723.5 90.7143
2724.5 13.7143
2725.5 31.1429
2726.5 37.7143
2727.5 42.1429
2728.5 41
2729.5 51.7143
2730.5 46.5714
2731.5 27
2732.5 1.71428
2733.5 23.2857
2734.5 23.1429
2735.5 29.4286
2736.5 15.1429
2737.5 30
2738.5 32.4286
2739.5 5
2740.5 19.2857
2741.5 32.7143
2742.5 14.5714
2743.5 24.1429
2744.5 8
2745.5 12.2857
2746.5 30.4286
2747.5 11
2748.5 23.5714
2749.5 3.71428
2750.5 17.8571
2751.5 27.1429
2752.5 12
2753.5 16.4286
2754.5 7.85714
2755.5 24.1429
2756.5 31
2757.5 11.4286
2758.5 0.285712
2759.5 33.2857
2760.5 23.1429
2761.5 17
2762.5 12
2763.5 -4.28572
2764.5 21
2765.5 27.1429
2766.5 25.7143
2767.5 -4.42857
2768.5 17
2769.5 4.28571
2770.5 6.28571
2771.5 21.2857
2772.5 26.5714
2773.5 34.1429
2774.5 5.85714
2775.5 13.4286
2776.5 42.4286
2777.5 21.1429
2778.5 5.28571
2779.5 6.42857
2780.5 37.4286
2781.5 47.5714
2782.5 22.5714
2783.5 19.7143
2784.5 25.8571
2785.5 40.2857
2786.5 18.4286
2787.5 29.5714
2788.5 40.8571
2789.5 34.7143
2790.5 27.7143
2791.5 25.1429
2792.5 13.1429
2793.5 10.8571
2794.5 21.8571
2795.5 21.4286
2796.5 30
2797.5 -4
2798.5 8.85714
2799.5 10.2857
2800.5 16.4286
2801.5 17.7143
2802.5 35
2803.5 10.5714
2804.5 19.8571
2805.5 19.4286
2806.5 15.7143
2807.5 19.4286
2808.5 37.5714
2809.5 19.7143
2810.5 13.8571
2811.5 55.1429
2812.5 44.4286
2813.5 89.1429
2814.5 228.571
2815.5 281.714
2816.5 299.143
2817.5 196.714
2818.5 92.7143
2819.5 47.5714
2820.5 98.5714
2821.5 145.714
2822.5 123.857
2823.5 93.2857
2824.5 63.4286
2825.5 51
2826.5 38.8571
2827.5 27.8571
2828.5 32
2829.5 42.7143
2830.5 27.8571
2831.5 26.2857
2832.5 17.2857
2833.5 23.1429
2834.5 8.57143
2835.5 26.2857
2836.5 22.5714
2837.5 30.7143
2838.5 29
2839.5 3.57143
2840.5 3.57143
2841.5 1.42857
2842.5 11.2857
2843.5 14.5714
2844.5 5.42857
2845.5 8
2846.5 31.5714
2847.5 -24.4286
2848.5 17.5714
2849.5 47.7143
2850.5 26.7143
2851.5 28
2852.5 29.2857
2853.5 3.42857
2854.5 20.1429
2855.5 19.7143
2856.5 17.8571
2857.5 22
2858.5 27.1429
2859.5 25.1429
2860.5 14.4286
2861.5 9.71428
2862.5 31.2857
2863.5 25
2864.5 14.4286
2865.5 0.285712
2866.5 16
2867.5 15.7143
2868.5 17.5714
2869.5 38.8571
2870.5 5.57143
2871.5 14.7143
2872.5 28.4286
2873.5 18.7143
2874.5 12.8571
2875.5 15.4286
2876.5 -7.42857
2877.5 8.14286
2878.5 21
2879.5 17.1429
2880.5 21
2881.5 36.7143
2882.5 26.7143
2883.5 4.71428
2884.5 25.8571
2885.5 9.42857
2886.5 6
2887.5 19.8571
2888.5 5.14286
2889.5 21.8571
2890.5 38
2891.5 37.4286
2892.5 17.7143
2893.5 52.1429
2894.5 -3
2895.5 22
2896.5 4.42857
2897.5 -0.285716
2898.5 25.1429
2899.5 22.7143
2900.5 14.7143
2901.5 7
2902.5 22.4286
2903.5 11.2857
2904.5 11.2857
2905.5 17.8571
2906.5 15.7143
2907.5 19.1429
2908.5 9
2909.5 8.71428
2910.5 24
2911.5 -2.85714
2912.5 21
2913.5 41.4286
2914.5 71.8571
2915.5 67.4286
2916.5 94
2917.5 113.286
2918.5 104.571
2919.5 40.4286
2920.5 53
2921.5 39.4286
2922.5 87.2857
2923.5 65.2857
2924.5 117.143
2925.5 76
2926.5 65.7143
2927.5 31.2857
2928.5 5.28571
2929.5 15.7143
2930.5 10
2931.5 30.2857
2932.5 17.4286
2933.5 24.1429
2934.5 5.42857
2935.5 24.2857
2936.5 21.1429
2937.5 40.2857
2938.5 27.8571
2939.5 32.2857
2940.5 25.8571
2941.5 -2.85714
2942.5 2.85714
2943.5 12.8571
2944.5 14.5714
2945.5 -35.1429
2946.5 17.8571
2947.5 53.5714
2948.5 -8.14286
2949.5 10.2857
2950.5 -25.8571
2951.5 2.57143
2952.5 18.1429
2953.5 36.4286
2954.5 9.14285
2955.5 11.1429
2956.5 -1
2957.5 -0.857145
2958.5 23
2959.5 -12.5714
2960.5 17.5714
2961.5 23.7143
2962.5 9.42857
2963.5 11.2857
2964.5 3.42857
2965.5 -4.28572
2966.5 15.7143
2967.5 -6.42857
2968.5 44.8571
2969.5 19.8571
2970.5 24.5714
2971.5 35
2972.5 13.2857
2973.5 12.7143
2974.5 12.5714
2975.5 19.4286
2976.5 2.71428
2977.5 -2.28572
2978.5 14.5714
2979.5 21.2857
2980.5 1.14286
2981.5 9.28571
2982.5 31.4286
2983.5 19
2984.5 6.14286
2985.5 18.5714
2986.5 37.1429
2987.5 18.8571
2988.5 9.85714
2989.5 37.2857
2990.5 9.85714
2991.5 21.5714
2992.5 7.14286
2993.5 -3.71429
2994.5 15.4286
2995.5 8.14286
2996.5 17.7143
2997.5 16
2998.5 20.4286
2999.5 20.8571
3000.5 -3.14286
3001.5 21.4286
3002.5 5
3003.5 4
3004.5 29.5714
3005.5 15
3006.5 15
3007.5 26.1429
3008.5 20.4286
3009.5 3.71428
3010.5 21.7143
3011.5 0.571427
3012.5 8.57143
3013.5 36.4286
3014.5 -5.28572
3015.5 12.1429
3016.5 -0.285716
3017.5 -3.71429
3018.5 9.14286
3019.5 19.4286
3020.5 27.2857
3021.5 7.85714
3022.5 62.5714
3023.5 50.2857
3024.5 59.2857
3025.5 123.714
3026.5 132.714
3027.5 75.5714
3028.5 35.7143
3029.5 37.5714
3030.5 50.8571
3031.5 41.2857
3032.5 73
3033.5 53.8571
3034.5 37.1429
3035.5 64.8571
3036.5 101.143
3037.5 107
3038.5 178.429
3039.5 182.571
3040.5 87.5714
3041.5 51.7143
3042.5 26.5714
3043.5 5.14286
3044.5 -1.19209e-06
3045.5 -10.2857
3046.5 14.5714
3047.5 27.7143
3048.5 6.42857
3049.5 -12.1429
3050.5 -26.7143
3051.5 -18.1429
3052.5 -51.1429
3053.5 -33.4286
3054.5 9
3055.5 30.4286
3056.5 31.5714
3057.5 50.7143
3058.5 39.4286
3059.5 54.8571
3060.5 33.2857
3061.5 48.7143
3062.5 56.8571
3063.5 19
3064.5 25.1429
3065.5 52
3066.5 51
3067.5 29.1429
3068.5 40.4286
3069.5 21
3070.5 9.42857
3071.5 3.71428
3072.5 16.7143
3073.5 20.4286
3074.5 25
3075.5 13.2857
3076.5 12.5714
3077.5 38.5714
3078.5 7.28571
3079.5 14.1429
3080.5 16.5714
3081.5 18.2857
3082.5 14
3083.5 17.1429
3084.5 14.5714
3085.5 25.7143
3086.5 23
3087.5 8.71428
3088.5 14.8571
3089.5 -1.85714
3090.5 18.4286
3091.5 22.5714
3092.5 21
3093.5 26.2857
3094.5 13.4286
3095.5 11.7143
3096.5 23.7143
3097.5 19.4286
3098.5 27.5714
3099.5 13
3100.5 22
3101.5 31
3102.5 -14.2857
3103.5 28.1429
3104.5 26.8571
3105.5 16.4286
3106.5 4.85714
3107.5 23.2857
3108.5 45.4286
3109.5 30.2857
3110.5 9.71428
3111.5 28.8571
3112.5 25.7143
3113.5 18
3114.5 5.42857
3115.5 0.142855
3116.5 -14.5714
3117.5 2.57143
3118.5 -13.8571
3119.5 -4.14286
3120.5 8.71428
3121.5 8.42857
3122.5 28
3123.5 5.42857
3124.5 4
3125.5 7.57143
3126.5 12
3127.5 11.5714
3128.5 17.8571
3129.5 21.1429
3130.5 17.5714
3131.5 5.28571
3132.5 1.28571
3133.5 13.1429
3134.5 25.1429
3135.5 11.8571
3136.5 0.857142
3137.5 12.2857
3138.5 12.8571
3139.5 -3.71429
3140.5 32.7143
3141.5 19.4286
3142.5 0.714284
3143.5 14.1429
3144.5 -0.142858
3145.5 13
3146.5 8
3147.5 -28.1429
3148.5 13.4286
3149.5 22
3150.5 7
3151.5 22.4286
3152.5 9
3153.5 37.7143
3154.5 4.42857
3155.5 23.4286
3156.5 28
3157.5 20.2857
3158.5 8.28571
3159.5 9.42857
3160.5 14.2857
3161.5 29.7143
3162.5 19.4286
3163.5 0.285713
3164.5 22.5714
3165.5 -2.71429
3166.5 17.5714
3167.5 10
3168.5 9.28571
3169.5 1.71428
3170.5 0.714285
3171.5 13.1429
3172.5 9.14286
3173.5 19.1429
3174.5 19.1429
3175.5 -10.2857
3176.5 6.14286
3177.5 28
3178.5 27.7143
3179.5 62.1429
3180.5 68.8571
3181.5 97
3182.5 51.2857
3183.5 40.2857
3184.5 29.2857
3185.5 45
3186.5 36.4286
3187.5 58.5714
3188.5 63.1429
3189.5 26.4286
3190.5 9
3191.5 15.7143
3192.5 -3.71429
3193.5 21
3194.5 16.8571
3195.5 7.85714
3196.5 15.1429
3197.5 0.285713
3198.5 29.5714
3199.5 10.5714
3200.5 13.7143
3201.5 -14
3202.5 -5.57143
3203.5 3.42857
3204.5 19.2857
3205.5 -5.28572
3206.5 4.71428
3207.5 1.85714
3208.5 -31.5714
3209.5 16.8571
3210.5 14.7143
3211.5 22.4286
3212.5 19
3213.5 12.2857
3214.5 19.8571
3215.5 6.28571
3216.5 12.4286
3217.5 8.85714
3218.5 26.4286
3219.5 22.7143
3220.5 7.85714
3221.5 13.4286
3222.5 8.42857
3223.5 13.8571
3224.5 25.4286
3225.5 8.14286
3226.5 33.2857
3227.5 -8.71429
3228.5 20.2857
3229.5 9.85714
3230.5 0.285713
3231.5 32
3232.5 21.8571
3233.5 23.2857
3234.5 23.4286
3235.5 38.1429
3236.5 17.2857
3237.5 24.5714
3238.5 27.4286
3239.5 -6.71429
3240.5 14
3241.5 -8.71429
3242.5 6
3243.5 17.5714
3244.5 1.71428
3245.5 29.7143
3246.5 19.4286
3247.5 -14.1429
3248.5 21
3249.5 7.28571
3250.5 31
3251.5 11.7143
3252.5 13.1429
3253.5 7.71428
3254.5 16.1429
3255.5 16.7143
3256.5 8.57143
3257.5 0.285713
3258.5 9.14286
3259.5 8
3260.5 20.1429
3261.5 23.2857
3262.5 30
3263.5 -3.85714
3264.5 -0.285716
3265.5 4.85714
3266.5 -0.57143
3267.5 33.2857
3268.5 8.57143
3269.5 2.57143
3270.5 11
3271.5 9.85714
3272.5 12.4286
3273.5 1.57143
3274.5 10.1429
3275.5 19.4286
3276.5 7.42857
3277.5 10.5714
3278.5 16.2857
3279.5 9.57143
3280.5 21.4286
3281.5 -8.71429
3282.5 22.4286
3283.5 15.5714
3284.5 3.42857
3285.5 7.57143
3286.5 29
3287.5 -1.14286
3288.5 22.7143
3289.5 10
3290.5 20.7143
3291.5 16.1429
3292.5 0.571428
3293.5 8.14286
3294.5 7.42857
3295.5 14.5714
3296.5 7.42857
3297.5 31.5714
3298.5 20.5714
3299.5 21.1429
3300.5 26.5714
3301.5 29.7143
3302.5 11.4286
3303.5 12.4286
3304.5 8.71428
3305.5 19.4286
3306.5 11.8571
3307.5 20
3308.5 11.7143
3309.5 13
3310.5 12.5714
3311.5 -8.85714
3312.5 50
3313.5 11.5714
3314.5 27
3315.5 21.7143
3316.5 24
3317.5 27.8571
3318.5 27.8571
3319.5 27.7143
3320.5 30.5714
3321.5 22.8571
3322.5 1.14285
3323.5 43
3324.5 24.5714
3325.5 -0.714287
3326.5 23.5714
3327.5 -7.71429
3328.5 7.57143
3329.5 16.5714
3330.5 7
3331.5 31.2857
3332.5 13.5714
3333.5 17.1429
3334.5 27.8571
3335.5 12.7143
3336.5 13.2857
3337.5 6.42857
3338.5 10.7143
3339.5 14
3340.5 -3.57143
3341.5 29.2857
3342.5 22.4286
3343.5 20.5714
3344.5 -11.4286
3345.5 20.5714
3346.5 8
3347.5 32.2857
3348.5 21.1429
3349.5 -0.285715
3350.5 -1
3351.5 13.5714
3352.5 41.5714
3353.5 13.2857
3354.5 15.7143
3355.5 -5.28572
3356.5 11.5714
3357.5 -1.28572
3358.5 8
3359.5 34.5714
3360.5 32.1429
3361.5 8.57143
3362.5 4.85714
3363.5 8.42857
3364.5 14.1429
3365.5 22.5714
3366.5 15.2857
3367.5 1.85714
3368.5 29
3369.5 16.8571
3370.5 16.2857
3371.5 2.28571
3372.5 29.4286
3373.5 5.57143
3374.5 15.1429
3375.5 21.8571
3376.5 14.2857
3377.5 25.8571
3378.5 10.2857
3379.5 27.2857
3380.5 30.8571
3381.5 24.2857
3382.5 40
3383.5 35.2857
3384.5 12.1429
3385.5 35.7143
3386.5 13
3387.5 14
3388.5 21.2857
3389.5 27.1429
3390.5 17
3391.5 17
3392.5 25.8571
3393.5 -7.85714
3394.5 10.1429
3395.5 32.8571
3396.5 11.5714
3397.5 14.2857
3398.5 23.7143
3399.5 27.2857
3400.5 9.57143
3401.5 9.42857
3402.5 12.2857
3403.5 20.8571
3404.5 1.42857
3405.5 12.1429
3406.5 18.1429
3407.5 14.8571
3408.5 -0.142858
3409.5 7.14286
3410.5 9.71428
3411.5 13.8571
3412.5 17.5714
3413.5 -7
3414.5 0.714285
3415.5 6
3416.5 1.85714
3417.5 17.4286
3418.5 8.85714
3419.5 -4.14286
3420.5 3.14286
3421.5 14.7143
3422.5 30.8571
3423.5 32.2857
3424.5 27.2857
3425.5 14.4286
3426.5 54.2857
3427.5 125
3428.5 80.4286
3429.5 83
3430.5 51.4286
3431.5 22.8571
3432.5 48.5714
3433.5 69.4286
3434.5 93.2857
3435.5 74.1429
3436.5 63.5714
3437.5 47
3438.5 35.8571
3439.5 -6.14286
3440.5 16
3441.5 23.7143
3442.5 15.1429
3443.5 16.4286
3444.5 17.4286
3445.5 10.4286
3446.5 30.8571
3447.5 27
3448.5 33.5714
3449.5 15.8571
3450.5 6.99999
3451.5 12.2857
3452.5 13.8571
3453.5 0.285713
3454.5 19.2857
3455.5 12.4286
3456.5 9.57143
3457.5 -4.71429
3458.5 2.85714
3459.5 3.14286
3460.5 -5
3461.5 -14.8571
3462.5 2
3463.5 2.14286
3464.5 0.42857
3465.5 -3.42857
3466.5 -7.42857
3467.5 13.5714
3468.5 -0.285715
3469.5 15.4286
3470.5 17.2857
3471.5 18.7143
3472.5 -6.14286
3473.5 24.1429
3474.5 20.2857
3475.5 15.8571
3476.5 5.85714
3477.5 19.4286
3478.5 28
3479.5 20.2857
3480.5 24.5714
3481.5 18.7143
3482.5 20.1429
3483.5 6.71428
3484.5 -11.2857
3485.5 20.7143
3486.5 20.7143
3487.5 9
3488.5 0.285713
3489.5 3.57143
3490.5 5.71428
3491.5 6.71428
3492.5 20.5714
3493.5 15.1429
3494.5 10.2857
3495.5 22.5714
3496.5 8.42857
3497.5 9.42857
3498.5 19.4286
3499.5 21.1429
3500.5 26.1429
3501.5 17.1429
3502.5 11.5714
3503.5 19.5714
3504.5 7
3505.5 24.8571
3506.5 5.71428
3507.5 23.8571
3508.5 29.7143
3509.5 20.1429
3510.5 25.1429
3511.5 2.14286
3512.5 1.85714
3513.5 30.1429
3514.5 9
3515.5 16.7143
3516.5 22.1429
3517.5 17.1429
3518.5 19.7143
3519.5 13.1429
3520.5 13.7143
3521.5 24.1429
3522.5 17.8571
3523.5 15.2857
3524.5 10.7143
3525.5 16.7143
3526.5 6.57143
3527.5 9
3528.5 6.57143
3529.5 25.7143
3530.5 8.57143
3531.5 20.4286
3532.5 25.4286
3533.5 26.5714
3534.5 9.42857
3535.5 15.2857
3536.5 14.8571
3537.5 15.7143
3538.5 11
3539.5 25
3540.5 10.4286
3541.5 19.7143
3542.5 20.2857
3543.5 8.85714
3544.5 -5.28572
3545.5 7.57143
3546.5 9.28571
3547.5 16.1429
3548.5 13.2857
3549.5 17.5714
3550.5 8.71429
3551.5 10.2857
3552.5 4.28571
3553.5 -1.85714
3554.5 16.5714
3555.5 11.2857
3556.5 9.42857
3557.5 5.42857
3558.5 17.2857
3559.5 6.57143
3560.5 28.1429
3561.5 9.14286
3562.5 8
3563.5 36.5714
3564.5 24
3565.5 52.5714
3566.5 94.1429
3567.5 73.2857
3568.5 128.429
3569.5 116.286
3570.5 54.1429
3571.5 58.1429
3572.5 -4.28572
3573.5 30.1429
3574.5 20.7143
3575.5 9.71429
3576.5 11.5714
3577.5 6.85714
3578.5 25
3579.5 0.428571
3580.5 26.5714
3581.5 31.8571
3582.5 -0.857145
3583.5 14.7143
3584.5 29.2857
3585.5 0.42857
3586.5 29.5714
3587.5 25.4286
3588.5 10.8571
3589.5 2.57143
3590.5 26.2857
3591.5 6.71428
3592.5 11.4286
3593.5 9.85714
3594.5 18.4286
3595.5 15.4286
3596.5 45.7143
3597.5 7.14286
3598.5 12.7143
3599.5 23.1429
3600.5 10.8571
3601.5 17.8571
3602.5 13.4286
3603.5 22.2857
3604.5 10
3605.5 21.4286
3606.5 21.5714
3607.5 12.4286
3608.5 21.1429
3609.5 35.7143
3610.5 29.8571
3611.5 19.4286
3612.5 13.7143
3613.5 12.4286
3614.5 11.7143
3615.5 16.2857
3616.5 29.7143
3617.5 16.1429
3618.5 39.7143
3619.5 20.8571
3620.5 7.42857
3621.5 54.2857
3622.5 54.5714
3623.5 54.4286
3624.5 22
3625.5 5.28571
3626.5 18.4286
3627.5 10.2857
3628.5 40.7143
3629.5 21.5714
3630.5 14.1429
3631.5 -3.14286
3632.5 25.1429
3633.5 14.7143
3634.5 3
3635.5 26.5714
3636.5 28.7143
3637.5 14.1429
3638.5 15.4286
3639.5 23.1429
3640.5 20.7143
3641.5 38.4286
3642.5 30.1429
3643.5 12.8571
3644.5 26
3645.5 14
3646.5 21.4286
3647.5 35.7143
3648.5 13.8571
3649.5 15.5714
3650.5 35.4286
3651.5 12.5714
3652.5 18.4286
3653.5 10.1429
3654.5 6.71428
3655.5 25.2857
3656.5 16.8571
3657.5 12.8571
3658.5 9.71428
3659.5 34.7143
3660.5 16.8571
3661.5 27.8571
3662.5 33.7143
3663.5 21.2857
3664.5 13.2857
3665.5 11.2857
3666.5 14.8571
3667.5 15.5714
3668.5 -0.285715
3669.5 20.8571
3670.5 17.5714
3671.5 19.8571
3672.5 24.1429
3673.5 20.4286
3674.5 34.4286
3675.5 8.71428
3676.5 20.7143
3677.5 0.571428
3678.5 3
3679.5 19.7143
3680.5 25.5714
3681.5 14.5714
3682.5 6.42857
3683.5 -1
3684.5 -10.7143
3685.5 14.7143
3686.5 9.57143
3687.5 26.4286
3688.5 10.2857
3689.5 16.7143
3690.5 18
3691.5 25.4286
3692.5 34.2857
3693.5 26.4286
3694.5 31.4286
3695.5 18.4286
3696.5 25.8571
3697.5 14.5714
3698.5 3.71428
3699.5 12.4286
3700.5 23.1429
3701.5 18
3702.5 22.5714
3703.5 16.8571
3704.5 21.1429
3705.5 24.1429
3706.5 6
3707.5 15.4286
3708.5 22.4286
3709.5 9.28571
3710.5 10.2857
3711.5 8.28571
3712.5 2.14286
3713.5 -0.857144
3714.5 32.8571
3715.5 25.7143
3716.5 3.85714
3717.5 7
3718.5 13
3719.5 1.14286
3720.5 14
3721.5 -4.85714
3722.5 2.85714
3723.5 14.5714
3724.5 17.8571
3725.5 4.42857
3726.5 24
3727.5 17.2857
3728.5 19.1429
3729.5 20.2857
3730.5 -4.28572
3731.5 13.5714
3732.5 18.4286
3733.5 9.28571
3734.5 7.14286
3735.5 8.71429
3736.5 19.4286
3737.5 24.8571
3738.5 4.14286
3739.5 25.7143
3740.5 13.1429
3741.5 22.7143
3742.5 19.2857
3743.5 20.8571
3744.5 21.5714
3745.5 33.2857
3746.5 21.1429
3747.5 19.7143
3748.5 13.5714
3749.5 35.8571
3750.5 9.57143
3751.5 25.2857
3752.5 18.8571
3753.5 24.1429
3754.5 3.14286
3755.5 28.7143
3756.5 16
3757.5 22.4286
3758.5 39.8571
3759.5 29.2857
3760.5 26.2857
3761.5 -3.28572
3762.5 33.4286
3763.5 32.5714
3764.5 29.7143
3765.5 19.5714
3766.5 8.71429
3767.5 17.2857
3768.5 20
3769.5 25.7143
3770.5 8.14286
3771.5 25.5714
3772.5 18.7143
3773.5 24.8571
3774.5 9.28571
3775.5 26.2857
3776.5 29.8571
3777.5 11.7143
3778.5 13.8571
3779.5 12
3780.5 1.71429
3781.5 21.4286
3782.5 15.8571
3783.5 10.4286
3784.5 18.2857
3785.5 35.8571
3786.5 10.1429
3787.5 29
3788.5 18.1429
3789.5 26.8571
3790.5 16.5714
3791.5 15.4286
3792.5 19.4286
3793.5 13
3794.5 29.1429
3795.5 5
3796.5 29.1429
3797.5 6.71429
3798.5 16.2857
3799.5 18
3800.5 9.14286
3801.5 6.28571
3802.5 31.8571
3803.5 28.2857
3804.5 19.4286
3805.5 21.4286
3806.5 6.71428
3807.5 5.85714
3808.5 13.5714
3809.5 27
3810.5 2.71428
3811.5 23.8571
3812.5 19.1429
3813.5 13.8571
3814.5 13.8571
3815.5 25.2857
3816.5 14.1429
3817.5 20.7143
3818.5 19.7143
3819.5 21
3820.5 20.5714
3821.5 -2.85714
3822.5 18.4286
3823.5 26
3824.5 -3.71429
3825.5 18.4286
3826.5 1.14286
3827.5 11.8571
3828.5 19.8571
3829.5 22.5714
3830.5 3.42857
3831.5 20.2857
3832.5 20.4286
3833.5 26.8571
3834.5 17.5714
3835.5 21.7143
3836.5 29.1429
3837.5 11.4286
3838.5 -1.42857
3839.5 20.1429
3840.5 12.5714
3841.5 26.5714
3842.5 20.7143
3843.5 10
3844.5 27
3845.5 28.4286
3846.5 6.71429
3847.5 4.14286
3848.5 4
3849.5 21.4286
3850.5 20
3851.5 14.5714
3852.5 19
3853.5 12.2857
3854.5 10.7143
3855.5 13.4286
3856.5 16.8571
3857.5 -9.53674e-07
3858.5 17
3859.5 10.2857
3860.5 7.71428
3861.5 35.1429
3862.5 9.28571
3863.5 4.71428
3864.5 -10.1429
3865.5 -8.14286
3866.5 26.2857
3867.5 14.1429
3868.5 12.2857
3869.5 23.8571
3870.5 16.2857
3871.5 6.71428
3872.5 17.7143
3873.5 21.4286
3874.5 13.8571
3875.5 27.5714
3876.5 16.1429
3877.5 21.1429
3878.5 18.7143
3879.5 17
3880.5 5
3881.5 6.85714
3882.5 26.2857
3883.5 32.5714
3884.5 16.7143
3885.5 15.8571
3886.5 24.2857
3887.5 20.7143
3888.5 26.1429
3889.5 4.71428
3890.5 20.8571
3891.5 26.1429
3892.5 17.7143
3893.5 15.8571
3894.5 9.28571
3895.5 2.28571
3896.5 23.1429
3897.5 17.8571
3898.5 7
3899.5 29
3900.5 19.5714
3901.5 22.2857
3902.5 26.5714
3903.5 26.1429
3904.5 22.2857
3905.5 12.4286
3906.5 34.5714
3907.5 29
3908.5 20.7143
3909.5 -1
3910.5 13.8571
3911.5 13
3912.5 23.1429
3913.5 10.2857
3914.5 22.2857
3915.5 16.4286
3916.5 29.8571
3917.5 14.5714
3918.5 9
3919.5 5.57143
3920.5 27
3921.5 17.7143
3922.5 15.8571
3923.5 3.28571
3924.5 7.28571
3925.5 17.8571
3926.5 11.8571
3927.5 7
3928.5 8.71428
3929.5 2.42857
3930.5 18
3931.5 15.1429
3932.5 8.57143
3933.5 24.1429
3934.5 15.2857
3935.5 26.2857
3936.5 11.7143
3937.5 30.2857
3938.5 29.4286
3939.5 61.8571
3940.5 53.1429
3941.5 102.571
3942.5 115.143
3943.5 152.143
3944.5 200.571
3945.5 175.714
3946.5 188.143
3947.5 188.857
3948.5 129.429
3949.5 68.5714
3950.5 86.2857
3951.5 35.8571
3952.5 51
3953.5 23.8571
3954.5 28.4286
3955.5 42.7143
3956.5 18.5714
3957.5 12.7143
3958.5 25.5714
3959.5 27.2857
3960.5 20.4286
3961.5 12.8571
3962.5 14.5714
3963.5 26
3964.5 13.1429
3965.5 15.8571
3966.5 26.8571
3967.5 9.42857
3968.5 -13.4286
3969.5 -13.8571
3970.5 -14.5714
3971.5 16.5714
3972.5 13.4286
3973.5 2
3974.5 26.4286
3975.5 -4.14286
3976.5 12.5714
3977.5 -1.28572
3978.5 18.4286
3979.5 10.2857
3980.5 16.4286
3981.5 17.5714
3982.5 14.4286
3983.5 16.5714
3984.5 18.7143
3985.5 28.1429
3986.5 12.5714
3987.5 24.2857
3988.5 16.7143
3989.5 27.1429
3990.5 19.4286
3991.5 11
3992.5 6.57143
3993.5 9.28571
3994.5 30.8571
3995.5 33.5714
3996.5 26.5714
3997.5 12.8571
3998.5 5.28571
3999.5 27.4286
4000.5 30.8571
4001.5 18.1429
4002.5 18.7143
4003.5 24.4286
4004.5 20.1429
4005.5 16.4286
4006.5 16.1429
4007.5 17.1429
4008.5 4.28571
4009.5 19.2857
4010.5 29.1429
4011.5 17.2857
4012.5 21.1429
4013.5 23.4286
4014.5 10.4286
4015.5 11.8571
4016.5 13.2857
4017.5 10.7143
4018.5 10.4286
4019.5 18.5714
4020.5 4.71429
4021.5 10
4022.5 42
4023.5 9.42857
4024.5 20.1429
4025.5 34.1429
4026.5 22.5714
4027.5 26.2857
4028.5 21.4286
4029.5 20.8571
4030.5 23.2857
4031.5 21.2857
4032.5 14.4286
4033.5 36.2857
4034.5 14.4286
4035.5 11.2857
4036.5 20.5714
4037.5 19.5714
4038.5 17.8571
4039.5 22.8571
4040.5 16.2857
4041.5 13.2857
4042.5 14.1429
4043.5 24.2857
4044.5 17.4286
4045.5 19.1429
4046.5 34.2857
4047.5 34.2857
4048.5 25.2857
4049.5 21
4050.5 15.5714
4051.5 29.1429
4052.5 18.7143
4053.5 22.2857
4054.5 18.5714
4055.5 27.7143
4056.5 16
4057.5 19.1429
4058.5 22.2857
4059.5 19.7143
4060.5 4.42857
4061.5 2.42857
4062.5 24.8571
4063.5 27.8571
4064.5 10.8571
4065.5 37.5714
4066.5 34.2857
4067.5 13.7143
4068.5 5.42857
4069.5 7.57143
4070.5 17.8571
4071.5 0.999999
4072.5 30.2857
4073.5 18.7143
4074.5 6.28571
4075.5 13.4286
4076.5 39
4077.5 54.5714
4078.5 91.5714
4079.5 110.429
4080.5 148.714
4081.5 101.286
4082.5 58
4083.5 30.2857
4084.5 17.7143
4085.5 32.2857
4086.5 6
4087.5 31.8571
4088.5 25.7143
4089.5 20.8571
4090.5 18
4091.5 15.8571
4092.5 15.1429
4093.5 4.57143
4094.5 5.14286
4095.5 27.7143
4096.5 18.2857
4097.5 0.857142
4098.5 18.2857
4099.5 32.8571
4100.5 8.42857
4101.5 18.7143
4102.5 9.14286
4103.5 26.8571
4104.5 15
4105.5 26.7143
4106.5 12
4107.5 14.7143
4108.5 15.2857
4109.5 15.4286
4110.5 11.4286
4111.5 24.5714
4112.5 6.57143
4113.5 19.8571
4114.5 11.8571
4115.5 18.4286
4116.5 27.2857
4117.5 15.5714
4118.5 22.7143
4119.5 19
4120.5 9.57143
4121.5 31.1429
4122.5 27.8571
4123.5 32
4124.5 23.4286
4125.5 21.2857
4126.5 26.5714
4127.5 25.1429
4128.5 7.42857
4129.5 22.4286
4130.5 28.7143
4131.5 13.1429
4132.5 33.1429
4133.5 16.1429
4134.5 24.1429
4135.5 28.4286
4136.5 25.4286
4137.5 16.1429
4138.5 27.1429
4139.5 26.1429
4140.5 34.8571
4141.5 22.8571
4142.5 20.1429
4143.5 20
4144.5 24.2857
4145.5 22
4146.5 23.1429
4147.5 23.1429
4148.5 14
4149.5 17.5714
4150.5 27.4286
4151.5 28.1429
4152.5 19.1429
4153.5 28.8571
4154.5 22.1429
4155.5 23.4286
4156.5 30.1429
4157.5 10.7143
4158.5 11.2857
4159.5 12.4286
4160.5 18.8571
4161.5 11.5714
4162.5 31
4163.5 27.1429
4164.5 22.8571
4165.5 26.2857
4166.5 15.1429
4167.5 29.1429
4168.5 22
4169.5 27.4286
4170.5 1.14286
4171.5 4
4172.5 10.5714
4173.5 18.7143
4174.5 26.7143
4175.5 16.1429
4176.5 24
4177.5 19.7143
4178.5 8.57143
4179.5 36.7143
4180.5 30.4286
4181.5 18.5714
4182.5 20.7143
4183.5 31.7143
4184.5 40.5714
4185.5 17.4286
4186.5 24.5714
4187.5 22
4188.5 27.2857
4189.5 11.4286
4190.5 34
4191.5 11.8571
4192.5 22
4193.5 31.7143
4194.5 10.8571
4195.5 5.71429
4196.5 33.8571
4197.5 19.2857
4198.5 20
4199.5 26.4286
4200.5 26
4201.5 33
4202.5 22.8571
4203.5 24.1429
4204.5 37.7143
4205.5 34.5714
4206.5 14.2857
4207.5 10.7143
4208.5 42.2857
4209.5 50
4210.5 6.14286
4211.5 18.4286
4212.5 36.5714
4213.5 34.1429
4214.5 21.4286
4215.5 31.4286
4216.5 38.5714
4217.5 45.4286
4218.5 16.8571
4219.5 31.8571
4220.5 8
4221.5 10.2857
4222.5 6.14286
4223.5 12.4286
4224.5 26.2857
4225.5 26.7143
4226.5 25.7143
4227.5 15.7143
4228.5 24.8571
4229.5 23.5714
4230.5 16
4231.5 16.4286
4232.5 24.1429
4233.5 26.8571
4234.5 20
4235.5 26.1429
4236.5 11.5714
4237.5 19.5714
4238.5 17.1429
4239.5 19.4286
4240.5 14
4241.5 24.4286
4242.5 22.5714
4243.5 25.7143
4244.5 22.8571
4245.5 24
4246.5 17.5714
4247.5 22
4248.5 32.1429
4249.5 9.85714
4250.5 19.7143
4251.5 19.2857
4252.5 24.1429
4253.5 17.1429
4254.5 11.2857
4255.5 9.85714
4256.5 25
4257.5 19.5714
4258.5 13.2857
4259.5 33.4286
4260.5 22
4261.5 34.7143
4262.5 15.7143
4263.5 22.7143
4264.5 45.2857
4265.5 21.8571
4266.5 19.1429
4267.5 23
4268.5 28.1429
4269.5 22.4286
4270.5 16
4271.5 28.8571
4272.5 21.2857
4273.5 39
4274.5 5.57143
4275.5 4.57143
4276.5 18.2857
4277.5 14.5714
4278.5 13.2857
4279.5 3.85714
4280.5 -2.14286
4281.5 18
4282.5 25.8571
4283.5 24.4286
4284.5 -1.42857
4285.5 10.2857
4286.5 24.2857
4287.5 18.1429
4288.5 9
4289.5 30.7143
4290.5 29.5714
4291.5 14.8571
4292.5 28.1429
4293.5 18.1429
4294.5 31.1429
4295.5 34.4286
4296.5 28.5714
4297.5 21.4286
4298.5 28.1429
4299.5 23.2857
4300.5 14
4301.5 21.5714
4302.5 12
4303.5 15.4286
4304.5 22
4305.5 25
4306.5 20.4286
4307.5 20.2857
4308.5 22.7143
4309.5 20.5714
4310.5 25.4286
4311.5 19.1429
4312.5 11.4286
4313.5 5.14286
4314.5 25
4315.5 25
4316.5 29
4317.5 7.28571
4318.5 14.2857
4319.5 25.8571
4320.5 16.1429
4321.5 10.7143
4322.5 20.2857
4323.5 15.4286
4324.5 15.4286
4325.5 21.5714
4326.5 20.2857
4327.5 18
4328.5 18.1429
4329.5 23.1429
4330.5 15.7143
4331.5 18.8571
4332.5 27.7143
4333.5 9.85714
4334.5 24.4286
4335.5 8.28571
4336.5 28.7143
4337.5 11.4286
4338.5 17.7143
4339.5 13.7143
4340.5 15.5714
4341.5 19.2857
4342.5 26.2857
4343.5 28.4286
4344.5 17.1429
4345.5 4.28571
4346.5 21.8571
4347.5 19.1429
4348.5 22
4349.5 11.8571
4350.5 14.8571
4351.5 4.28571
4352.5 26.2857
4353.5 9.14286
4354.5 16.7143
4355.5 12.7143
4356.5 14.1429
4357.5 13.2857
4358.5 21.4286
4359.5 10.5714
4360.5 2
4361.5 24.4286
4362.5 14.8571
4363.5 7.14286
4364.5 10.7143
4365.5 13.5714
4366.5 21.1429
4367.5 2.71429
4368.5 16
4369.5 19.8571
4370.5 8.85714
4371.5 14.7143
4372.5 8.57143
4373.5 5.57143
4374.5 7.57143
4375.5 13.1429
4376.5 6.42857
4377.5 0.857142
4378.5 6.28571
4379.5 21.1429
4380.5 7.14286
4381.5 17.4286
4382.5 10.5714
4383.5 17.7143
4384.5 4.71429
4385.5 8.14286
4386.5 13.4286
4387.5 11.5714
4388.5 17.2857
4389.5 5
4390.5 25.5714
4391.5 27.7143
4392.5 20.2857
4393.5 28.1429
4394.5 1.85714
4395.5 8.85714
4396.5 20.5714
4397.5 12.7143
4398.5 9.71429
4399.5 16.8571
4400.5 15.7143
4401.5 8.57143
4402.5 13.4286
4403.5 7
4404.5 7.57143
4405.5 7.57143
4406.5 22.2857
4407.5 15
4408.5 21.2857
4409.5 1
4410.5 23.8571
4411.5 17.4286
4412.5 10.4286
4413.5 20.8571
4414.5 18.1429
4415.5 9.85714
4416.5 13.4286
4417.5 19.5714
4418.5 11.7143
4419.5 23.2857
4420.5 17.8571
4421.5 8.57143
4422.5 9.57143
4423.5 8
4424.5 3.28571
4425.5 13.7143
4426.5 16.5714
4427.5 13.2857
4428.5 9.14286
4429.5 12
4430.5 3.14286
4431.5 14.5714
4432.5 17.2857
4433.5 -5.42857
4434.5 10.1429
4435.5 5.71428
4436.5 18
4437.5 22.7143
4438.5 10.1429
4439.5 6.57143
4440.5 21.5714
4441.5 11
4442.5 6.14286
4443.5 21
4444.5 10.1429
4445.5 6.14286
4446.5 7.28571
4447.5 14.2857
4448.5 12.2857
4449.5 27.4286
4450.5 19.5714
4451.5 48.4286
4452.5 104.714
4453.5 192.857
4454.5 383.429
4455.5 554
4456.5 778.143
4457.5 803.714
4458.5 681.143
4459.5 483
4460.5 274.714
4461.5 186.286
4462.5 107.429
4463.5 59.4286
4464.5 37.5714
4465.5 23.1429
4466.5 16.1429
4467.5 14
4468.5 10.4286
4469.5 6
4470.5 9
4471.5 4.57143
4472.5 9.71429
4473.5 11.4286
4474.5 7.14286
4475.5 0.857142
4476.5 19.7143
4477.5 14.5714
4478.5 4.57143
4479.5 5.42857
4480.5 13.2857
4481.5 12
4482.5 10.5714
4483.5 4
4484.5 9.57143
4485.5 4
4486.5 7.14286
4487.5 8.57143
4488.5 9
4489.5 12.4286
4490.5 10.5714
4491.5 13.7143
4492.5 13.8571
4493.5 19.5714
4494.5 -6.42857
4495.5 7.57143
4496.5 11.7143
4497.5 4.42857
4498.5 -4.76837e-07
4499.5 10.4286
4500.5 8.57143
4501.5 -2.42857
4502.5 15.8571
4503.5 9.28571
4504.5 6.14286
4505.5 4.28571
4506.5 15.8571
4507.5 11.2857
4508.5 12.7143
4509.5 -2.57143
4510.5 11
4511.5 9.85714
4512.5 1.14286
4513.5 14.4286
4514.5 19.8571
4515.5 14.4286
4516.5 10.1429
4517.5 18.7143
4518.5 11.1429
4519.5 21.7143
4520.5 -0.714286
4521.5 11
4522.5 14.8571
4523.5 3.28571
4524.5 8.42857
4525.5 18.7143
4526.5 7.28571
4527.5 10
4528.5 -10.1429
4529.5 15.2857
4530.5 2
4531.5 6.42857
4532.5 10.5714
4533.5 5.71429
4534.5 14.4286
4535.5 11.2857
4536.5 9.57143
4537.5 16.4286
4538.5 11
4539.5 8
4540.5 19.2857
4541.5 9.85714
4542.5 9.42857
4543.5 8.57143
4544.5 -2.71429
4545.5 -9
4546.5 7.42857
4547.5 11.8571
4548.5 10.8571
4549.5 5.28571
4550.5 16
4551.5 21
4552.5 13.1429
4553.5 30
4554.5 50.7143
4555.5 61.5714
4556.5 103
4557.5 129.857
4558.5 115.714
4559.5 140.571
4560.5 94.2857
4561.5 70.1429
4562.5 17.7143
4563.5 16.7143
4564.5 9.28571
4565.5 4.14286
4566.5 7.85714
4567.5 11
4568.5 15.1429
4569.5 13
4570.5 10
4571.5 5
4572.5 6.85714
4573.5 15.7143
4574.5 5
4575.5 12.1429
4576.5 2.14286
4577.5 20.2857
4578.5 13.8571
4579.5 23.7143
4580.5 15.2857
4581.5 9.14286
4582.5 11.1429
4583.5 24.8571
4584.5 12
4585.5 21.8571
4586.5 3.71429
4587.5 14.4286
4588.5 16
4589.5 5.85714
4590.5 8.57143
4591.5 19.2857
4592.5 8.28571
4593.5 13
4594.5 13.1429
4595.5 7.28571
4596.5 13
4597.5 5.14286
4598.5 15.1429
4599.5 14.5714
4600.5 23
4601.5 -1
4602.5 14.2857
4603.5 17.2857
4604.5 8.85714
4605.5 17.5714
4606.5 8.42857
4607.5 15.1429
4608.5 5.28571
4609.5 18
4610.5 3.71429
4611.5 6.71429
4612.5 13.1429
4613.5 15.5714
4614.5 9
4615.5 6.28571
4616.5 12
4617.5 10
4618.5 11.8571
4619.5 10.4286
4620.5 -9.71429
4621.5 2.57143
4622.5 16.4286
4623.5 4.57143
4624.5 21.4286
4625.5 -1.42857
4626.5 22.7143
4627.5 2.14286
4628.5 15
4629.5 4.85714
4630.5 10.4286
4631.5 5.42857
4632.5 15.4286
4633.5 21.7143
4634.5 19.4286
4635.5 14
4636.5 15
4637.5 12.5714
4638.5 9
4639.5 11.8571
4640.5 6.85714
4641.5 11.1429
4642.5 17.8571
4643.5 13.2857
4644.5 19.2857
4645.5 8
4646.5 18.1429
4647.5 20.4286
4648.5 15
4649.5 10.7143
4650.5 26.8571
4651.5 13.8571
4652.5 19.5714
4653.5 19.1429
4654.5 5.57143
4655.5 21.5714
4656.5 17.2857
4657.5 10.1429
4658.5 15.4286
4659.5 11.4286
4660.5 18.8571
4661.5 10.4286
4662.5 9
4663.5 8.85714
4664.5 3.57143
4665.5 14.7143
4666.5 7.57143
4667.5 5.85714
4668.5 20.4286
4669.5 1.57143
4670.5 4.28571
4671.5 10.2857
4672.5 3.14286
4673.5 8.57143
4674.5 18.1429
4675.5 12.4286
4676.5 12.4286
4677.5 6.85714
4678.5 12.8571
4679.5 17.2857
4680.5 13.1429
4681.5 22
4682.5 7.85714
4683.5 5.28571
4684.5 12.1429
4685.5 26.4286
4686.5 8.42857
4687.5 5.14286
4688.5 7.14286
4689.5 10.1429
4690.5 8.14286
4691.5 27.2857
4692.5 18.8571
4693.5 15.7143
4694.5 17.8571
4695.5 10.8571
4696.5 16.8571
4697.5 14.4286
4698.5 12.1429
4699.5 8.57143
4700.5 17.8571
4701.5 12.2857
4702.5 7.57143
4703.5 11.8571
4704.5 15.2857
4705.5 17.8571
4706.5 11.2857
4707.5 12.1429
4708.5 14.2857
4709.5 12.1429
4710.5 16.1429
4711.5 10.7143
4712.5 5.14286
4713.5 7.14286
4714.5 11.7143
4715.5 -0.285715
4716.5 15.4286
4717.5 13.4286
4718.5 7.42857
4719.5 16.4286
4720.5 4.42857
4721.5 6.57143
4722.5 5
4723.5 14.8571
4724.5 19.4286
4725.5 7.14286
4726.5 11.1429
4727.5 25.2857
4728.5 16.1429
4729.5 15
4730.5 6.85714
4731.5 6.71429
4732.5 25
4733.5 19.2857
4734.5 18.8571
4735.5 20.4286
4736.5 10
4737.5 11.4286
4738.5 6
4739.5 6.85714
4740.5 5
4741.5 4.28571
4742.5 9
4743.5 20.4286
4744.5 9.85714
4745.5 12.5714
4746.5 16.8571
4747.5 13.1429
4748.5 23.8571
4749.5 19.2857
4750.5 22.4286
4751.5 15.5714
4752.5 1.42857
4753.5 10.4286
4754.5 13.4286
4755.5 14.8571
4756.5 16.5714
4757.5 11.7143
4758.5 17.8571
4759.5 7.28571
4760.5 19.2857
4761.5 19.4286
4762.5 12
4763.5 17.8571
4764.5 23.5714
4765.5 13.8571
4766.5 22.5714
4767.5 19.5714
4768.5 9.57143
4769.5 13.2857
4770.5 17.2857
4771.5 11.7143
4772.5 6.71429
4773.5 16.5714
4774.5 21.5714
4775.5 5.28571
4776.5 11.1429
4777.5 0.571428
4778.5 1.14286
4779.5 17.7143
4780.5 2
4781.5 9.42857
4782.5 13.5714
4783.5 7.42857
4784.5 5.42857
4785.5 10.8571
4786.5 17.7143
4787.5 17.5714
4788.5 7.71429
4789.5 19.8571
4790.5 -2
4791.5 9.71429
4792.5 5.42857
4793.5 17.4286
4794.5 4.28571
4795.5 29.1429
4796.5 25
4797.5 21.8571
4798.5 4.57143
4799.5 13.2857
4800.5 21.8571
4801.5 31.5714
4802.5 11.5714
4803.5 16.2857
4804.5 24.2857
4805.5 2.14286
4806.5 8.85714
4807.5 20.2857
4808.5 20.4286
4809.5 14.4286
4810.5 6.42857
4811.5 15.2857
4812.5 18.1429
4813.5 6.85714
4814.5 20
4815.5 26.2857
4816.5 17.5714
4817.5 15.4286
4818.5 12
4819.5 4.42857
4820.5 16.4286
4821.5 13
4822.5 7.57143
4823.5 25
4824.5 4.28571
4825.5 6.28571
4826.5 17.2857
4827.5 22.2857
4828.5 17.2857
4829.5 16.1429
4830.5 21.7143
4831.5 10.7143
4832.5 14.2857
4833.5 12.7143
4834.5 10.5714
4835.5 9.14286
4836.5 15.7143
4837.5 -1.28572
4838.5 13.1429
4839.5 22.7143
4840.5 24.1429
4841.5 22.5714
4842.5 -5
4843.5 25
4844.5 9.42857
4845.5 9.71429
4846.5 23.5714
4847.5 24.8571
4848.5 3.85714
4849.5 6.14286
4850.5 19.4286
4851.5 14.4286
4852.5 8
4853.5 13.7143
4854.5 5
4855.5 23.4286
4856.5 21.1429
4857.5 27.7143
4858.5 15.7143
4859.5 23
4860.5 22
4861.5 7.14286
4862.5 19.4286
4863.5 15
4864.5 19.7143
4865.5 15.5714
4866.5 18
4867.5 6.28571
4868.5 23
4869.5 11.8571
4870.5 21.1429
4871.5 16.7143
4872.5 5.57143
4873.5 21.5714
4874.5 21.8571
4875.5 13.7143
4876.5 15.4286
4877.5 14.4286
4878.5 14.1429
4879.5 11
4880.5 13.8571
4881.5 9.42857
4882.5 20.7143
4883.5 13.7143
4884.5 28.7143
4885.5 18.7143
4886.5 25.1429
4887.5 21
4888.5 16.1429
4889.5 11.8571
4890.5 18.5714
4891.5 17.1429
4892.5 16.1429
4893.5 18.5714
4894.5 13.7143
4895.5 15.4286
4896.5 13.2857
4897.5 9.57143
4898.5 11.4286
4899.5 4.71429
4900.5 20.5714
4901.5 17.1429
4902.5 21.5714
4903.5 35.5714
4904.5 23.2857
4905.5 34.5714
4906.5 4.71429
4907.5 21.8571
4908.5 13.4286
4909.5 25.8571
4910.5 10.2857
4911.5 8.85714
4912.5 15.8571
4913.5 13.2857
4914.5 11.1429
4915.5 7.85714
4916.5 15.1429
4917.5 19.8571
4918.5 16.2857
4919.5 12.5714
4920.5 5.42857
4921.5 14.1429
4922.5 11.2857
4923.5 21.4286
4924.5 16.2857
4925.5 23.2857
4926.5 13.4286
4927.5 26.4286
4928.5 20.2857
4929.5 2.71429
4930.5 13.5714
4931.5 19.1429
4932.5 19.5714
4933.5 10.5714
4934.5 9.85714
4935.5 15.2857
4936.5 15.7143
4937.5 17
4938.5 21.1429
4939.5 16.8571
4940.5 12.4286
4941.5 21
4942.5 14.8571
4943.5 29.4286
4944.5 8.42857
4945.5 13.8571
4946.5 15
4947.5 28
4948.5 14.7143
4949.5 9
4950.5 18.2857
4951.5 13
4952.5 9.42857
4953.5 17
4954.5 22.1429
4955.5 16.8571
4956.5 1.14286
4957.5 7.85714
4958.5 13
4959.5 14.5714
4960.5 4.42857
4961.5 13
4962.5 10.2857
4963.5 19.1429
4964.5 19.4286
4965.5 12.5714
4966.5 24
4967.5 8.85714
4968.5 25.2857
4969.5 9.14286
4970.5 18.2857
4971.5 6.85714
4972.5 14.8571
4973.5 18.4286
4974.5 7
4975.5 15.2857
4976.5 19.2857
4977.5 16.5714
4978.5 13.1429
4979.5 19.2857
4980.5 12.5714
4981.5 12
4982.5 14
4983.5 17
4984.5 16
4985.5 20.7143
4986.5 10.4286
4987.5 6.14286
4988.5 21.5714
4989.5 20.8571
4990.5 4
4991.5 11.7143
4992.5 13.4286
4993.5 4.71429
4994.5 2.14286
4995.5 9.57143
4996.5 7.14286
4997.5 13.8571
4998.5 -5.71429
4999.5 7.28571
5000.5 10
5001.5 10.8571
5002.5 7.71429
5003.5 8
5004.5 7.71429
5005.5 16.1429
5006.5 15.5714
5007.5 9.57143
5008.5 15.5714
5009.5 12.7143
5010.5 15.2857
5011.5 25.7143
5012.5 13.2857
5013.5 9.57143
5014.5 11.8571
5015.5 18.8571
5016.5 6
5017.5 11
5018.5 6.42857
5019.5 9
5020.5 5.28571
5021.5 12.2857
5022.5 14.5714
5023.5 10.4286
5024.5 17.8571
5025.5 5.42857
5026.5 13
5027.5 6
5028.5 13.1429
5029.5 17.2857
5030.5 6.42857
5031.5 20.8571
5032.5 14.8571
5033.5 7.42857
5034.5 23.8571
5035.5 10.4286
5036.5 10.7143
5037.5 22.2857
5038.5 5.57143
5039.5 16.2857
5040.5 9.57143
5041.5 9.28571
5042.5 16.2857
5043.5 13.2857
5044.5 7.57143
5045.5 12.2857
5046.5 6.57143
5047.5 14
5048.5 14.1429
5049.5 21.7143
5050.5 12.5714
5051.5 4.57143
5052.5 20.1429
5053.5 11.2857
5054.5 20.7143
5055.5 11.4286
5056.5 9.85714
5057.5 14.2857
5058.5 3.42857
5059.5 7.57143
5060.5 4.42857
5061.5 17.8571
5062.5 39.8571
5063.5 59.7143
5064.5 94.8571
5065.5 120.714
5066.5 188.429
5067.5 284
5068.5 330.571
5069.5 379.571
5070.5 372.714
5071.5 268.286
5072.5 202.857
5073.5 129
5074.5 68.1429
5075.5 29.1429
5076.5 17
5077.5 21
5078.5 19.7143
5079.5 24.7143
5080.5 17.8571
5081.5 23.8571
5082.5 24
5083.5 13.8571
5084.5 13
5085.5 21.7143
5086.5 10.1429
5087.5 11.7143
5088.5 15.1429
5089.5 21.4286
5090.5 13.2857
5091.5 22.1429
5092.5 6.14286
5093.5 3
5094.5 16.7143
5095.5 30.7143
5096.5 12.8571
5097.5 10.5714
5098.5 24.7143
5099.5 17.5714
5100.5 10.7143
5101.5 0.285714
5102.5 4.57143
5103.5 11.1429
5104.5 19.5714
5105.5 9.28571
5106.5 12.7143
5107.5 22.2857
5108.5 10.7143
5109.5 20.8571
5110.5 12.2857
5111.5 19.7143
5112.5 20.2857
5113.5 26.2857
5114.5 12.8571
5115.5 13
5116.5 13.2857
5117.5 14.1429
5118.5 21.2857
5119.5 11.1429
5120.5 14.4286
5121.5 17.2857
5122.5 22.4286
5123.5 16.4286
5124.5 39
5125.5 16
5126.5 19
5127.5 7.57143
5128.5 22
5129.5 14.4286
5130.5 22.2857
5131.5 16.4286
5132.5 15.2857
5133.5 14.7143
5134.5 9.85714
5135.5 22.8571
5136.5 6.14286
5137.5 15.1429
5138.5 17.4286
5139.5 22.2857
5140.5 15.8571
5141.5 10.5714
5142.5 19
5143.5 18.8571
5144.5 9
5145.5 5.14286
5146.5 17.7143
5147.5 10.4286
5148.5 13.4286
5149.5 12.2857
5150.5 18.1429
5151.5 18.4286
5152.5 10.2857
5153.5 11.1429
5154.5 9.42857
5155.5 15.2857
5156.5 31
5157.5 32.1429
5158.5 4.85714
5159.5 10.7143
5160.5 21.2857
5161.5 7.14286
5162.5 18
5163.5 9.57143
5164.5 20.1429
5165.5 18
5166.5 38
5167.5 0.428571
5168.5 5.85714
5169.5 7.71429
5170.5 8.71429
5171.5 19.8571
5172.5 18.2857
5173.5 18.7143
5174.5 18.4286
5175.5 14.7143
5176.5 15.4286
5177.5 13.1429
5178.5 19.8571
5179.5 13.8571
5180.5 21.1429
5181.5 10.7143
5182.5 5.42857
5183.5 17.4286
5184.5 20.1429
5185.5 19.2857
5186.5 16.7143
5187.5 11.2857
5188.5 9.57143
5189.5 22.4286
5190.5 14
5191.5 8.71429
5192.5 13.5714
5193.5 23.4286
5194.5 21.5714
5195.5 11.7143
5196.5 18.1429
5197.5 1
5198.5 22.1429
5199.5 18.5714
5200.5 21.5714
5201.5 8.85714
5202.5 11.5714
5203.5 15.2857
5204.5 22.8571
5205.5 11.2857
5206.5 25.1429
5207.5 23.2857
5208.5 14.8571
5209.5 16.4286
5210.5 13.8571
5211.5 26.5714
5212.5 16.7143
5213.5 3.57143
5214.5 15.1429
5215.5 13.7143
5216.5 12.8571
5217.5 17.5714
5218.5 10.4286
5219.5 14.8571
5220.5 19.1429
5221.5 14.7143
5222.5 24.2857
5223.5 17
5224.5 12
5225.5 14.8571
5226.5 8.28571
5227.5 19.2857
5228.5 18.7143
5229.5 25.1429
5230.5 24.7143
5231.5 21
5232.5 13.8571
5233.5 8.42857
5234.5 9.57143
5235.5 16.4286
5236.5 11.8571
5237.5 21.4286
5238.5 12.1429
5239.5 17.7143
5240.5 20.4286
5241.5 9.28571
5242.5 16.1429
5243.5 15.7143
5244.5 17
5245.5 10
5246.5 23.2857
5247.5 20.5714
5248.5 10.2857
5249.5 19.4286
5250.5 14.8571
5251.5 16.8571
5252.5 9.85714
5253.5 16.2857
5254.5 19.7143
5255.5 21.2857
5256.5 16.7143
5257.5 24
5258.5 25.1429
5259.5 16.1429
5260.5 14.4286
5261.5 13
5262.5 21
5263.5 16.8571
5264.5 13
5265.5 28.1429
5266.5 11.8571
5267.5 8.28571
5268.5 17.1429
5269.5 14
5270.5 14.2857
5271.5 15.4286
5272.5 17
5273.5 21.5714
5274.5 8.28571
5275.5 16.4286
5276.5 8.71429
5277.5 27.1429
5278.5 20.2857
5279.5 11
5280.5 21.5714
5281.5 24.1429
5282.5 22.2857
5283.5 16.4286
5284.5 19.1429
5285.5 23.5714
5286.5 24.5714
5287.5 13.2857
5288.5 14.7143
5289.5 14.4286
5290.5 20.2857
5291.5 21
5292.5 18.1429
5293.5 19.4286
5294.5 18.2857
5295.5 6.85714
5296.5 6
5297.5 14.8571
5298.5 29.8571
5299.5 20.2857
5300.5 18.8571
5301.5 11.2857
5302.5 12.8571
5303.5 16.8571
5304.5 25.5714
5305.5 24.1429
5306.5 20.7143
5307.5 19.7143
5308.5 30.2857
5309.5 10.2857
5310.5 20.2857
5311.5 13.4286
5312.5 21.7143
5313.5 23.7143
5314.5 8.28571
5315.5 25.1429
5316.5 13.7143
5317.5 20.7143
5318.5 24.1429
5319.5 31.1429
5320.5 27.8571
5321.5 16.1429
5322.5 22.1429
5323.5 12.8571
5324.5 24.5714
5325.5 16.2857
5326.5 19.2857
5327.5 21
5328.5 35.1429
5329.5 26.4286
5330.5 21.7143
5331.5 23.2857
5332.5 7.14286
5333.5 22.7143
5334.5 30.5714
5335.5 15.7143
5336.5 14.1429
5337.5 20.2857
5338.5 14.4286
5339.5 10.8571
5340.5 21.2857
5341.5 21.2857
5342.5 21
5343.5 6.85714
5344.5 28.8571
5345.5 13.4286
5346.5 39.2857
5347.5 -15.7143
5348.5 17.7143
5349.5 31.8571
5350.5 -4.28572
5351.5 20
5352.5 -14.4286
5353.5 13.7143
5354.5 -1.66893e-06
5355.5 21.7143
5356.5 -17.5714
5357.5 18.8571
5358.5 13.7143
5359.5 25.5714
5360.5 11.5714
5361.5 6.42857
5362.5 37
5363.5 10.1429
5364.5 19.2857
5365.5 9.71429
5366.5 9.71429
5367.5 15.5714
5368.5 17.5714
5369.5 17.8571
5370.5 6.42857
5371.5 19.5714
5372.5 21.2857
5373.5 17.1429
5374.5 14.8571
5375.5 10.8571
5376.5 17.7143
5377.5 14.1429
5378.5 18.5714
5379.5 22.1429
5380.5 21.7143
5381.5 19
5382.5 30
5383.5 14.7143
5384.5 16.2857
5385.5 18.5714
5386.5 10.4286
5387.5 21.2857
5388.5 16
5389.5 11
5390.5 5.14286
5391.5 10
5392.5 21.2857
5393.5 12
5394.5 18.4286
5395.5 12.4286
5396.5 30.5714
5397.5 21.2857
5398.5 14.5714
5399.5 20.8571
5400.5 25.1429
5401.5 13
5402.5 11.1429
5403.5 20.1429
5404.5 12.2857
5405.5 26.5714
5406.5 22.1429
5407.5 3.14286
5408.5 11.5714
5409.5 15.2857
5410.5 16.1429
5411.5 13.1429
5412.5 16.1429
5413.5 17.1429
5414.5 11.7143
5415.5 8.14286
5416.5 8.85714
5417.5 3.57143
5418.5 23.7143
5419.5 19.1429
5420.5 6.85714
5421.5 11.1429
5422.5 15.2857
5423.5 17.2857
5424.5 17.2857
5425.5 8.57143
5426.5 7.14286
5427.5 11.7143
5428.5 7.71429
5429.5 11.2857
5430.5 5.28571
5431.5 19.1429
5432.5 12.7143
5433.5 15.5714
5434.5 11.2857
5435.5 11.7143
5436.5 15.5714
5437.5 19.5714
5438.5 18.1429
5439.5 11
5440.5 2.71429
5441.5 8.71429
5442.5 7.14286
5443.5 12
5444.5 13.5714
5445.5 17
5446.5 2.71429
5447.5 5.71429
5448.5 19.1429
5449.5 14.7143
5450.5 11.5714
5451.5 8.28571
5452.5 17.1429
5453.5 15
5454.5 7.42857
5455.5 11.2857
5456.5 10.8571
5457.5 19.1429
5458.5 9.42857
5459.5 5.14286
5460.5 10
5461.5 9.85714
5462.5 14.1429
5463.5 11.1429
5464.5 1.85714
5465.5 8.71429
5466.5 13.5714
5467.5 16.7143
5468.5 5.42857
5469.5 3.57143
5470.5 12.4286
5471.5 10
5472.5 5.71429
5473.5 0.428571
5474.5 8.42857
5475.5 13
5476.5 9.42857
5477.5 1.28571
5478.5 3.57143
5479.5 3.14286
5480.5 8.28571
5481.5 2.71429
5482.5 12.1429
5483.5 5.14286
5484.5 5.71429
5485.5 8.28571
5486.5 7.14286
5487.5 -3.57143
5488.5 9.28571
5489.5 10.7143
5490.5 1.71429
5491.5 -2.14286
5492.5 7.14286
5493.5 11
5494.5 2.28571
5495.5 11.7143
5496.5 4.28571
5497.5 2.57143
5498.5 9.71429
5499.5 1.71429
5500.5 7.71429
5501.5 4.57143
5502.5 7.28571
5503.5 3.28571
5504.5 5.71429
5505.5 5.14286
5506.5 2.28571
5507.5 -1.71429
5508.5 5.71429
5509.5 5.14286
5510.5 0.714286
5511.5 0.285714
5512.5 9.71429
5513.5 4.14286
5514.5 8
5515.5 10.7143
5516.5 15
5517.5 4.28571
5518.5 4.14286
5519.5 11
5520.5 0.428571
5521.5 5.85714
5522.5 11.5714
5523.5 3.71429
5524.5 4.28571
5525.5 8.28571
5526.5 -0.714286
5527.5 4.14286
5528.5 10.5714
5529.5 15
5530.5 2.71429
5531.5 8.57143
5532.5 5.71429
5533.5 4.14286
5534.5 3
5535.5 2.14286
5536.5 1.57143
5537.5 13.4286
5538.5 -0.857143
5539.5 -0.571429
5540.5 4.14286
5541.5 7.42857
5542.5 6.71429
5543.5 1
5544.5 7.71429
5545.5 -5.42857
5546.5 -0.571429
5547.5 10.1429
5548.5 12.5714
5549.5 7.57143
5550.5 11.1429
5551.5 4.71429
5552.5 12
5553.5 8
5554.5 3.71429
5555.5 14
5556.5 4.14286
5557.5 13
5558.5 4
5559.5 7.71429
5560.5 7.14286
5561.5 8.14286
5562.5 0.428571
5563.5 7.71429
5564.5 1.28571
5565.5 0.714286
5566.5 -2.71429
5567.5 1.42857
5568.5 1.28571
5569.5 5.14286
5570.5 9.71429
5571.5 12.5714
5572.5 24.1429
5573.5 19.1429
5574.5 60.8571
5575.5 108.571
5576.5 175.714
5577.5 262.143
5578.5 418.429
5579.5 576.143
5580.5 710.286
5581.5 831.286
5582.5 742.286
5583.5 581.857
5584.5 334.571
5585.5 166.143
5586.5 73
5587.5 21.4286
5588.5 30
5589.5 7.71429
5590.5 0.571428
5591.5 4.85714
5592.5 -0.428572
5593.5 4.71429
5594.5 6.28571
5595.5 5.71429
5596.5 6.57143
5597.5 4.71429
5598.5 2.14286
5599.5 2.57143
5600.5 2.57143
5601.5 1.57143
5602.5 4.28571
5603.5 3.57143
5604.5 -0.857143
5605.5 0.285714
5606.5 4.14286
5607.5 -0.285714
5608.5 3.57143
5609.5 -2.14286
5610.5 -1.14286
5611.5 5.14286
5612.5 7.57143
5613.5 -4.14286
5614.5 4.71429
5615.5 9.14286
5616.5 3.57143
5617.5 -2.28571
5618.5 1.14286
5619.5 -1.28571
5620.5 -5
5621.5 2.14286
5622.5 2.57143
5623.5 0.714286
5624.5 -1.14286
5625.5 -0.285714
5626.5 -2.28571
5627.5 -0.857143
5628.5 -1.71429
5629.5 -4.71429
5630.5 1.57143
5631.5 12
5632.5 -2.71429
5633.5 -1.28571
5634.5 0.285714
5635.5 3.57143
5636.5 4.14286
5637.5 0.714286
5638.5 4
5639.5 3
5640.5 1.14286
5641.5 1.14286
5642.5 1.14286
5643.5 1.71429
5644.5 -0.714286
5645.5 -2.28571
5646.5 1.57143
5647.5 4.14286
5648.5 0.142857
5649.5 -3.14286
5650.5 2.71429
5651.5 2.14286
5652.5 3.57143
5653.5 -1.28571
5654.5 -1.28571
5655.5 0.714286
5656.5 2.28571
5657.5 3.57143
5658.5 -1.71429
5659.5 9
5660.5 1
5661.5 -0.285714
5662.5 2.14286
5663.5 -0.428571
5664.5 3
5665.5 1.14286
5666.5 -4.71429
5667.5 -2.71429
5668.5 -2.28571
5669.5 -0.857143
5670.5 4.57143
5671.5 2.14286
5672.5 -3.28571
5673.5 5.14286
5674.5 0.571429
5675.5 -5.14286
5676.5 -1.14286
5677.5 -1.42857
5678.5 0.571429
5679.5 -5.14286
5680.5 1.71429
5681.5 -1.28571
5682.5 -1.85714
5683.5 4
5684.5 1.57143
5685.5 2.57143
5686.5 2.14286
5687.5 1.57143
5688.5 2.14286
5689.5 2
5690.5 -0.857143
5691.5 -2.28571
5692.5 -7.14286
5693.5 4.14286
5694.5 -1.28571
5695.5 3.14286
5696.5 -3.28571
5697.5 0
5698.5 2.57143
5699.5 3.14286
5700.5 0.571429
5701.5 3.57143
5702.5 -3.71429
5703.5 -0.285714
5704.5 6
5705.5 -5.57143
5706.5 -1.71429
5707.5 2.57143
5708.5 4.14286
5709.5 -3.57143
5710.5 5.14286
5711.5 -6.57143
5712.5 2.14286
5713.5 -5.57143
5714.5 6.71429
5715.5 2.28571
5716.5 1.71429
5717.5 -4.28571
5718.5 2.14286
5719.5 0.714286
5720.5 -3.28571
5721.5 1.14286
5722.5 2.71429
5723.5 -0.428571
5724.5 -4.14286
5725.5 3
5726.5 -2.28571
5727.5 3.14286
5728.5 -7.57143
5729.5 2.57143
5730.5 -0.857143
5731.5 4.57143
5732.5 -9
5733.5 -1.28571
5734.5 -2.71429
5735.5 -1.28571
5736.5 2
5737.5 1.71429
5738.5 3.28571
5739.5 1.14286
5740.5 4.57143
5741.5 2.71429
5742.5 0.285714
5743.5 -0.857143
5744.5 -2.14286
5745.5 2.14286
5746.5 2.14286
5747.5 -5.14286
5748.5 -3.28571
5749.5 1.71429
5750.5 0.142857
5751.5 -7.14286
5752.5 1.85714
5753.5 2.71429
5754.5 3.14286
5755.5 2
5756.5 8.57143
5757.5 1.28571
5758.5 9
5759.5 0.571429
5760.5 1.14286
5761.5 1.14286
5762.5 7.57143
5763.5 -3.14286
5764.5 1.57143
5765.5 -1.28571
5766.5 3.14286
5767.5 0.142857
5768.5 7
5769.5 -3.57143
5770.5 2.57143
5771.5 -4.14286
5772.5 6
5773.5 -5.57143
5774.5 -4.71429
5775.5 -2.71429
5776.5 3.28571
5777.5 0.142857
5778.5 1.14286
5779.5 1.14286
5780.5 -0.571429
5781.5 -3.28571
5782.5 0.714286
5783.5 7.57143
5784.5 2.28571
5785.5 -1.28571
5786.5 1.57143
5787.5 -2
5788.5 -5.14286
5789.5 -0.285714
5790.5 1.14286
5791.5 -1.71429
5792.5 3.57143
5793.5 2.14286
5794.5 2.57143
5795.5 4
5796.5 -2.57143
5797.5 7.57143
5798.5 5.14286
5799.5 0.714286
5800.5 3.14286
5801.5 2.14286
5802.5 0.714286
5803.5 -1.85714
5804.5 0.714286
5805.5 1.14286
5806.5 6
5807.5 2.71429
5808.5 -0.857143
5809.5 6.57143
5810.5 8
5811.5 -1.71429
5812.5 0.571429
5813.5 2
5814.5 4.71429
5815.5 -1.71429
5816.5 -1.14286
5817.5 3
5818.5 0.142857
5819.5 2.14286
5820.5 6
5821.5 -0.857143
5822.5 2.57143
5823.5 -3.71429
5824.5 4
5825.5 4
5826.5 3.57143
5827.5 1.71429
5828.5 4.57143
5829.5 5.14286
5830.5 3.28571
5831.5 1.28571
5832.5 0.714286
5833.5 4.57143
5834.5 2.14286
5835.5 -1.85714
5836.5 -2.28571
5837.5 -1.71429
5838.5 -1.28571
5839.5 1.71429
5840.5 -3.28571
5841.5 6.71429
5842.5 4.71429
5843.5 3
5844.5 1.14286
5845.5 4.57143
5846.5 5.14286
5847.5 -1.85714
5848.5 2.71429
5849.5 0.571429
5850.5 2
5851.5 3
5852.5 6
5853.5 2.14286
5854.5 -0.285714
5855.5 -0.857143
5856.5 -1.71429
5857.5 0.571429
5858.5 1.71429
5859.5 -2.85714
5860.5 0.571429
5861.5 -4.57143
5862.5 -0.857143
5863.5 2.57143
5864.5 0.142857
5865.5 -1.85714
5866.5 2.14286
5867.5 -0.857143
5868.5 0.571429
5869.5 2.14286
5870.5 -0.714286
5871.5 2.14286
5872.5 -1.85714
5873.5 0.571429
5874.5 4
5875.5 -3.28571
5876.5 -2.28571
5877.5 -0.285714
5878.5 -0.285714
5879.5 -0.714286
5880.5 -0.714286
5881.5 1.57143
5882.5 4
5883.5 -0.857143
5884.5 2.57143
5885.5 0.142857
5886.5 3.14286
5887.5 -3.28571
5888.5 -2.28571
5889.5 0.571429
5890.5 3.57143
5891.5 -2.28571
5892.5 -1.28571
5893.5 3.57143
5894.5 -0.714286
5895.5 4.57143
5896.5 -4.42857
5897.5 4.71429
5898.5 -0.142857
5899.5 2
5900.5 6.28571
5901.5 -5.42857
5902.5 3.57143
5903.5 -1
5904.5 3.14286
5905.5 3
5906.5 -1.14286
5907.5 -0.714286
5908.5 0.142857
5909.5 5.57143
5910.5 -3.28571
5911.5 -2.57143
5912.5 1.57143
5913.5 -5.71429
5914.5 0.714286
5915.5 1.14286
5916.5 -0.714286
5917.5 -2.85714
5918.5 0.571429
5919.5 -5.57143
5920.5 -3.71429
5921.5 -0.857143
5922.5 0.142857
5923.5 -2.71429
5924.5 -4.28571
5925.5 2.14286
5926.5 3.14286
5927.5 -1.28571
5928.5 -1.28571
5929.5 0.571429
5930.5 -2.71429
5931.5 -0.428571
5932.5 3
5933.5 3
5934.5 -4.14286
5935.5 4
5936.5 5
5937.5 -0.857143
5938.5 1.14286
5939.5 3.57143
5940.5 4.57143
5941.5 -3.28571
5942.5 6
5943.5 -0.857143
5944.5 -0.857143
5945.5 0.571429
5946.5 -0.857143
5947.5 2.57143
5948.5 -1.85714
5949.5 -7.57143
5950.5 -0.428571
5951.5 -2.28571
5952.5 -0.857143
5953.5 3.14286
5954.5 3.57143
5955.5 -1.42857
5956.5 3.57143
5957.5 0.285714
5958.5 -5.14286
5959.5 3
5960.5 9.71429
5961.5 0.857143
5962.5 1
5963.5 3
5964.5 -6.71429
5965.5 -2.42857
5966.5 13.4286
5967.5 5.42857
5968.5 -11
5969.5 4.42857
5970.5 15.5714
5971.5 -1.71429
5972.5 -5.71429
5973.5 1.28571
5974.5 -1
5975.5 -1.14286
5976.5 1.14286
5977.5 0.142857
5978.5 -1.85714
5979.5 -0.285714
5980.5 -2.71429
5981.5 0.571429
5982.5 2.57143
5983.5 0.714286
5984.5 6
5985.5 2.57143
5986.5 -7
5987.5 3.57143
5988.5 2.28571
5989.5 3.57143
5990.5 3.14286
5991.5 5.57143
5992.5 -0.285714
5993.5 1.14286
5994.5 1
5995.5 1.71429
5996.5 -1.71429
5997.5 -0.285714
5998.5 -5
5999.5 2.28571
6000.5 2.71429
6001.5 5.71429
6002.5 0.857143
6003.5 -2.71429
6004.5 -6
6005.5 4.57143
6006.5 1.28571
6007.5 2.57143
6008.5 2.71429
6009.5 -2.14286
6010.5 0.571429
6011.5 4.57143
6012.5 -0.857143
6013.5 0.571429
6014.5 4.57143
6015.5 -0.857143
6016.5 -4.14286
6017.5 5
6018.5 0.285714
6019.5 2.71429
6020.5 5.14286
6021.5 -1.28571
6022.5 -5.71429
6023.5 3.57143
6024.5 0.714286
6025.5 -0.285714
6026.5 2
6027.5 -1.85714
6028.5 2.14286
6029.5 0.142857
6030.5 3
6031.5 -5.14286
6032.5 -8.28571
6033.5 -0.714286
6034.5 7.14286
6035.5 -0.142857
6036.5 2.85714
6037.5 -0.285714
6038.5 -0.857143
6039.5 -3.28571
6040.5 -3.71429
6041.5 -0.714286
6042.5 -6.57143
6043.5 -2.71429
6044.5 -2.28571
6045.5 -4.14286
6046.5 1.28571
6047.5 3.71429
6048.5 2.57143
6049.5 1
6050.5 0.142857
6051.5 -2.85714
6052.5 -4.28571
6053.5 -1.71429
6054.5 -1.28571
6055.5 -1.71429
6056.5 -2.14286
6057.5 2
6058.5 -2.28571
6059.5 0.571429
6060.5 -0.857143
6061.5 1.14286
6062.5 1.57143
6063.5 2.57143
6064.5 0.142857
6065.5 3.57143
6066.5 1.28571
6067.5 4.14286
6068.5 -5.14286
6069.5 8
6070.5 4
6071.5 -1.85714
6072.5 -1.28571
6073.5 -8.85714
6074.5 -0.285714
6075.5 6.57143
6076.5 -3.28571
6077.5 1.57143
6078.5 2
6079.5 1.14286
6080.5 0.571429
6081.5 2.14286
6082.5 -4.71429
6083.5 3
6084.5 0.142857
6085.5 0.714286
6086.5 1
6087.5 2.14286
6088.5 4.57143
6089.5 2.14286
6090.5 -3.14286
6091.5 1.57143
6092.5 -3.14286
6093.5 5.57143
6094.5 2
6095.5 4.14286
6096.5 4
6097.5 -1.85714
6098.5 -3.71429
6099.5 -0.857143
6100.5 2.14286
6101.5 3
6102.5 -4.71429
6103.5 -0.714286
6104.5 -0.428571
6105.5 0.142857
6106.5 -2.28571
6107.5 4.57143
6108.5 2.14286
6109.5 -3.71429
6110.5 4.57143
6111.5 0.285714
6112.5 1.14286
6113.5 -6
6114.5 -3.14286
6115.5 -2.28571
6116.5 -0.285714
6117.5 1.14286
6118.5 0.714286
6119.5 7.14286
6120.5 0.142857
6121.5 -3.71429
6122.5 1.42857
6123.5 3.14286
6124.5 -4.57143
6125.5 7.14286
6126.5 6.57143
6127.5 1.71429
6128.5 -0.428571
6129.5 -4.28571
6130.5 2.14286
6131.5 2.57143
6132.5 -5
6133.5 -4.14286
6134.5 -7
6135.5 -0.285714
6136.5 3
6137.5 3.14286
6138.5 5
6139.5 1.57143
6140.5 2.14286
6141.5 -0.857143
6142.5 3.57143
6143.5 5.57143
6144.5 2.57143
6145.5 1.57143
6146.5 -0.285714
6147.5 -1.71429
6148.5 2.14286
6149.5 0.571429
6150.5 0.142857
6151.5 -2.71429
6152.5 0.571429
6153.5 -0.428571
6154.5 -1.85714
6155.5 1.14286
6156.5 1.14286
6157.5 7
6158.5 0.142857
6159.5 3.57143
6160.5 1
6161.5 -0.857143
6162.5 -0.142857
6163.5 -2.14286
6164.5 3
6165.5 4
6166.5 2.57143
6167.5 -0.285714
6168.5 -0.857143
6169.5 7.57143
6170.5 -2.28571
6171.5 -2.71429
6172.5 2
6173.5 -0.857143
6174.5 -0.714286
6175.5 -1.85714
6176.5 -1.85714
6177.5 -0.857143
6178.5 -3.71429
6179.5 0.142857
6180.5 -2.71429
6181.5 0.142857
6182.5 1.57143
6183.5 -1.28571
6184.5 2.14286
6185.5 -1.71429
6186.5 3.71429
6187.5 0.571429
6188.5 3.57143
6189.5 3.57143
6190.5 -1.42857
6191.5 4.57143
6192.5 -0.285714
6193.5 -1.28571
6194.5 -5.57143
6195.5 5.57143
6196.5 -1.71429
6197.5 -5.14286
6198.5 1
6199.5 1.57143
6200.5 6.14286
6201.5 5
6202.5 0.142857
6203.5 7.57143
6204.5 -3.14286
6205.5 8.14286
6206.5 3
6207.5 -0.857143
6208.5 -3.71429
6209.5 2.57143
6210.5 1.14286
6211.5 0.142857
6212.5 3.71429
6213.5 6.57143
6214.5 -0.285714
6215.5 2
6216.5 0.571429
6217.5 2.14286
6218.5 -4.14286
6219.5 3.57143
6220.5 -4.71429
6221.5 -0.857143
6222.5 -0.428571
6223.5 3.57143
6224.5 -2.14286
6225.5 8.14286
6226.5 3.85714
6227.5 3.71429
6228.5 3.57143
6229.5 2.57143
6230.5 2.71429
6231.5 3.57143
6232.5 -2.14286
6233.5 2.14286
6234.5 -1.28571
6235.5 -5.14286
6236.5 -0.714286
6237.5 0.714286
6238.5 0.142857
6239.5 1.57143
6240.5 -0.857143
6241.5 -1.28571
6242.5 -4.71429
6243.5 2.28571
6244.5 2.14286
6245.5 -0.857143
6246.5 2.57143
6247.5 -0.714286
6248.5 4.57143
6249.5 -2.28571
6250.5 -1.42857
6251.5 3.57143
6252.5 0.142857
6253.5 0.571429
6254.5 -1.14286
6255.5 -2
6256.5 4.14286
6257.5 -0.428571
6258.5 5
6259.5 -0.285714
6260.5 6
6261.5 -4.14286
6262.5 0.571429
6263.5 0.571429
6264.5 -1.28571
6265.5 -1.28571
6266.5 2.57143
6267.5 -5.14286
6268.5 0.571429
6269.5 -0.857143
6270.5 -1.28571
6271.5 0.142857
6272.5 5
6273.5 1.14286
6274.5 1.57143
6275.5 -5.14286
6276.5 -0.857143
6277.5 -2.28571
6278.5 3.14286
6279.5 -3.28571
6280.5 -4.71429
6281.5 0.142857
6282.5 2.57143
6283.5 3
6284.5 1.57143
6285.5 -0.714286
6286.5 -1.28571
6287.5 3.57143
6288.5 2.57143
6289.5 -4.28571
6290.5 3
6291.5 -0.714286
6292.5 -1.71429
6293.5 -2.85714
6294.5 -3.14286
6295.5 0.571429
6296.5 0.142857
6297.5 2.57143
6298.5 4
6299.5 0.142857
6300.5 0.571429
6301.5 1.57143
6302.5 1.71429
6303.5 -0.285714
6304.5 0
6305.5 -0.428571
6306.5 4.14286
6307.5 -2.28571
6308.5 2.57143
6309.5 0.571429
6310.5 2.14286
6311.5 1
6312.5 2.14286
6313.5 4
6314.5 -2.28571
6315.5 4.71429
6316.5 2.28571
6317.5 3
6318.5 1.57143
6319.5 -3.71429
6320.5 -1.71429
6321.5 3.57143
6322.5 -2.28571
6323.5 4.57143
6324.5 -5.71429
6325.5 1.71429
6326.5 0.142857
6327.5 4.57143
6328.5 0.142857
6329.5 1.14286
6330.5 1.14286
6331.5 -0.857143
6332.5 -0.428571
6333.5 1.71429
6334.5 -2.28571
6335.5 -0.285714
6336.5 5
6337.5 -0.428571
6338.5 -2.28571
6339.5 -4.71429
6340.5 2
6341.5 -0.857143
6342.5 -4.28571
6343.5 2.14286
6344.5 -0.857143
6345.5 5
6346.5 2.57143
6347.5 2
6348.5 1
6349.5 -2.85714
6350.5 -1.85714
6351.5 2.57143
6352.5 0.571429
6353.5 1.57143
6354.5 5
6355.5 -0.428571
6356.5 -0.714286
6357.5 0
6358.5 0.142857
6359.5 2
6360.5 -0.857143
6361.5 0.571429
6362.5 -1.85714
6363.5 -3.28571
6364.5 2
6365.5 -2.85714
6366.5 1.57143
6367.5 0
6368.5 2
6369.5 2
6370.5 0.142857
6371.5 2
6372.5 -2.85714
6373.5 -0.428571
6374.5 -2.85714
6375.5 -0.428571
6376.5 -2.28571
6377.5 0
6378.5 2
6379.5 1.57143
6380.5 2
6381.5 1
6382.5 -2.28571
6383.5 -6.57143
6384.5 1
6385.5 0.571429
6386.5 -2.85714
6387.5 -1.42857
6388.5 -0.857143
6389.5 0.571429
6390.5 4
6391.5 -1.28571
6392.5 0.571429
6393.5 -1.85714
6394.5 0.571429
6395.5 0
6396.5 3.57143
6397.5 2
6398.5 -6.14286
6399.5 5
6400.5 -0.857143
6401.5 2
6402.5 5
6403.5 0.571429
6404.5 2
6405.5 2
6406.5 0.571429
6407.5 2.57143
6408.5 -0.428571
6409.5 1
6410.5 -0.857143
6411.5 -0.428571
6412.5 0
6413.5 -1.42857
6414.5 0.571429
6415.5 2
6416.5 1.57143
6417.5 2
6418.5 1.14286
6419.5 2.57143
6420.5 0.714286
6421.5 3
6422.5 6.14286
6423.5 2.57143
6424.5 1.57143
6425.5 -0.857143
6426.5 0.571429
6427.5 1
6428.5 -1.85714
6429.5 -0.857143
6430.5 2
6431.5 -1.85714
6432.5 0
6433.5 2
6434.5 -4.71429
6435.5 2.14286
6436.5 -1.42857
6437.5 -1.85714
6438.5 -0.428571
6439.5 -0.428571
6440.5 3
6441.5 -2.85714
6442.5 -1.85714
6443.5 1
6444.5 3
6445.5 2
6446.5 0.571429
6447.5 -4.28571
6448.5 2
6449.5 1.57143
6450.5 -0.428571
6451.5 2
6452.5 1
6453.5 0.571429
6454.5 1
6455.5 0.571429
6456.5 0
6457.5 0.571429
6458.5 -1.42857
6459.5 -0.428571
6460.5 -2.28571
6461.5 0
6462.5 2
6463.5 -0.857143
6464.5 -0.428571
6465.5 -1.85714
6466.5 1
6467.5 0.571429
6468.5 2.57143
6469.5 3
6470.5 -1.71429
6471.5 0.285714
6472.5 -3
6473.5 10
6474.5 -2.14286
6475.5 1.71428
6476.5 -0.428573
6477.5 1.57143
6478.5 25.7143
6479.5 8
6480.5 -8.85715
6481.5 28.2857
6482.5 8.57143
6483.5 7.71429
6484.5 7.28571
6485.5 3
6486.5 -0.285714
6487.5 -6.14286
6488.5 -0.428571
6489.5 3
6490.5 -4.28571
6491.5 -0.428571
6492.5 -0.428571
6493.5 2
6494.5 0.571429
6495.5 0
6496.5 1
6497.5 4
6498.5 2
6499.5 1
6500.5 0
6501.5 0
6502.5 0
6503.5 -1.42857
6504.5 4
6505.5 -1.42857
6506.5 1
6507.5 1
6508.5 0
6509.5 0
6510.5 0.571429
6511.5 0
6512.5 -1.42857
6513.5 1
6514.5 1
6515.5 2
6516.5 -2.85714
6517.5 1
6518.5 1
6519.5 1
6520.5 1
6521.5 1
6522.5 -1.42857
6523.5 0
6524.5 0.571429
6525.5 -0.428571
6526.5 3
6527.5 -0.428571
6528.5 0
6529.5 0
6530.5 2
6531.5 0
6532.5 -1.42857
6533.5 1
6534.5 0
6535.5 0
6536.5 0
6537.5 0
6538.5 1
6539.5 1
6540.5 -0.428571
6541.5 -2.85714
6542.5 0.571429
6543.5 -2.71429
6544.5 2
6545.5 1.57143
6546.5 3.14286
6547.5 1.14286
6548.5 1
6549.5 2.57143
6550.5 2
6551.5 2
6552.5 -1.42857
6553.5 0
6554.5 1
6555.5 -1.42857
6556.5 2
6557.5 -0.428571
6558.5 1
6559.5 1.57143
6560.5 2
6561.5 -2.85714
6562.5 2
6563.5 0.571429
6564.5 2
6565.5 -1.42857
6566.5 1
6567.5 -0.428571
6568.5 -2.28571
6569.5 0.571429
6570.5 1
6571.5 0
6572.5 1
6573.5 -3.28571
6574.5 1
6575.5 1
6576.5 0
6577.5 0
6578.5 0
6579.5 0
6580.5 0
6581.5 0
6582.5 -1.42857
6583.5 2
6584.5 2
6585.5 -1.42857
6586.5 0
6587.5 0
6588.5 0
6589.5 0
6590.5 2
6591.5 0.571429
6592.5 0
6593.5 -0.428571
6594.5 0
6595.5 0
6596.5 0
6597.5 0
6598.5 -1.85714
6599.5 -2.28571
6600.5 0.714286
6601.5 2
6602.5 -0.857143
6603.5 -1.42857
6604.5 -0.857143
6605.5 1
6606.5 0
6607.5 0
6608.5 0
6609.5 1
6610.5 0
6611.5 1
6612.5 0
6613.5 -1.42857
6614.5 -1.42857
6615.5 2
6616.5 2
6617.5 0
6618.5 0
6619.5 -1.42857
6620.5 0
6621.5 -2.28571
6622.5 0
6623.5 3
6624.5 1.57143
6625.5 0.571429
6626.5 -1.42857
6627.5 0
6628.5 -1.42857
6629.5 0
6630.5 0
6631.5 1
6632.5 1
6633.5 0
6634.5 -0.428571
6635.5 -0.428571
6636.5 -4.28571
6637.5 1
6638.5 0
6639.5 -1.42857
6640.5 0
6641.5 -1.42857
6642.5 0
6643.5 0
6644.5 -1.42857
6645.5 1
6646.5 1
6647.5 -0.428571
6648.5 -0.428571
6649.5 -0.428571
6650.5 -0.428571
6651.5 -1.85714
6652.5 -0.428571
6653.5 -3.28571
6654.5 1
6655.5 -0.428571
6656.5 -1.42857
6657.5 1
6658.5 0
6659.5 0
6660.5 0
6661.5 0
6662.5 1
6663.5 0
6664.5 -2.85714
6665.5 1
6666.5 -1.42857
6667.5 1.57143
6668.5 1
6669.5 0.571429
6670.5 0
6671.5 1
6672.5 1
6673.5 -1.42857
6674.5 -0.428571
6675.5 0
6676.5 0
6677.5 0
6678.5 1
6679.5 0
6680.5 0
6681.5 0
6682.5 1
6683.5 0
6684.5 -1.42857
6685.5 -1.42857
6686.5 -1.85714
6687.5 0
6688.5 0
6689.5 0
6690.5 1
6691.5 0
6692.5 0.571429
6693.5 -0.428571
6694.5 1
6695.5 0
6696.5 2
6697.5 1
6698.5 -1.42857
6699.5 0
6700.5 1
6701.5 -0.428571
6702.5 1
6703.5 0
6704.5 -0.428571
6705.5 -0.428571
6706.5 1
6707.5 3
6708.5 3
6709.5 1
6710.5 0
6711.5 1
6712.5 0
6713.5 0
6714.5 0
6715.5 0.571429
6716.5 -0.428571
6717.5 0
6718.5 0
6719.5 -1.42857
6720.5 0
6721.5 0
6722.5 0
6723.5 1
6724.5 1
6725.5 -1.42857
6726.5 -0.428571
6727.5 -0.428571
6728.5 1
6729.5 -1.85714
6730.5 -1.42857
6731.5 1.57143
6732.5 -0.428571
6733.5 1.57143
6734.5 1
6735.5 -2.28571
6736.5 3
6737.5 2
6738.5 3
6739.5 1.57143
6740.5 2
6741.5 1
6742.5 -1.42857
6743.5 0
6744.5 -0.428571
6745.5 2
6746.5 1
6747.5 0
6748.5 0
6749.5 -0.428571
6750.5 0
6751.5 0
6752.5 0.571429
6753.5 -0.428571
6754.5 2
6755.5 0
6756.5 -2.85714
6757.5 0
6758.5 0
6759.5 1
6760.5 0
6761.5 2
6762.5 0
6763.5 1
6764.5 1.57143
6765.5 0
6766.5 0
6767.5 0
6768.5 1
6769.5 -2.28571
6770.5 4
6771.5 2
6772.5 -0.428571
6773.5 3
6774.5 0
6775.5 3
6776.5 0
6777.5 1
6778.5 -0.428571
6779.5 0
6780.5 0
6781.5 0
6782.5 0
6783.5 0.571429
6784.5 -0.428571
6785.5 0
6786.5 3
6787.5 0
6788.5 1
6789.5 1
6790.5 1
6791.5 -0.428571
6792.5 1
6793.5 1
6794.5 1
6795.5 0
6796.5 -1.42857
6797.5 0
6798.5 0.571429
6799.5 0
6800.5 -1.42857
6801.5 0
6802.5 -2.85714
6803.5 1
6804.5 0
6805.5 -0.428571
6806.5 0
6807.5 -1.42857
6808.5 1
6809.5 0
6810.5 0
6811.5 1
6812.5 1
6813.5 -1.42857
6814.5 -1.42857
6815.5 1
6816.5 -2.85714
6817.5 0
6818.5 1
6819.5 1
6820.5 -1.42857
6821.5 0
6822.5 0
6823.5 -1.42857
6824.5 -0.428571
6825.5 0
6826.5 1
6827.5 -0.428571
6828.5 0
6829.5 1
6830.5 0
6831.5 2
6832.5 1
6833.5 -1.85714
6834.5 0
6835.5 0.571429
6836.5 1
6837.5 0
6838.5 -1.42857
6839.5 0
6840.5 -1.42857
6841.5 2
6842.5 0
6843.5 0
6844.5 -1.42857
6845.5 0
6846.5 -1.85714
6847.5 -0.428571
6848.5 1
6849.5 0
6850.5 0
6851.5 0
6852.5 1
6853.5 0
6854.5 0
6855.5 -1.42857
6856.5 -2.85714
6857.5 0.571429
6858.5 0
6859.5 0
6860.5 2
6861.5 -1.42857
6862.5 1
6863.5 1
6864.5 -1.42857
6865.5 0.571429
6866.5 -3.28571
6867.5 0
6868.5 1
6869.5 1
6870.5 0
6871.5 0
6872.5 0
6873.5 1
6874.5 0
6875.5 1
6876.5 0
6877.5 0
6878.5 1
6879.5 1
6880.5 2.57143
6881.5 0
6882.5 0
6883.5 1
6884.5 -0.428571
6885.5 1
6886.5 -1.42857
6887.5 0
6888.5 3
6889.5 -1.42857
6890.5 1
6891.5 -1.85714
6892.5 1
6893.5 2
6894.5 0
6895.5 0
6896.5 2
6897.5 1
6898.5 0
6899.5 1
6900.5 -0.428571
6901.5 3
6902.5 -0.428571
6903.5 3
6904.5 0
6905.5 1
6906.5 -1.42857
6907.5 0.571429
6908.5 -0.428571
6909.5 0.571429
6910.5 0
6911.5 -1.42857
6912.5 -0.428571
6913.5 0
6914.5 0
6915.5 -1.42857
6916.5 1
6917.5 2
6918.5 0
6919.5 0
6920.5 0
6921.5 1
6922.5 0
6923.5 0
6924.5 1
6925.5 0
6926.5 0
6927.5 0
6928.5 0
6929.5 1
6930.5 2
6931.5 -0.428571
6932.5 0
6933.5 0.571429
6934.5 1
6935.5 0
6936.5 1
6937.5 2
6938.5 0
6939.5 2
6940.5 1
6941.5 0
6942.5 1
6943.5 0
6944.5 1
6945.5 0
6946.5 0
6947.5 0
6948.5 0
6949.5 1
6950.5 0
6951.5 1
6952.5 0
6953.5 1
6954.5 -1.85714
6955.5 2
6956.5 0
6957.5 1
6958.5 0
6959.5 0
6960.5 2
6961.5 0
6962.5 0
6963.5 -2.85714
6964.5 0
6965.5 0
6966.5 0
6967.5 -1.42857
6968.5 -0.428571
6969.5 0
6970.5 -1.42857
6971.5 0
6972.5 1
6973.5 -1.42857
6974.5 0
6975.5 2
6976.5 0
6977.5 0
6978.5 -2.85714
6979.5 -0.428571
6980.5 0
6981.5 1
6982.5 0
6983.5 0
6984.5 0
6985.5 1
6986.5 1
6987.5 1
6988.5 1
6989.5 -1.85714
6990.5 1
6991.5 1
6992.5 0
6993.5 0
6994.5 0
6995.5 0
6996.5 1
6997.5 -1.42857
6998.5 0
6999.5 0
7000.5 2
7001.5 -1.42857
7002.5 1
7003.5 2
7004.5 -0.428571
7005.5 -0.428571
7006.5 3
7007.5 0
7008.5 0
7009.5 0
7010.5 0
7011.5 1
7012.5 0
7013.5 0
7014.5 0.571429
7015.5 0
7016.5 -1.42857
7017.5 0
7018.5 -0.428571
7019.5 0
7020.5 0
7021.5 -1.42857
7022.5 0
7023.5 0
7024.5 0
7025.5 1
7026.5 1
7027.5 0
7028.5 0
7029.5 -0.428571
7030.5 -0.428571
7031.5 0
7032.5 -1.42857
7033.5 0
7034.5 0
7035.5 0
7036.5 1
7037.5 0
7038.5 0
7039.5 1
7040.5 0
7041.5 -0.428571
7042.5 1
7043.5 0
7044.5 1
7045.5 -1.42857
7046.5 -1.85714
7047.5 -1.42857
7048.5 0
7049.5 1
7050.5 1
7051.5 0
7052.5 0
7053.5 0
7054.5 0
7055.5 0
7056.5 0
7057.5 0
7058.5 -1.42857
7059.5 0
7060.5 -1.42857
7061.5 0
7062.5 0
7063.5 -1.42857
7064.5 0
7065.5 1
7066.5 0
7067.5 1
7068.5 -1.42857
7069.5 1
7070.5 -0.428571
7071.5 0
7072.5 0
7073.5 1
7074.5 1
7075.5 1
7076.5 -1.42857
7077.5 -0.428571
7078.5 3
7079.5 3
7080.5 1
7081.5 0
7082.5 0
7083.5 0
7084.5 -1.42857
7085.5 0
7086.5 1
7087.5 0
7088.5 1
7089.5 0
7090.5 1
7091.5 0
7092.5 1
7093.5 0
7094.5 0
7095.5 -1.42857
7096.5 1
7097.5 -0.428571
7098.5 0
7099.5 1
7100.5 2
7101.5 -1.42857
7102.5 1
7103.5 1
7104.5 0
7105.5 0
7106.5 1
7107.5 1
7108.5 0
7109.5 2
7110.5 1
7111.5 -1.42857
7112.5 0
7113.5 -0.428571
7114.5 -1.42857
7115.5 0
7116.5 -1.42857
7117.5 1
7118.5 0
7119.5 2
7120.5 1
7121.5 1
7122.5 1
7123.5 1
7124.5 -1.42857
7125.5 1
7126.5 0
7127.5 0
7128.5 0
7129.5 1
7130.5 1
7131.5 -1.42857
7132.5 1
7133.5 -1.42857
7134.5 0
7135.5 0
7136.5 1
7137.5 1
7138.5 1
7139.5 0
7140.5 0
7141.5 0
7142.5 0
7143.5 1
7144.5 0
7145.5 0
7146.5 1
7147.5 1
7148.5 -0.428571
7149.5 -1.42857
7150.5 2
7151.5 -1.42857
7152.5 0
7153.5 1
7154.5 0
7155.5 0
7156.5 -2.85714
7157.5 -1.42857
7158.5 0
7159.5 0
7160.5 1
7161.5 0
7162.5 -1.42857
7163.5 -1.42857
7164.5 2
7165.5 0.571429
7166.5 0
7167.5 0
7168.5 0
7169.5 0
7170.5 0
7171.5 0
7172.5 0
7173.5 -1.42857
7174.5 0
7175.5 0
7176.5 1
7177.5 0
7178.5 0
7179.5 1
7180.5 1
7181.5 0
7182.5 0
7183.5 1
7184.5 0
7185.5 0
7186.5 0
7187.5 0
7188.5 2
7189.5 0.571429
7190.5 0
7191.5 0
7192.5 0
7193.5 1
7194.5 -0.428571
7195.5 -1.85714
7196.5 0
7197.5 -1.42857
7198.5 0
7199.5 0
7200.5 -0.428571
7201.5 1
7202.5 -1.42857
7203.5 0
7204.5 1
7205.5 0
7206.5 -1.42857
7207.5 3
7208.5 -0.428571
7209.5 2
7210.5 -1.42857
7211.5 2
7212.5 1
7213.5 3
7214.5 -1.42857
7215.5 -0.428571
7216.5 0
7217.5 0
7218.5 4
7219.5 0
7220.5 -1.42857
7221.5 0
7222.5 0
7223.5 0
7224.5 0
7225.5 1
7226.5 -1.42857
7227.5 1
7228.5 0
7229.5 1
7230.5 0
7231.5 0
7232.5 -0.428571
7233.5 -1.42857
7234.5 0
7235.5 0
7236.5 0
7237.5 0
7238.5 1
7239.5 -1.85714
7240.5 1
7241.5 0
7242.5 -1.42857
7243.5 1
7244.5 -1.42857
7245.5 -3.28571
7246.5 0
7247.5 -1.42857
7248.5 0
7249.5 2
7250.5 0
7251.5 0
7252.5 1
7253.5 1
7254.5 -1.85714
7255.5 0
7256.5 0
7257.5 2
7258.5 3
7259.5 1
7260.5 1
7261.5 0
7262.5 -0.428571
7263.5 -1.42857
7264.5 1
7265.5 0.571429
7266.5 -0.428571
7267.5 0
7268.5 0
7269.5 0
7270.5 -0.428571
7271.5 1
7272.5 2
7273.5 -0.428571
7274.5 -0.428571
7275.5 0
7276.5 -0.428571
7277.5 0
7278.5 0
7279.5 1
7280.5 0
7281.5 0
7282.5 -0.428571
7283.5 1
7284.5 0
7285.5 0
7286.5 3
7287.5 2
7288.5 -2.85714
7289.5 0
7290.5 0
7291.5 0
7292.5 0
7293.5 1
7294.5 -1.42857
7295.5 2
7296.5 -1.42857
7297.5 1.57143
7298.5 1
7299.5 -0.428571
7300.5 0
7301.5 0
7302.5 1
7303.5 0
7304.5 -1.42857
7305.5 1
7306.5 1
7307.5 -1.42857
7308.5 1
7309.5 1
7310.5 -0.428571
7311.5 -0.428571
7312.5 1
7313.5 0
7314.5 0
7315.5 0
7316.5 0
7317.5 1
7318.5 2
7319.5 -1.42857
7320.5 1
7321.5 1
7322.5 -2.85714
7323.5 0
7324.5 0
7325.5 0
7326.5 0
7327.5 0
7328.5 0
7329.5 0
7330.5 1
7331.5 1
7332.5 1
7333.5 0
7334.5 1
7335.5 1
7336.5 1
7337.5 0
7338.5 0
7339.5 0
7340.5 -1.42857
7341.5 0
7342.5 1
7343.5 0
7344.5 0
7345.5 0.571429
7346.5 0
7347.5 0
7348.5 -1.42857
7349.5 1
7350.5 0
7351.5 0
7352.5 1
7353.5 -1.42857
7354.5 2
7355.5 1
7356.5 0
7357.5 1
7358.5 0
7359.5 1
7360.5 -0.428571
7361.5 -1.42857
7362.5 1
7363.5 0
7364.5 -0.428571
7365.5 1
7366.5 1
7367.5 2
7368.5 0
7369.5 0
7370.5 0
7371.5 0
7372.5 0
7373.5 0
7374.5 0
7375.5 0
7376.5 0
7377.5 -1.42857
7378.5 0
7379.5 2
7380.5 1
7381.5 0
7382.5 2
7383.5 -1.42857
7384.5 0
7385.5 -1.42857
7386.5 0
7387.5 0
7388.5 1
7389.5 0
7390.5 0
7391.5 0
7392.5 0
7393.5 0
7394.5 2
7395.5 0
7396.5 1
7397.5 0
7398.5 2
7399.5 1
7400.5 1
7401.5 0
7402.5 1
7403.5 0
7404.5 1
7405.5 0
7406.5 0
7407.5 -2.85714
7408.5 0
7409.5 1
7410.5 -1.42857
7411.5 1
7412.5 0
7413.5 1
7414.5 4
7415.5 0
7416.5 -1.85714
7417.5 2.57143
7418.5 -4.28571
7419.5 1
7420.5 0
7421.5 1
7422.5 -1.42857
7423.5 -1.85714
7424.5 0
7425.5 -1.42857
7426.5 0
7427.5 1
7428.5 -1.42857
7429.5 0.571429
7430.5 0
7431.5 0
7432.5 1
7433.5 1
7434.5 1
7435.5 0
7436.5 0
7437.5 1
7438.5 0
7439.5 -1.42857
7440.5 0
7441.5 2
7442.5 -1.42857
7443.5 0
7444.5 0
7445.5 0
7446.5 0
7447.5 0
7448.5 0
7449.5 1
7450.5 1.57143
7451.5 0.571429
7452.5 0
7453.5 0
7454.5 0
7455.5 0
7456.5 -1.42857
7457.5 0
7458.5 0
7459.5 1
7460.5 1
7461.5 1
7462.5 2
7463.5 -2.85714
7464.5 0
7465.5 0
7466.5 0.571429
7467.5 -1.85714
7468.5 0
7469.5 1
7470.5 0
7471.5 -1.42857
7472.5 0
7473.5 1
7474.5 0
7475.5 0
7476.5 0
7477.5 0
7478.5 0
7479.5 0
7480.5 0
7481.5 -1.42857
7482.5 0
7483.5 1
7484.5 1
7485.5 0
7486.5 1
7487.5 0
7488.5 0
7489.5 0
7490.5 -1.42857
7491.5 0
7492.5 1
7493.5 0
7494.5 1
7495.5 0
7496.5 0
7497.5 0
7498.5 0
7499.5 0
7500.5 0
7501.5 0
7502.5 -1.42857
7503.5 0
7504.5 1
7505.5 0
7506.5 0
7507.5 1
7508.5 -0.428571
7509.5 0
7510.5 0
7511.5 1
7512.5 2
7513.5 0
7514.5 0
7515.5 0
7516.5 1
7517.5 0
7518.5 0
7519.5 -1.42857
7520.5 0
7521.5 -1.42857
7522.5 1
7523.5 1
7524.5 1
7525.5 0
7526.5 0
7527.5 1
7528.5 1
7529.5 0
7530.5 0
7531.5 0
7532.5 1
7533.5 0
7534.5 0
7535.5 0
7536.5 0
7537.5 -1.42857
7538.5 0
7539.5 2
7540.5 0
7541.5 1
7542.5 1
7543.5 0
7544.5 1
7545.5 0
7546.5 0.571429
7547.5 1
7548.5 0
7549.5 0
7550.5 2
7551.5 0
7552.5 0
7553.5 0
7554.5 -0.428571
7555.5 0
7556.5 0
7557.5 0
7558.5 1
7559.5 0
7560.5 0
7561.5 -0.428571
7562.5 -1.42857
7563.5 0
7564.5 1
7565.5 -1.42857
7566.5 -1.42857
7567.5 0
7568.5 0
7569.5 1
7570.5 -1.42857
7571.5 -1.42857
7572.5 -0.428571
7573.5 1
7574.5 0
7575.5 0
7576.5 1
7577.5 0
7578.5 -1.42857
7579.5 0
7580.5 0
7581.5 0
7582.5 1
7583.5 2
7584.5 0
7585.5 -1.42857
7586.5 0
7587.5 -1.42857
7588.5 -1.42857
7589.5 1
7590.5 0
7591.5 0
7592.5 1
7593.5 0
7594.5 0
7595.5 0
7596.5 0
7597.5 0
7598.5 0
7599.5 1
7600.5 2
7601.5 0
7602.5 1
7603.5 1
7604.5 0
7605.5 0
7606.5 -1.42857
7607.5 0
7608.5 0
7609.5 -1.42857
7610.5 0
7611.5 1
7612.5 0
7613.5 1
7614.5 0
7615.5 0
7616.5 0
7617.5 1
7618.5 -0.428571
7619.5 1
7620.5 0
7621.5 1
7622.5 0
7623.5 0
7624.5 0
7625.5 1
7626.5 0
7627.5 -1.42857
7628.5 1
7629.5 0
7630.5 0
7631.5 0
7632.5 2
7633.5 1
7634.5 1
7635.5 1
7636.5 1
7637.5 -4.28571
7638.5 2
7639.5 0
7640.5 0
7641.5 -0.428571
7642.5 0
7643.5 0
7644.5 1
7645.5 1
7646.5 -1.42857
7647.5 0
7648.5 1
7649.5 0
7650.5 0
7651.5 1
7652.5 0
7653.5 1
7654.5 1
7655.5 1
7656.5 1
7657.5 0
7658.5 -1.42857
7659.5 0
7660.5 0
7661.5 0
7662.5 0
7663.5 -0.428571
7664.5 0
7665.5 0
7666.5 -1.42857
7667.5 0
7668.5 0
7669.5 0
7670.5 0
7671.5 1
7672.5 0
7673.5 0
7674.5 0
7675.5 2
7676.5 0
7677.5 1
7678.5 0
7679.5 1
7680.5 0
7681.5 -1.42857
7682.5 1
7683.5 0
7684.5 0
7685.5 0
7686.5 0
7687.5 -1.42857
7688.5 0
7689.5 1
7690.5 -0.428571
7691.5 0
7692.5 0
7693.5 0
7694.5 0
7695.5 0
7696.5 1
7697.5 -1.42857
7698.5 1
7699.5 0
7700.5 0
7701.5 -2.85714
7702.5 0
7703.5 -1.42857
7704.5 0
7705.5 0
7706.5 1
7707.5 0
7708.5 2
7709.5 0
7710.5 0
7711.5 0
7712.5 0
7713.5 0
7714.5 0
7715.5 0
7716.5 -0.428571
7717.5 0
7718.5 1
7719.5 0
7720.5 1
7721.5 -1.42857
7722.5 3
7723.5 2
7724.5 1
7725.5 1
7726.5 0
7727.5 0
7728.5 0
7729.5 0
7730.5 0
7731.5 0
7732.5 0
7733.5 -0.428571
7734.5 0
7735.5 1
7736.5 0
7737.5 0
7738.5 0
7739.5 0
7740.5 0
7741.5 0
7742.5 1
7743.5 2
7744.5 -1.42857
7745.5 1
7746.5 0
7747.5 0
7748.5 0
7749.5 0
7750.5 0
7751.5 1
7752.5 0
7753.5 0
7754.5 -1.42857
7755.5 1
7756.5 0
7757.5 0
7758.5 0
7759.5 0
7760.5 0
7761.5 0
7762.5 0
7763.5 0
7764.5 0
7765.5 1
7766.5 1
7767.5 1
7768.5 -1.42857
7769.5 0.571429
7770.5 4
7771.5 0.571429
7772.5 0.571429
7773.5 1
7774.5 0
7775.5 0
7776.5 -1.85714
7777.5 0
7778.5 1
7779.5 0
7780.5 0
7781.5 0
7782.5 0
7783.5 0
7784.5 1
7785.5 0
7786.5 0
7787.5 -0.428571
7788.5 1
7789.5 -0.428571
7790.5 0
7791.5 0
7792.5 0.571429
7793.5 0
7794.5 1
7795.5 0
7796.5 0
7797.5 1
7798.5 0
7799.5 1
7800.5 0
7801.5 0
7802.5 0
7803.5 0
7804.5 0
7805.5 0
7806.5 0
7807.5 0
7808.5 0
7809.5 -0.428571
7810.5 0
7811.5 1
7812.5 0
7813.5 0
7814.5 1
7815.5 0
7816.5 0
7817.5 0.571429
7818.5 0
7819.5 0
7820.5 0
7821.5 0
7822.5 -0.428571
7823.5 2
7824.5 1
7825.5 1.57143
7826.5 1
7827.5 -1.85714
7828.5 0
7829.5 0
7830.5 2
7831.5 0
7832.5 0
7833.5 0
7834.5 -0.428571
7835.5 2.57143
7836.5 0
7837.5 0
7838.5 1
7839.5 0
7840.5 0
7841.5 0
7842.5 0
7843.5 0
7844.5 0
7845.5 0
7846.5 0
7847.5 0
7848.5 0
7849.5 3
7850.5 0
7851.5 -1.42857
7852.5 0
7853.5 0
7854.5 1
7855.5 -1.42857
7856.5 0
7857.5 1
7858.5 0
7859.5 0
7860.5 0
7861.5 0
7862.5 0
7863.5 0
7864.5 0
7865.5 0
7866.5 -0.428571
7867.5 0
7868.5 0
7869.5 -2.85714
7870.5 0
7871.5 0
7872.5 0
7873.5 0
7874.5 1
7875.5 2
7876.5 -1.42857
7877.5 0
7878.5 0
7879.5 0
7880.5 0
7881.5 0
7882.5 0
7883.5 -1.42857
7884.5 0
7885.5 0
7886.5 0
7887.5 0
7888.5 0
7889.5 0
7890.5 0
7891.5 0
7892.5 0
7893.5 0
7894.5 0
7895.5 0
7896.5 0
7897.5 0
7898.5 0
7899.5 0
7900.5 1
7901.5 0
7902.5 1
7903.5 0
7904.5 0
7905.5 0
7906.5 0
7907.5 0
7908.5 1
7909.5 1
7910.5 0
7911.5 0
7912.5 1
7913.5 1
7914.5 -1.42857
7915.5 -1.42857
7916.5 1
7917.5 0
7918.5 0
7919.5 0
7920.5 -0.428571
7921.5 0
7922.5 0
7923.5 0
7924.5 0
7925.5 2
7926.5 0
7927.5 0
7928.5 -1.42857
7929.5 0
7930.5 0
7931.5 0
7932.5 0
7933.5 -1.42857
7934.5 0
7935.5 0
7936.5 0
7937.5 0
7938.5 0
7939.5 0
7940.5 0
7941.5 0
7942.5 0
7943.5 0
7944.5 0
7945.5 0
7946.5 0
7947.5 0
7948.5 0
7949.5 0
7950.5 1
7951.5 0
7952.5 1
7953.5 1
7954.5 1
7955.5 0
7956.5 0
7957.5 1
7958.5 0
7959.5 2
7960.5 0
7961.5 0
7962.5 0
7963.5 0
7964.5 0
7965.5 0
7966.5 -1.42857
7967.5 -1.42857
7968.5 1
7969.5 1
7970.5 0
7971.5 0
7972.5 0
7973.5 0
7974.5 0
7975.5 1
7976.5 0
7977.5 -0.428571
7978.5 0
7979.5 0
7980.5 0
7981.5 -0.428571
7982.5 -1.42857
7983.5 1
7984.5 -1.85714
7985.5 0
7986.5 1
7987.5 2
7988.5 1
7989.5 0
7990.5 0
7991.5 -1.42857
7992.5 -1.42857
7993.5 0
7994.5 1
7995.5 -1.42857
7996.5 0
7997.5 0
7998.5 1
7999.5 -1.42857
8000.5 0
8001.5 0
8002.5 2
8003.5 1
8004.5 0
8005.5 0
8006.5 1
8007.5 0
8008.5 -2.85714
8009.5 0
8010.5 0
8011.5 0
8012.5 -2.85714
8013.5 0
8014.5 -1.42857
8015.5 0
8016.5 -1.42857
8017.5 0
8018.5 0
8019.5 0
8020.5 0
8021.5 0
8022.5 0
8023.5 0
8024.5 0
8025.5 0
8026.5 0
8027.5 0
8028.5 0
8029.5 0
8030.5 -1.42857
8031.5 0
8032.5 0
8033.5 0
8034.5 0
8035.5 0
8036.5 0
8037.5 0
8038.5 0
8039.5 0
8040.5 0
8041.5 0
8042.5 0
8043.5 0
8044.5 0
8045.5 0
8046.5 0
8047.5 0
8048.5 -1.42857
8049.5 0
8050.5 0
8051.5 0
8052.5 0
8053.5 0
8054.5 0
8055.5 0
8056.5 0
8057.5 0
8058.5 0
8059.5 0
8060.5 0
8061.5 0
8062.5 1
8063.5 0
8064.5 0
8065.5 0
8066.5 0
8067.5 0
8068.5 0
8069.5 -1.42857
8070.5 0
8071.5 0
8072.5 0
8073.5 0
8074.5 0
8075.5 -2.85714
8076.5 0
8077.5 0
8078.5 0
8079.5 0
8080.5 0
8081.5 0
8082.5 -1.42857
8083.5 1
8084.5 1
8085.5 0
8086.5 2
8087.5 0
8088.5 0
8089.5 0
8090.5 0
8091.5 1
8092.5 -0.428571
8093.5 0
8094.5 0
8095.5 0
8096.5 0
8097.5 0
8098.5 1
8099.5 0
8100.5 -1.42857
8101.5 0
8102.5 1
8103.5 0
8104.5 0
8105.5 0
8106.5 0
8107.5 1
8108.5 0
8109.5 0
8110.5 0
8111.5 -1.42857
8112.5 0
8113.5 0
8114.5 0
8115.5 0
8116.5 0
8117.5 0
8118.5 1
8119.5 0
8120.5 1
8121.5 0
8122.5 0
8123.5 0
8124.5 0
8125.5 0
8126.5 0
8127.5 0
8128.5 1
8129.5 0
8130.5 0
8131.5 0
8132.5 0
8133.5 -1.42857
8134.5 0
8135.5 0
8136.5 0
8137.5 0
8138.5 0
8139.5 0
8140.5 0
8141.5 0
8142.5 0
8143.5 0
8144.5 0
8145.5 0
8146.5 1
8147.5 0
8148.5 0
8149.5 0
8150.5 0
8151.5 0
8152.5 0
8153.5 1
8154.5 0
8155.5 1
8156.5 -1.42857
8157.5 -1.42857
8158.5 -1.42857
8159.5 0
8160.5 0
8161.5 1
8162.5 0
8163.5 0
8164.5 0
8165.5 0
8166.5 -1.42857
8167.5 0
8168.5 1
8169.5 0
8170.5 0
8171.5 0
8172.5 -1.42857
8173.5 0
8174.5 1
8175.5 0
8176.5 1
8177.5 1
8178.5 0
8179.5 0
8180.5 0
8181.5 0
8182.5 0
8183.5 -1.42857
8184.5 0
8185.5 0
8186.5 0
8187.5 0
8188.5 0
8189.5 0
8190.5 0
8191.5 0
8192.5 -1.42857
8193.5 0
8194.5 0
8195.5 0
8196.5 0
8197.5 0
8198.5 0
8199.5 0
8200.5 0
8201.5 0
8202.5 0
8203.5 0
8204.5 0
8205.5 0
8206.5 0
8207.5 0
8208.5 -1.42857
8209.5 0
8210.5 1
8211.5 0
8212.5 0
8213.5 0
8214.5 0
8215.5 0
8216.5 1
8217.5 0
8218.5 -1.42857
8219.5 0
8220.5 0
8221.5 0
8222.5 0
8223.5 0
8224.5 0
8225.5 -0.428571
8226.5 0
8227.5 0
8228.5 0
8229.5 0
8230.5 0
8231.5 0
8232.5 0
8233.5 0
8234.5 0
8235.5 0
8236.5 0
8237.5 0
8238.5 0
8239.5 0
8240.5 1
8241.5 0
8242.5 0
8243.5 0
8244.5 1
8245.5 1
8246.5 0
8247.5 0
8248.5 0
8249.5 0
8250.5 0
8251.5 0
8252.5 1
8253.5 1
8254.5 0
8255.5 1
8256.5 1
8257.5 0
8258.5 0
8259.5 0
8260.5 1
8261.5 0
8262.5 0
8263.5 0
8264.5 0
8265.5 0
8266.5 0
8267.5 0
8268.5 1
8269.5 0
8270.5 0
8271.5 0
8272.5 0
8273.5 0
8274.5 0
8275.5 0
8276.5 0
8277.5 0
8278.5 0
8279.5 0
8280.5 -1.42857
8281.5 1
8282.5 0
8283.5 0
8284.5 -1.42857
8285.5 0
8286.5 -1.42857
8287.5 0
8288.5 0
8289.5 0
8290.5 0
8291.5 0
8292.5 1
8293.5 0
8294.5 1
8295.5 1
8296.5 0
8297.5 0
8298.5 0
8299.5 1
8300.5 0
8301.5 0
8302.5 0
8303.5 0
8304.5 0
8305.5 0
8306.5 0
8307.5 0
8308.5 0
8309.5 0
8310.5 -1.42857
8311.5 0
8312.5 0
8313.5 0
8314.5 0
8315.5 0
8316.5 0
8317.5 0
8318.5 0
8319.5 0
8320.5 0
8321.5 0
8322.5 0
8323.5 0
8324.5 0
8325.5 0
8326.5 0
8327.5 0
8328.5 0
8329.5 0
8330.5 0
8331.5 0
8332.5 0
8333.5 1
8334.5 0
8335.5 0
8336.5 1
8337.5 0
8338.5 0
8339.5 0
8340.5 0
8341.5 0
8342.5 0
8343.5 0
8344.5 0
8345.5 0
8346.5 0
8347.5 0
8348.5 0
8349.5 0
8350.5 1
8351.5 0
8352.5 0
8353.5 0
8354.5 -0.428571
8355.5 0
8356.5 -1.42857
8357.5 0
8358.5 0
8359.5 0
8360.5 0
8361.5 0
8362.5 0
8363.5 1
8364.5 -2.85714
8365.5 0
8366.5 0
8367.5 0
8368.5 0
8369.5 0
8370.5 0
8371.5 0
8372.5 0
8373.5 0
8374.5 0
8375.5 0
8376.5 0
8377.5 0
8378.5 0
8379.5 0
8380.5 0
8381.5 0
8382.5 0
8383.5 -1.42857
8384.5 0
8385.5 0
8386.5 0
8387.5 0
8388.5 -1.42857
8389.5 0
8390.5 0
8391.5 1
8392.5 0
8393.5 0
8394.5 0
8395.5 0
8396.5 0
8397.5 0
8398.5 0
8399.5 0
8400.5 0
8401.5 1
8402.5 1
8403.5 0
8404.5 0
8405.5 0
8406.5 0
8407.5 0
8408.5 0
8409.5 0
8410.5 0
8411.5 0
8412.5 0
8413.5 0
8414.5 0
8415.5 0
8416.5 0
8417.5 0
8418.5 0
8419.5 0
8420.5 0
8421.5 1
8422.5 0
8423.5 0
8424.5 0
8425.5 1
8426.5 0
8427.5 1
8428.5 0
8429.5 0
8430.5 1
8431.5 0
8432.5 0
8433.5 0
8434.5 1
8435.5 0
8436.5 0
8437.5 0
8438.5 0
8439.5 0
8440.5 -1.42857
8441.5 0
8442.5 0
8443.5 0
8444.5 0
8445.5 -1.42857
8446.5 0
8447.5 0
8448.5 0
8449.5 0
8450.5 0
8451.5 1
8452.5 0
8453.5 0
8454.5 0
8455.5 0
8456.5 0
8457.5 0
8458.5 0
8459.5 0
8460.5 0
8461.5 -1.42857
8462.5 0
8463.5 0
8464.5 0
8465.5 0
8466.5 0
8467.5 2
8468.5 0
8469.5 0
8470.5 0
8471.5 0
8472.5 0
8473.5 1
8474.5 0
8475.5 0
8476.5 1
8477.5 0
8478.5 0
8479.5 0
8480.5 1
8481.5 0
8482.5 0
8483.5 0
8484.5 0
8485.5 0
8486.5 0
8487.5 1
8488.5 0
8489.5 0
8490.5 1
8491.5 -1.42857
8492.5 0
8493.5 1
8494.5 0
8495.5 0
8496.5 0
8497.5 0
8498.5 0
8499.5 0
8500.5 0
8501.5 0
8502.5 0
8503.5 -1.42857
8504.5 1
8505.5 -0.428571
8506.5 0
8507.5 0
8508.5 0
8509.5 0
8510.5 0
8511.5 0
8512.5 0
8513.5 0
8514.5 0
8515.5 0
8516.5 -1.42857
8517.5 0
8518.5 0
8519.5 0
8520.5 0
8521.5 0
8522.5 0
8523.5 0
8524.5 0
8525.5 0
8526.5 0
8527.5 1
8528.5 1
8529.5 -0.428571
8530.5 0
8531.5 0
8532.5 0
8533.5 1
8534.5 1
8535.5 0
8536.5 0
8537.5 0
8538.5 0
8539.5 0
8540.5 0
8541.5 0
8542.5 0
8543.5 0
8544.5 0
8545.5 0
8546.5 0
8547.5 0
8548.5 0
8549.5 0
8550.5 0
8551.5 0
8552.5 0
8553.5 0
8554.5 0
8555.5 0
8556.5 0
8557.5 0
8558.5 0
8559.5 -1.42857
8560.5 0
8561.5 0
8562.5 1
8563.5 0
8564.5 0
8565.5 0
8566.5 0
8567.5 0
8568.5 0
8569.5 0
8570.5 0
8571.5 0
8572.5 1
8573.5 1
8574.5 0
8575.5 0
8576.5 0
8577.5 0
8578.5 0
8579.5 0
8580.5 0
8581.5 0
8582.5 0
8583.5 0
8584.5 0
8585.5 0
8586.5 1
8587.5 0
8588.5 0
8589.5 0
8590.5 0
8591.5 0
8592.5 0
8593.5 0
8594.5 1
8595.5 0
8596.5 0
8597.5 0
8598.5 0
8599.5 0
8600.5 0
8601.5 0
8602.5 0
8603.5 -1.42857
8604.5 0
8605.5 0
8606.5 0
8607.5 1
8608.5 0
8609.5 0
8610.5 1
8611.5 0
8612.5 1
8613.5 0
8614.5 1
8615.5 0
8616.5 0
8617.5 1
8618.5 0
8619.5 0
8620.5 1
8621.5 0
8622.5 1
8623.5 1
8624.5 0
8625.5 0
8626.5 0
8627.5 0
8628.5 0
8629.5 0
8630.5 0
8631.5 0
8632.5 0
8633.5 0
8634.5 0
8635.5 0
8636.5 0
8637.5 0
8638.5 0
8639.5 0
8640.5 0
8641.5 0
8642.5 2
8643.5 0
8644.5 0
8645.5 0
8646.5 0
8647.5 0
8648.5 0
8649.5 0
8650.5 0
8651.5 0
8652.5 0
8653.5 0
8654.5 1
8655.5 0
8656.5 0
8657.5 0
8658.5 0
8659.5 0
8660.5 0
8661.5 0
8662.5 0
8663.5 0
8664.5 0
8665.5 0
8666.5 0
8667.5 0
8668.5 0
8669.5 0
8670.5 0
8671.5 0
8672.5 0
8673.5 0
8674.5 0
8675.5 0
8676.5 1
8677.5 0
8678.5 0
8679.5 0
8680.5 0
8681.5 0
8682.5 0
8683.5 1
8684.5 0
8685.5 -1.42857
8686.5 1
8687.5 0
8688.5 0
8689.5 0
8690.5 0
8691.5 0
8692.5 0
8693.5 0
8694.5 1
8695.5 0
8696.5 1
8697.5 0
8698.5 0
8699.5 1
8700.5 0
8701.5 0
8702.5 1
8703.5 0
8704.5 0
8705.5 0
8706.5 0
8707.5 0
8708.5 1
8709.5 0
8710.5 1
8711.5 0
8712.5 1
8713.5 0
8714.5 0
8715.5 0
8716.5 0
8717.5 0
8718.5 0
8719.5 0
8720.5 0
8721.5 0
8722.5 1
8723.5 0
8724.5 1
8725.5 0
8726.5 -1.42857
8727.5 0
8728.5 0
8729.5 1
8730.5 0
8731.5 1
8732.5 0
8733.5 0
8734.5 0
8735.5 0
8736.5 0
8737.5 -1.42857
8738.5 1
8739.5 0
8740.5 1
8741.5 0
8742.5 0
8743.5 0
8744.5 0
8745.5 1
8746.5 0
8747.5 0
8748.5 0
8749.5 0
8750.5 1
8751.5 0
8752.5 0
8753.5 0
8754.5 0
8755.5 0
8756.5 0
8757.5 1
8758.5 0
8759.5 0
8760.5 0
8761.5 0
8762.5 0
8763.5 0
8764.5 0
8765.5 0
8766.5 0
8767.5 0
8768.5 0
8769.5 0
8770.5 0
8771.5 0
8772.5 0
8773.5 1
8774.5 0
8775.5 1
8776.5 -1.42857
8777.5 0
8778.5 0
8779.5 -0.428571
8780.5 0
8781.5 0
8782.5 0
8783.5 0
8784.5 0
8785.5 -1.42857
8786.5 1
8787.5 0
8788.5 0
8789.5 0
8790.5 1
8791.5 0
8792.5 0
8793.5 0
8794.5 0
8795.5 0
8796.5 0
8797.5 0
8798.5 0
8799.5 0
8800.5 0
8801.5 0
8802.5 0
8803.5 0
8804.5 0
8805.5 0
8806.5 0
8807.5 1
8808.5 0
8809.5 0
8810.5 0
8811.5 1
8812.5 0
8813.5 0
8814.5 0
8815.5 1
8816.5 1
8817.5 1
8818.5 0
8819.5 0
8820.5 0
8821.5 0
8822.5 0
8823.5 0
8824.5 1
8825.5 0
8826.5 0
8827.5 0
8828.5 0
8829.5 -1.42857
8830.5 0
8831.5 0
8832.5 1
8833.5 0
8834.5 0
8835.5 0
8836.5 0
8837.5 0
8838.5 0
8839.5 0
8840.5 0
8841.5 0
8842.5 0
8843.5 1
8844.5 0
8845.5 0
8846.5 1
8847.5 -1.42857
8848.5 0
8849.5 0
8850.5 1
8851.5 0
8852.5 0
8853.5 0
8854.5 0
8855.5 0
8856.5 0
8857.5 0
8858.5 0
8859.5 0
8860.5 0
8861.5 0
8862.5 -1.42857
8863.5 1
8864.5 2
8865.5 0
8866.5 0
8867.5 0
8868.5 -1.42857
8869.5 -1.42857
8870.5 0
8871.5 0
8872.5 0
8873.5 0
8874.5 0
8875.5 0
8876.5 0
8877.5 1
8878.5 0
8879.5 0
8880.5 1
8881.5 0
8882.5 0
8883.5 0
8884.5 0
8885.5 0
8886.5 0
8887.5 0
8888.5 -1.42857
8889.5 0
8890.5 0
8891.5 1
8892.5 0
8893.5 0
8894.5 0
8895.5 0
8896.5 1
8897.5 -1.42857
8898.5 0
8899.5 0
8900.5 -1.42857
8901.5 0
8902.5 0
8903.5 0
8904.5 0
8905.5 0
8906.5 0
8907.5 0
8908.5 0
8909.5 0
8910.5 0
8911.5 0
8912.5 0
8913.5 0
8914.5 0
8915.5 0
8916.5 -1.42857
8917.5 0
8918.5 0
8919.5 0
8920.5 0
8921.5 1
8922.5 2
8923.5 0
8924.5 0
8925.5 0
8926.5 1
8927.5 1
8928.5 0
8929.5 0
8930.5 1
8931.5 0
8932.5 0
8933.5 0
8934.5 1
8935.5 0
8936.5 0
8937.5 0
8938.5 0
8939.5 0
8940.5 0
8941.5 0
8942.5 0
8943.5 0
8944.5 0
8945.5 0
8946.5 0
8947.5 0
8948.5 0
8949.5 0
8950.5 -1.85714
8951.5 0
8952.5 0
8953.5 1
8954.5 1
8955.5 0
8956.5 0
8957.5 1
8958.5 0
8959.5 0
8960.5 0
8961.5 -1.42857
8962.5 0
8963.5 1
8964.5 0
8965.5 0
8966.5 0
8967.5 -1.42857
8968.5 0
8969.5 0
8970.5 0
8971.5 0
8972.5 0
8973.5 0
8974.5 0
8975.5 0
8976.5 0
8977.5 0
8978.5 1
8979.5 0
8980.5 0
8981.5 0
8982.5 0
8983.5 0
8984.5 0
8985.5 0
8986.5 0
8987.5 0
8988.5 0
8989.5 0
8990.5 0
8991.5 0
8992.5 -1.42857
8993.5 0
8994.5 0
8995.5 0
8996.5 0
8997.5 0
8998.5 0
8999.5 1
9000.5 0
9001.5 0
9002.5 1
9003.5 0
9004.5 -1.42857
9005.5 0
9006.5 0
9007.5 0
9008.5 0
9009.5 0
9010.5 0
9011.5 0
9012.5 0
9013.5 -1.42857
9014.5 0
9015.5 0
9016.5 0
9017.5 0
9018.5 0
9019.5 0
9020.5 0
9021.5 0
9022.5 0
9023.5 0
9024.5 0
9025.5 0
9026.5 0
9027.5 0
9028.5 0
9029.5 0
9030.5 0
9031.5 0
9032.5 0
9033.5 0
9034.5 0
9035.5 0
9036.5 0
9037.5 0
9038.5 0
9039.5 0
9040.5 0
9041.5 0
9042.5 0
9043.5 0
9044.5 0
9045.5 -0.428571
9046.5 0
9047.5 1
9048.5 0
9049.5 0
9050.5 0
9051.5 0
9052.5 0
9053.5 0
9054.5 0
9055.5 0
9056.5 0
9057.5 0
9058.5 0
9059.5 0
9060.5 0
9061.5 0
9062.5 0
9063.5 0
9064.5 0
9065.5 0
9066.5 0
9067.5 0
9068.5 -1.42857
9069.5 0
9070.5 0
9071.5 0
9072.5 0
9073.5 0
9074.5 0
9075.5 0
9076.5 0
9077.5 0
9078.5 -1.42857
9079.5 -1.42857
9080.5 0
9081.5 0
9082.5 0
9083.5 0
9084.5 0
9085.5 0
9086.5 0
9087.5 0
9088.5 0
9089.5 0
9090.5 0
9091.5 0
9092.5 0
9093.5 0
9094.5 0
9095.5 0
9096.5 0
9097.5 0
9098.5 0
9099.5 0
9100.5 0
9101.5 -1.42857
9102.5 0
9103.5 0
9104.5 1
9105.5 0
9106.5 0
9107.5 0
9108.5 0
9109.5 0
9110.5 0
9111.5 0
9112.5 -0.428571
9113.5 0
9114.5 0
9115.5 0
9116.5 0
9117.5 0
9118.5 -1.42857
9119.5 0
9120.5 1
9121.5 0
9122.5 0
9123.5 0
9124.5 0
9125.5 0
9126.5 0
9127.5 0
9128.5 0
9129.5 0
9130.5 2
9131.5 0
9132.5 -1.42857
9133.5 0
9134.5 0
9135.5 -1.42857
9136.5 0
9137.5 0
9138.5 0
9139.5 0
9140.5 0
9141.5 0
9142.5 0
9143.5 0
9144.5 0
9145.5 0
9146.5 0
9147.5 0
9148.5 0
9149.5 1
9150.5 0
9151.5 0
9152.5 0
9153.5 -1.85714
9154.5 0
9155.5 0
9156.5 0
9157.5 0
9158.5 1
9159.5 0
9160.5 0
9161.5 0
9162.5 0
9163.5 0
9164.5 0
9165.5 0
9166.5 0
9167.5 0
9168.5 0
9169.5 1
9170.5 0
9171.5 0
9172.5 0
9173.5 0
9174.5 0
9175.5 0
9176.5 0
9177.5 1
9178.5 0
9179.5 0
9180.5 1
9181.5 0
9182.5 0
9183.5 0
9184.5 0
9185.5 0
9186.5 0
9187.5 0
9188.5 0
9189.5 0
9190.5 -2.85714
9191.5 2
9192.5 0
9193.5 0
9194.5 0
9195.5 1
9196.5 0
9197.5 0
9198.5 0
9199.5 0
9200.5 1
9201.5 0
9202.5 0
9203.5 0
9204.5 0
9205.5 0
9206.5 0
9207.5 1
9208.5 0
9209.5 0
9210.5 0
9211.5 0
9212.5 0
9213.5 0
9214.5 0
9215.5 0
9216.5 0
9217.5 0
9218.5 0
9219.5 0
9220.5 0
9221.5 0
9222.5 1
9223.5 0
9224.5 0
9225.5 0
9226.5 0
9227.5 0
9228.5 0
9229.5 -1.42857
9230.5 0
9231.5 0
9232.5 0
9233.5 0
9234.5 0
9235.5 0
9236.5 0
9237.5 -1.42857
9238.5 0
9239.5 0
9240.5 0
9241.5 0
9242.5 0
9243.5 1
9244.5 0
9245.5 0
9246.5 1
9247.5 0
9248.5 0
9249.5 0
9250.5 0
9251.5 0
9252.5 0
9253.5 0
9254.5 0
9255.5 0
9256.5 -1.42857
9257.5 0
9258.5 0
9259.5 0
9260.5 0
9261.5 0
9262.5 0
9263.5 1
9264.5 0
9265.5 0
9266.5 0
9267.5 0
9268.5 0
9269.5 0
9270.5 0
9271.5 0
9272.5 -1.42857
9273.5 0
9274.5 0
9275.5 0
9276.5 0
9277.5 0
9278.5 0
9279.5 0
9280.5 -1.42857
9281.5 0
9282.5 0
9283.5 0
9284.5 -1.42857
9285.5 0
9286.5 0
9287.5 0
9288.5 0
9289.5 -1.42857
9290.5 0
9291.5 0
9292.5 0
9293.5 0
9294.5 0
9295.5 0
9296.5 0
9297.5 0
9298.5 0
9299.5 0
9300.5 0
9301.5 0
9302.5 0
9303.5 0
9304.5 0
9305.5 0
9306.5 0
9307.5 0
9308.5 0
9309.5 0
9310.5 0
9311.5 0
9312.5 0
9313.5 0
9314.5 0
9315.5 0
9316.5 0
9317.5 0
9318.5 1
9319.5 0
9320.5 0
9321.5 0
9322.5 1
9323.5 0
9324.5 1
9325.5 0
9326.5 0
9327.5 0
9328.5 0
9329.5 0
9330.5 0
9331.5 0
9332.5 0
9333.5 -1.42857
9334.5 0
9335.5 0
9336.5 0
9337.5 1
9338.5 0
9339.5 0
9340.5 0
9341.5 0
9342.5 0
9343.5 0
9344.5 0
9345.5 0
9346.5 0
9347.5 0
9348.5 0
9349.5 0
9350.5 0
9351.5 0
9352.5 0
9353.5 0
9354.5 0
9355.5 0
9356.5 1
9357.5 0
9358.5 0
9359.5 0
9360.5 0
9361.5 0
9362.5 0
9363.5 0
9364.5 0
9365.5 0
9366.5 1
9367.5 0
9368.5 0
9369.5 0
9370.5 1
9371.5 0
9372.5 0
9373.5 0
9374.5 0
9375.5 0
9376.5 0
9377.5 0
9378.5 0
9379.5 0
9380.5 0
9381.5 1
9382.5 0
9383.5 0
9384.5 0
9385.5 0
9386.5 0
9387.5 0
9388.5 0
9389.5 0
9390.5 0
9391.5 0
9392.5 0
9393.5 -1.42857
9394.5 0
9395.5 0
9396.5 1
9397.5 0
9398.5 -1.42857
9399.5 0
9400.5 -1.42857
9401.5 0
9402.5 0
9403.5 1
9404.5 1
9405.5 0
9406.5 0
9407.5 -1.42857
9408.5 0
9409.5 0
9410.5 0
9411.5 0
9412.5 0
9413.5 -1.42857
9414.5 0
9415.5 0
9416.5 0
9417.5 0
9418.5 0
9419.5 0
9420.5 0
9421.5 0
9422.5 0
9423.5 0
9424.5 0
9425.5 0
9426.5 0
9427.5 0
9428.5 0
9429.5 1
9430.5 0
9431.5 0
9432.5 0
9433.5 0
9434.5 0
9435.5 0
9436.5 -1.42857
9437.5 0
9438.5 0
9439.5 0
9440.5 0
9441.5 0
9442.5 1
9443.5 -1.42857
9444.5 0
9445.5 0
9446.5 0
9447.5 0
9448.5 0
9449.5 0
9450.5 0
9451.5 0
9452.5 0
9453.5 0
9454.5 0
9455.5 0
9456.5 0
9457.5 0
9458.5 0
9459.5 0
9460.5 0
9461.5 0
9462.5 0
9463.5 0
9464.5 0
9465.5 0
9466.5 0
9467.5 0
9468.5 0
9469.5 0
9470.5 0
9471.5 -1.42857
9472.5 1
9473.5 0
9474.5 0
9475.5 0
9476.5 0
9477.5 0
9478.5 -1.42857
9479.5 1
9480.5 0
9481.5 0
9482.5 0
9483.5 0
9484.5 0
9485.5 0
9486.5 0
9487.5 1
9488.5 0
9489.5 1
9490.5 0
9491.5 0
9492.5 0
9493.5 0
9494.5 0
9495.5 0
9496.5 1
9497.5 0
9498.5 0
9499.5 0
9500.5 0
9501.5 0
9502.5 0
9503.5 0
9504.5 0
9505.5 1
9506.5 1
9507.5 0
9508.5 0
9509.5 0
9510.5 0
9511.5 0
9512.5 0
9513.5 0
9514.5 0
9515.5 0
9516.5 0
9517.5 0
9518.5 0
9519.5 0
9520.5 0
9521.5 0
9522.5 0
9523.5 0
9524.5 0
9525.5 0
9526.5 0
9527.5 0
9528.5 0
9529.5 0
9530.5 0
9531.5 1
9532.5 0
9533.5 0
9534.5 0
9535.5 0
9536.5 0
9537.5 0
9538.5 0
9539.5 0
9540.5 -1.42857
9541.5 1
9542.5 0
9543.5 0
9544.5 0
9545.5 0
9546.5 0
9547.5 0
9548.5 0
9549.5 -0.428571
9550.5 0
9551.5 0
9552.5 0
9553.5 0
9554.5 0
9555.5 0
9556.5 0
9557.5 0
9558.5 0
9559.5 0
9560.5 2
9561.5 0
9562.5 0
9563.5 0
9564.5 0
9565.5 0
9566.5 0
9567.5 0
9568.5 0
9569.5 0
9570.5 0
9571.5 0
9572.5 0
9573.5 0
9574.5 0
9575.5 0
9576.5 0
9577.5 0
9578.5 0
9579.5 0
9580.5 0
9581.5 0
9582.5 0
9583.5 1
9584.5 0
9585.5 0
9586.5 0
9587.5 1
9588.5 0
9589.5 0
9590.5 0
9591.5 0
9592.5 0
9593.5 0
9594.5 0
9595.5 0
9596.5 0
9597.5 0
9598.5 0
9599.5 0
9600.5 0
9601.5 0
9602.5 0
9603.5 0
9604.5 0
9605.5 0
9606.5 0
9607.5 0
9608.5 0
9609.5 -1.42857
9610.5 0
9611.5 0
9612.5 0
9613.5 0
9614.5 0
9615.5 0
9616.5 0
9617.5 0
9618.5 0
9619.5 0
9620.5 0
9621.5 0
9622.5 0
9623.5 0
9624.5 0
9625.5 0
9626.5 0
9627.5 0
9628.5 0
9629.5 0
9630.5 0
9631.5 0
9632.5 -1.42857
9633.5 0
9634.5 0
9635.5 0
9636.5 0
9637.5 0
9638.5 0
9639.5 0
9640.5 0
9641.5 0
9642.5 0
9643.5 1
9644.5 0
9645.5 0
9646.5 0
9647.5 0
9648.5 0
9649.5 0
9650.5 0
9651.5 0
9652.5 1
9653.5 0
9654.5 0
9655.5 0
9656.5 0
9657.5 0
9658.5 0
9659.5 0
9660.5 0
9661.5 0
9662.5 0
9663.5 -1.42857
9664.5 -1.42857
9665.5 0
9666.5 0
9667.5 0
9668.5 0
9669.5 0
9670.5 0
9671.5 0
9672.5 0
9673.5 1
9674.5 0
9675.5 -1.42857
9676.5 0
9677.5 0
9678.5 0
9679.5 1
9680.5 0
9681.5 0
9682.5 0
9683.5 0
9684.5 0
9685.5 0
9686.5 0
9687.5 0
9688.5 0
9689.5 0
9690.5 0
9691.5 0
9692.5 0
9693.5 0
9694.5 0
9695.5 0
9696.5 0
9697.5 0
9698.5 -1.42857
9699.5 1
9700.5 0
9701.5 0
9702.5 0
9703.5 0
9704.5 0
9705.5 0
9706.5 0
9707.5 -1.42857
9708.5 0
9709.5 0
9710.5 0
9711.5 0
9712.5 0
9713.5 0
9714.5 0
9715.5 0
9716.5 0
9717.5 0
9718.5 0
9719.5 0
9720.5 0
9721.5 0
9722.5 0
9723.5 0
9724.5 0
9725.5 0
9726.5 1
9727.5 0
9728.5 0
9729.5 0
9730.5 0
9731.5 0
9732.5 0
9733.5 0
9734.5 0
9735.5 0
9736.5 0
9737.5 0
9738.5 0
9739.5 0
9740.5 0
9741.5 0
9742.5 0
9743.5 0
9744.5 0
9745.5 1
9746.5 0
9747.5 0
9748.5 0
9749.5 0
9750.5 0
9751.5 0
9752.5 0
9753.5 0
9754.5 0
9755.5 0
9756.5 0
9757.5 0
9758.5 0
9759.5 0
9760.5 0
9761.5 0
9762.5 0
9763.5 0
9764.5 0
9765.5 0
9766.5 1
9767.5 0
9768.5 0
9769.5 0
9770.5 1
9771.5 0
9772.5 0
9773.5 0
9774.5 0
9775.5 0
9776.5 0
9777.5 0
9778.5 -1.42857
9779.5 0
9780.5 0
9781.5 0
9782.5 0
9783.5 0
9784.5 0
9785.5 0
9786.5 0
9787.5 0
9788.5 -1.42857
9789.5 0
9790.5 0
9791.5 0
9792.5 0
9793.5 0
9794.5 0
9795.5 -1.42857
9796.5 0
9797.5 0
9798.5 0
9799.5 0
9800.5 0
9801.5 0
9802.5 0
9803.5 0
9804.5 0
9805.5 0
9806.5 0
9807.5 0
9808.5 0
9809.5 0
9810.5 0
9811.5 0
9812.5 0
9813.5 0
9814.5 0
9815.5 0
9816.5 0
9817.5 0
9818.5 0
9819.5 0
9820.5 0
9821.5 0
9822.5 0
9823.5 0
9824.5 0
9825.5 0
9826.5 0
9827.5 0
9828.5 0
9829.5 0
9830.5 0
9831.5 0
9832.5 0
9833.5 -1.42857
9834.5 0
9835.5 0
9836.5 1
9837.5 0
9838.5 0
9839.5 0
9840.5 0
9841.5 0
9842.5 0
9843.5 0
9844.5 0
9845.5 0
9846.5 0
9847.5 0
9848.5 0
9849.5 0
9850.5 0
9851.5 0
9852.5 0
9853.5 0
9854.5 0
9855.5 0
9856.5 1
9857.5 0
9858.5 0
9859.5 0
9860.5 0
9861.5 0
9862.5 0
9863.5 0
9864.5 0
9865.5 0
9866.5 0
9867.5 0
9868.5 0
9869.5 0
9870.5 0
9871.5 0
9872.5 0
9873.5 0
9874.5 0
9875.5 0
9876.5 0
9877.5 -1.42857
9878.5 0
9879.5 0
9880.5 0
9881.5 0
9882.5 0
9883.5 0
9884.5 0
9885.5 0
9886.5 0
9887.5 0
9888.5 0
9889.5 0
9890.5 0
9891.5 0
9892.5 0
9893.5 -1.42857
9894.5 0
9895.5 0
9896.5 0
9897.5 0
9898.5 0
9899.5 0
9900.5 0
9901.5 0
9902.5 0
9903.5 0
9904.5 0
9905.5 0
9906.5 0
9907.5 0
9908.5 1
9909.5 0
9910.5 0
9911.5 0
9912.5 0
9913.5 0
9914.5 0
9915.5 0
9916.5 0
9917.5 0
9918.5 0
9919.5 0
9920.5 0
9921.5 0
9922.5 0
9923.5 0
9924.5 0
9925.5 0
9926.5 0
9927.5 0
9928.5 0
9929.5 0
9930.5 0
9931.5 0
9932.5 0
9933.5 0
9934.5 0
9935.5 0
9936.5 0
9937.5 0
9938.5 0
9939.5 0
9940.5 0
9941.5 0
9942.5 0
9943.5 0
9944.5 1
9945.5 0
9946.5 0
9947.5 0
9948.5 0
9949.5 0
9950.5 0
9951.5 0
9952.5 0
9953.5 0
9954.5 0
9955.5 0
9956.5 0
9957.5 0
9958.5 0
9959.5 0
9960.5 0
9961.5 0
9962.5 0
9963.5 0
9964.5 0
9965.5 -1.42857
9966.5 0
9967.5 0
9968.5 0
9969.5 0
9970.5 0
9971.5 0
9972.5 0
9973.5 0
9974.5 0
9975.5 0
9976.5 0
9977.5 0
9978.5 0
9979.5 0
9980.5 0
9981.5 0
9982.5 0
9983.5 0
9984.5 0
9985.5 0
9986.5 0
9987.5 1
9988.5 0
9989.5 0
9990.5 0
9991.5 0
9992.5 0
9993.5 0
9994.5 0
9995.5 0
9996.5 0
9997.5 0
9998.5 0
9999.5 0
10000.5 0
10001.5 0
10002.5 0
10003.5 0
10004.5 0
10005.5 0
10006.5 0
10007.5 0
10008.5 0
10009.5 0
10010.5 0
10011.5 0
10012.5 0
10013.5 0
10014.5 0
10015.5 0
10016.5 0
10017.5 0
10018.5 0
10019.5 0
10020.5 0
10021.5 0
10022.5 0
10023.5 0
10024.5 0
10025.5 0
10026.5 0
10027.5 0
10028.5 0
10029.5 0
10030.5 0
10031.5 0
10032.5 0
10033.5 0
10034.5 0
10035.5 0
10036.5 0
10037.5 0
10038.5 0
10039.5 0
10040.5 0
10041.5 0
10042.5 1
10043.5 0
10044.5 0
10045.5 0
10046.5 0
10047.5 0
10048.5 -1.42857
10049.5 0
10050.5 0
10051.5 0
10052.5 0
10053.5 0
10054.5 0
10055.5 0
10056.5 0
10057.5 0
10058.5 0
10059.5 0
10060.5 0
10061.5 0
10062.5 0
10063.5 0
10064.5 0
10065.5 0
10066.5 0
10067.5 0
10068.5 0
10069.5 0
10070.5 0
10071.5 0
10072.5 0
10073.5 0
10074.5 0
10075.5 0
10076.5 0
10077.5 0
10078.5 0
10079.5 0
10080.5 0
10081.5 0
10082.5 0
10083.5 0
10084.5 0
10085.5 0
10086.5 0
10087.5 0
10088.5 0
10089.5 0
10090.5 0
10091.5 0
10092.5 0
10093.5 0
10094.5 0
10095.5 0
10096.5 0
10097.5 0
10098.5 0
10099.5 0
10100.5 0
10101.5 0
10102.5 0
10103.5 0
10104.5 0
10105.5 0
10106.5 0
10107.5 0
10108.5 0
10109.5 0
10110.5 0
10111.5 0
10112.5 0
10113.5 0
10114.5 0
10115.5 0
10116.5 0
10117.5 0
10118.5 0
10119.5 0
10120.5 0
10121.5 0
10122.5 0
10123.5 0
10124.5 0
10125.5 0
10126.5 0
10127.5 0
10128.5 0
10129.5 0
10130.5 0
10131.5 0
10132.5 0
10133.5 0
10134.5 0
10135.5 0
10136.5 0
10137.5 0
10138.5 0
10139.5 0
10140.5 0
10141.5 0
10142.5 0
10143.5 0
10144.5 0
10145.5 0
10146.5 0
10147.5 0
10148.5 0
10149.5 0
10150.5 1
10151.5 0
10152.5 0
10153.5 0
10154.5 0
10155.5 0
10156.5 0
10157.5 0
10158.5 0
10159.5 0
10160.5 0
10161.5 0
10162.5 0
10163.5 0
10164.5 0
10165.5 0
10166.5 0
10167.5 0
10168.5 0
10169.5 0
10170.5 0
10171.5 0
10172.5 0
10173.5 0
10174.5 0
10175.5 0
10176.5 0
10177.5 0
10178.5 0
10179.5 0
10180.5 0
10181.5 0
10182.5 0
10183.5 0
10184.5 0
10185.5 0
10186.5 0
10187.5 0
10188.5 0
10189.5 0
10190.5 0
10191.5 0
10192.5 0
10193.5 0
10194.5 0
10195.5 0
10196.5 0
10197.5 0
10198.5 0
10199.5 0
10200.5 0
10201.5 0
10202.5 0
10203.5 0
10204.5 0
10205.5 0
10206.5 0
10207.5 0
10208.5 0
10209.5 0
10210.5 0
10211.5 0
10212.5 0
10213.5 0
10214.5 0
10215.5 0
10216.5 0
10217.5 0
10218.5 0
10219.5 0
10220.5 0
10221.5 0
10222.5 0
10223.5 0
10224.5 0
10225.5 0
10226.5 0
10227.5 0
10228.5 0
10229.5 0
10230.5 0
10231.5 0
10232.5 0
10233.5 0
10234.5 0
10235.5 0
10236.5 0
10237.5 0
10238.5 0
10239.5 0
10240.5 0
10241.5 0
10242.5 0
10243.5 0
10244.5 0
10245.5 0
10246.5 -1.42857
10247.5 0
10248.5 0
10249.5 0
10250.5 0
10251.5 0
10252.5 0
10253.5 0
10254.5 0
10255.5 0
10256.5 0
10257.5 0
10258.5 0
10259.5 0
10260.5 0
10261.5 0
10262.5 0
10263.5 0
10264.5 0
10265.5 0
10266.5 0
10267.5 0
10268.5 0
10269.5 0
10270.5 0
10271.5 0
10272.5 0
10273.5 0
10274.5 0
10275.5 0
10276.5 0
10277.5 0
10278.5 0
10279.5 0
10280.5 0
10281.5 0
10282.5 0
10283.5 0
10284.5 0
10285.5 0
10286.5 0
10287.5 0
10288.5 0
10289.5 0
10290.5 0
10291.5 0
10292.5 0
10293.5 0
10294.5 0
10295.5 -1.42857
10296.5 0
10297.5 0
10298.5 0
10299.5 0
10300.5 0
10301.5 0
10302.5 0
10303.5 0
10304.5 0
10305.5 0
10306.5 0
10307.5 0
10308.5 0
10309.5 0
10310.5 0
10311.5 0
10312.5 0
10313.5 0
10314.5 0
10315.5 0
10316.5 0
10317.5 0
10318.5 0
10319.5 0
10320.5 0
10321.5 0
10322.5 0
10323.5 0
10324.5 0
10325.5 0
10326.5 0
10327.5 0
10328.5 0
10329.5 0
10330.5 0
10331.5 0
10332.5 0
10333.5 0
10334.5 0
10335.5 0
10336.5 0
10337.5 0
10338.5 0
10339.5 0
10340.5 0
10341.5 0
10342.5 0
10343.5 0
10344.5 0
10345.5 0
10346.5 0
10347.5 0
10348.5 0
10349.5 0
10350.5 0
10351.5 0
10352.5 0
10353.5 0
10354.5 0
10355.5 0
10356.5 0
10357.5 0
10358.5 0
10359.5 1
10360.5 0
10361.5 0
10362.5 0
10363.5 0
10364.5 0
10365.5 0
10366.5 0
10367.5 0
10368.5 0
10369.5 0
10370.5 0
10371.5 0
10372.5 0
10373.5 0
10374.5 0
10375.5 0
10376.5 0
10377.5 0
10378.5 0
10379.5 0
10380.5 0
10381.5 0
10382.5 0
10383.5 0
10384.5 0
10385.5 0
10386.5 0
10387.5 0
10388.5 0
10389.5 0
10390.5 0
10391.5 0
10392.5 0
10393.5 0
10394.5 0
10395.5 0
10396.5 0
10397.5 0
10398.5 0
10399.5 0
10400.5 0
10401.5 0
10402.5 0
10403.5 0
10404.5 0
10405.5 0
10406.5 0
10407.5 0
10408.5 0
10409.5 0
10410.5 0
10411.5 0
10412.5 0
10413.5 0
10414.5 0
10415.5 0
10416.5 0
10417.5 0
10418.5 0
10419.5 0
10420.5 0
10421.5 0
10422.5 0
10423.5 0
10424.5 0
10425.5 0
10426.5 0
10427.5 0
10428.5 0
10429.5 0
10430.5 0
10431.5 0
10432.5 0
10433.5 0
10434.5 0
10435.5 0
10436.5 0
10437.5 0
10438.5 0
10439.5 0
10440.5 0
10441.5 0
10442.5 0
10443.5 0
10444.5 0
10445.5 0
10446.5 0
10447.5 0
10448.5 0
10449.5 0
10450.5 0
10451.5 0
10452.5 0
10453.5 0
10454.5 0
10455.5 0
10456.5 0
10457.5 0
10458.5 0
10459.5 0
10460.5 0
10461.5 0
10462.5 0
10463.5 0
10464.5 0
10465.5 0
10466.5 0
10467.5 0
10468.5 0
10469.5 0
10470.5 0
10471.5 0
10472.5 0
10473.5 0
10474.5 0
10475.5 0
10476.5 0
10477.5 0
10478.5 0
10479.5 0
10480.5 0
10481.5 0
10482.5 0
10483.5 0
10484.5 0
10485.5 0
10486.5 0
10487.5 0
10488.5 0
10489.5 0
10490.5 0
10491.5 0
10492.5 0
10493.5 0
10494.5 0
10495.5 0
10496.5 0
10497.5 0
10498.5 0
10499.5 0
10500.5 0
10501.5 0
10502.5 0
10503.5 0
10504.5 0
10505.5 0
10506.5 0
10507.5 0
10508.5 0
10509.5 0
10510.5 0
10511.5 0
10512.5 0
10513.5 0
10514.5 0
10515.5 0
10516.5 0
10517.5 0
10518.5 0
10519.5 0
10520.5 0
10521.5 0
10522.5 0
10523.5 0
10524.5 0
10525.5 0
10526.5 0
10527.5 0
10528.5 0
10529.5 0
10530.5 0
10531.5 0
10532.5 0
10533.5 0
10534.5 0
10535.5 0
10536.5 0
10537.5 0
10538.5 0
10539.5 0
10540.5 0
10541.5 0
10542.5 0
10543.5 0
10544.5 0
10545.5 0
10546.5 0
10547.5 0
10548.5 0
10549.5 0
10550.5 0
10551.5 0
10552.5 0
10553.5 0
10554.5 0
10555.5 0
10556.5 0
10557.5 0
10558.5 0
10559.5 0
10560.5 0
10561.5 0
10562.5 0
10563.5 0
10564.5 0
10565.5 0
10566.5 0
10567.5 0
10568.5 0
10569.5 0
10570.5 0
10571.5 0
10572.5 0
10573.5 0
10574.5 0
10575.5 0
10576.5 0
10577.5 0
10578.5 0
10579.5 0
10580.5 0
10581.5 0
10582.5 0
10583.5 0
10584.5 0
10585.5 0
10586.5 0
10587.5 0
10588.5 0
10589.5 0
10590.5 0
10591.5 0
10592.5 0
10593.5 0
10594.5 0
10595.5 0
10596.5 0
10597.5 0
10598.5 0
10599.5 0
10600.5 0
10601.5 0
10602.5 0
10603.5 0
10604.5 0
10605.5 0
10606.5 0
10607.5 0
10608.5 0
10609.5 0
10610.5 0
10611.5 0
10612.5 0
10613.5 0
10614.5 0
10615.5 0
10616.5 0
10617.5 0
10618.5 0
10619.5 0
10620.5 0
10621.5 0
10622.5 0
10623.5 0
10624.5 0
10625.5 0
10626.5 0
10627.5 0
10628.5 0
10629.5 0
10630.5 0
10631.5 0
10632.5 0
10633.5 0
10634.5 0
10635.5 0
10636.5 0
10637.5 0
10638.5 0
10639.5 0
10640.5 0
10641.5 0
10642.5 0
10643.5 0
10644.5 0
10645.5 0
10646.5 0
10647.5 0
10648.5 0
10649.5 0
10650.5 0
10651.5 0
10652.5 0
10653.5 0
10654.5 0
10655.5 0
10656.5 0
10657.5 0
10658.5 0
10659.5 0
10660.5 0
10661.5 0
10662.5 0
10663.5 0
10664.5 0
10665.5 0
10666.5 0
10667.5 0
10668.5 0
10669.5 0
10670.5 0
10671.5 0
10672.5 0
10673.5 0
10674.5 0
10675.5 0
10676.5 0
10677.5 0
10678.5 0
10679.5 0
10680.5 0
10681.5 0
10682.5 0
10683.5 0
10684.5 0
10685.5 0
10686.5 0
10687.5 0
10688.5 0
10689.5 0
10690.5 0
10691.5 0
10692.5 0
10693.5 0
10694.5 0
10695.5 0
10696.5 0
10697.5 0
10698.5 0
10699.5 0
10700.5 0
10701.5 0
10702.5 0
10703.5 0
10704.5 0
10705.5 0
10706.5 1
10707.5 0
10708.5 0
10709.5 0
10710.5 -1.42857
10711.5 0
10712.5 0
10713.5 0
10714.5 0
10715.5 0
10716.5 0
10717.5 0
10718.5 0
10719.5 0
10720.5 0
10721.5 0
10722.5 0
10723.5 0
10724.5 0
10725.5 0
10726.5 0
10727.5 0
10728.5 0
10729.5 0
10730.5 0
10731.5 0
10732.5 0
10733.5 0
10734.5 0
10735.5 0
10736.5 0
10737.5 0
10738.5 0
10739.5 0
10740.5 0
10741.5 0
10742.5 0
10743.5 0
10744.5 0
10745.5 0
10746.5 0
10747.5 0
10748.5 0
10749.5 0
10750.5 0
10751.5 0
10752.5 0
10753.5 0
10754.5 0
10755.5 0
10756.5 0
10757.5 0
10758.5 0
10759.5 0
10760.5 0
10761.5 0
10762.5 0
10763.5 0
10764.5 0
10765.5 0
10766.5 0
10767.5 0
10768.5 0
10769.5 0
10770.5 0
10771.5 0
10772.5 0
10773.5 0
10774.5 0
10775.5 0
10776.5 0
10777.5 0
10778.5 0
10779.5 0
10780.5 0
10781.5 0
10782.5 0
10783.5 0
10784.5 0
10785.5 0
10786.5 0
10787.5 0
10788.5 0
10789.5 0
10790.5 0
10791.5 0
10792.5 0
10793.5 0
10794.5 0
10795.5 0
10796.5 0
10797.5 0
10798.5 0
10799.5 0
10800.5 0
10801.5 0
10802.5 0
10803.5 0
10804.5 0
10805.5 0
10806.5 0
10807.5 0
10808.5 0
10809.5 0
10810.5 0
10811.5 0
10812.5 0
10813.5 0
10814.5 0
10815.5 0
10816.5 0
10817.5 0
10818.5 0
10819.5 0
10820.5 0
10821.5 0
10822.5 0
10823.5 0
10824.5 0
10825.5 0
10826.5 0
10827.5 0
10828.5 0
10829.5 0
10830.5 0
10831.5 0
10832.5 0
10833.5 0
10834.5 0
10835.5 0
10836.5 0
10837.5 0
10838.5 0
10839.5 0
10840.5 0
10841.5 0
10842.5 0
10843.5 0
10844.5 -1.42857
10845.5 0
10846.5 0
10847.5 0
10848.5 0
10849.5 0
10850.5 0
10851.5 0
10852.5 0
10853.5 0
10854.5 0
10855.5 0
10856.5 0
10857.5 0
10858.5 0
10859.5 0
10860.5 0
10861.5 0
10862.5 0
10863.5 0
10864.5 0
10865.5 0
10866.5 0
10867.5 0
10868.5 0
10869.5 0
10870.5 0
10871.5 0
10872.5 0
10873.5 0
10874.5 0
10875.5 0
10876.5 0
10877.5 0
10878.5 0
10879.5 0
10880.5 0
10881.5 0
10882.5 0
10883.5 0
10884.5 0
10885.5 0
10886.5 0
10887.5 0
10888.5 0
10889.5 0
10890.5 0
10891.5 0
10892.5 0
10893.5 0
10894.5 0
10895.5 0
10896.5 0
10897.5 0
10898.5 0
10899.5 0
10900.5 0
10901.5 0
10902.5 0
10903.5 0
10904.5 0
10905.5 0
10906.5 0
10907.5 0
10908.5 0
10909.5 0
10910.5 0
10911.5 0
10912.5 0
10913.5 0
10914.5 0
10915.5 0
10916.5 0
10917.5 0
10918.5 0
10919.5 0
10920.5 0
10921.5 0
10922.5 0
10923.5 0
10924.5 0
10925.5 0
10926.5 0
10927.5 0
10928.5 0
10929.5 0
10930.5 0
10931.5 0
10932.5 0
10933.5 0
10934.5 0
10935.5 0
10936.5 0
10937.5 0
10938.5 0
10939.5 0
10940.5 0
10941.5 0
10942.5 0
10943.5 0
10944.5 0
10945.5 0
10946.5 0
10947.5 0
10948.5 0
10949.5 0
10950.5 0
10951.5 0
10952.5 0
10953.5 0
10954.5 0
10955.5 0
10956.5 0
10957.5 0
10958.5 0
10959.5 0
10960.5 0
10961.5 0
10962.5 0
10963.5 0
10964.5 0
10965.5 0
10966.5 0
10967.5 0
10968.5 0
10969.5 0
10970.5 0
10971.5 0
10972.5 0
10973.5 0
10974.5 0
10975.5 0
10976.5 -1.42857
10977.5 1
10978.5 0
10979.5 0
10980.5 0
10981.5 0
10982.5 0
10983.5 0
10984.5 0
10985.5 0
10986.5 0
10987.5 0
10988.5 0
10989.5 0
10990.5 0
10991.5 0
10992.5 0
10993.5 0
10994.5 0
10995.5 0
10996.5 0
10997.5 0
10998.5 0
10999.5 0
11000.5 0
11001.5 0
11002.5 0
11003.5 0
11004.5 0
11005.5 0
11006.5 0
11007.5 0
11008.5 0
11009.5 0
11010.5 0
11011.5 0
11012.5 0
11013.5 0
11014.5 0
11015.5 0
11016.5 0
11017.5 0
11018.5 0
11019.5 0
11020.5 0
11021.5 -1.42857
11022.5 0
11023.5 0
11024.5 0
11025.5 0
11026.5 0
11027.5 0
11028.5 0
11029.5 0
11030.5 0
11031.5 0
11032.5 0
11033.5 0
11034.5 0
11035.5 -1.42857
11036.5 0
11037.5 0
11038.5 0
11039.5 0
11040.5 0
11041.5 0
11042.5 0
11043.5 0
11044.5 0
11045.5 0
11046.5 0
11047.5 0
11048.5 0
11049.5 0
11050.5 0
11051.5 0
11052.5 0
11053.5 0
11054.5 0
11055.5 0
11056.5 0
11057.5 0
11058.5 0
11059.5 0
11060.5 0
11061.5 0
11062.5 0
11063.5 0
11064.5 0
11065.5 0
11066.5 0
11067.5 0
11068.5 0
11069.5 0
11070.5 0
11071.5 0
11072.5 0
11073.5 0
11074.5 0
11075.5 0
11076.5 0
11077.5 0
11078.5 0
11079.5 0
11080.5 0
11081.5 0
11082.5 0
11083.5 0
11084.5 0
11085.5 0
11086.5 0
11087.5 0
11088.5 0
11089.5 0
11090.5 0
11091.5 0
11092.5 0
11093.5 0
11094.5 0
11095.5 0
11096.5 0
11097.5 0
11098.5 0
11099.5 0
11100.5 0
11101.5 0
11102.5 0
11103.5 0
11104.5 0
11105.5 0
11106.5 0
11107.5 0
11108.5 0
11109.5 0
11110.5 0
11111.5 0
11112.5 0
11113.5 0
11114.5 0
11115.5 0
11116.5 0
11117.5 0
11118.5 0
11119.5 0
11120.5 0
11121.5 0
11122.5 0
11123.5 0
11124.5 0
11125.5 0
11126.5 0
11127.5 0
11128.5 0
11129.5 0
11130.5 0
11131.5 0
11132.5 0
11133.5 0
11134.5 0
11135.5 0
11136.5 0
11137.5 0
11138.5 0
11139.5 0
11140.5 0
11141.5 0
11142.5 0
11143.5 0
11144.5 0
11145.5 0
11146.5 0
11147.5 0
11148.5 0
11149.5 0
11150.5 0
11151.5 0
11152.5 0
11153.5 0
11154.5 0
11155.5 0
11156.5 0
11157.5 0
11158.5 0
11159.5 0
11160.5 0
11161.5 0
11162.5 0
11163.5 0
11164.5 0
11165.5 0
11166.5 0
11167.5 0
11168.5 0
11169.5 0
11170.5 0
11171.5 0
11172.5 0
11173.5 0
11174.5 0
11175.5 0
11176.5 0
11177.5 0
11178.5 0
11179.5 0
11180.5 0
11181.5 0
11182.5 0
11183.5 0
11184.5 0
11185.5 -1.42857
11186.5 0
11187.5 0
11188.5 0
11189.5 0
11190.5 0
11191.5 0
11192.5 0
11193.5 0
11194.5 0
11195.5 0
11196.5 0
11197.5 0
11198.5 0
11199.5 0
11200.5 0
11201.5 0
11202.5 0
11203.5 0
11204.5 0
11205.5 0
11206.5 0
11207.5 0
11208.5 0
11209.5 0
11210.5 0
11211.5 0
11212.5 0
11213.5 0
11214.5 0
11215.5 0
11216.5 0
11217.5 0
11218.5 0
11219.5 0
11220.5 0
11221.5 0
11222.5 0
11223.5 0
11224.5 0
11225.5 0
11226.5 0
11227.5 0
11228.5 0
11229.5 0
11230.5 0
11231.5 0
11232.5 0
11233.5 0
11234.5 0
11235.5 0
11236.5 0
11237.5 0
11238.5 0
11239.5 0
11240.5 0
11241.5 0
11242.5 0
11243.5 0
11244.5 0
11245.5 0
11246.5 0
11247.5 0
11248.5 0
11249.5 0
11250.5 0
11251.5 0
11252.5 0
11253.5 0
11254.5 0
11255.5 0
11256.5 0
11257.5 0
11258.5 0
11259.5 0
11260.5 0
11261.5 0
11262.5 0
11263.5 0
11264.5 1
11265.5 0
11266.5 0
11267.5 0
11268.5 0
11269.5 0
11270.5 0
11271.5 0
11272.5 0
11273.5 0
11274.5 0
11275.5 0
11276.5 0
11277.5 0
11278.5 0
11279.5 0
11280.5 0
11281.5 0
11282.5 -1.42857
11283.5 0
11284.5 0
11285.5 0
11286.5 0
11287.5 0
11288.5 0
11289.5 0
11290.5 0
11291.5 0
11292.5 0
11293.5 0
11294.5 0
11295.5 0
11296.5 0
11297.5 0
11298.5 0
11299.5 0
11300.5 0
11301.5 0
11302.5 0
11303.5 0
11304.5 0
11305.5 0
11306.5 0
11307.5 0
11308.5 0
11309.5 0
11310.5 0
11311.5 0
11312.5 0
11313.5 0
11314.5 0
11315.5 0
11316.5 0
11317.5 0
11318.5 0
11319.5 0
11320.5 0
11321.5 0
11322.5 0
11323.5 0
11324.5 0
11325.5 0
11326.5 0
11327.5 1
11328.5 0
11329.5 0
11330.5 0
11331.5 0
11332.5 0
11333.5 0
11334.5 0
11335.5 0
11336.5 0
11337.5 0
11338.5 0
11339.5 0
11340.5 0
11341.5 0
11342.5 0
11343.5 0
11344.5 0
11345.5 0
11346.5 0
11347.5 0
11348.5 0
11349.5 0
11350.5 0
11351.5 0
11352.5 0
11353.5 0
11354.5 0
11355.5 0
11356.5 0
11357.5 0
11358.5 0
11359.5 0
11360.5 0
11361.5 0
11362.5 0
11363.5 0
11364.5 0
11365.5 0
11366.5 0
11367.5 0
11368.5 0
11369.5 0
11370.5 0
11371.5 0
11372.5 0
11373.5 0
11374.5 0
11375.5 0
11376.5 0
11377.5 0
11378.5 0
11379.5 0
11380.5 0
11381.5 0
11382.5 0
11383.5 0
11384.5 0
11385.5 0
11386.5 0
11387.5 1
11388.5 0
11389.5 0
11390.5 0
11391.5 0
11392.5 0
11393.5 0
11394.5 0
11395.5 0
11396.5 0
11397.5 0
11398.5 0
11399.5 0
11400.5 0
11401.5 0
11402.5 0
11403.5 -1.42857
11404.5 0
11405.5 0
11406.5 0
11407.5 0
11408.5 0
11409.5 0
11410.5 0
11411.5 0
11412.5 0
11413.5 0
11414.5 0
11415.5 0
11416.5 0
11417.5 0
11418.5 0
11419.5 0
11420.5 0
11421.5 0
11422.5 0
11423.5 0
11424.5 0
11425.5 0
11426.5 0
11427.5 0
11428.5 0
11429.5 0
11430.5 0
11431.5 0
11432.5 0
11433.5 0
11434.5 0
11435.5 0
11436.5 0
11437.5 0
11438.5 0
11439.5 0
11440.5 0
11441.5 0
11442.5 0
11443.5 0
11444.5 0
11445.5 0
11446.5 0
11447.5 0
11448.5 0
11449.5 0
11450.5 0
11451.5 0
11452.5 0
11453.5 0
11454.5 0
11455.5 0
11456.5 0
11457.5 0
11458.5 0
11459.5 0
11460.5 0
11461.5 0
11462.5 0
11463.5 0
11464.5 0
11465.5 0
11466.5 0
11467.5 0
11468.5 0
11469.5 0
11470.5 0
11471.5 0
11472.5 0
11473.5 0
11474.5 0
11475.5 0
11476.5 0
11477.5 0
11478.5 0
11479.5 0
11480.5 0
11481.5 0
11482.5 0
11483.5 0
11484.5 0
11485.5 0
11486.5 0
11487.5 0
11488.5 0
11489.5 0
11490.5 0
11491.5 0
11492.5 0
11493.5 0
11494.5 0
11495.5 0
11496.5 0
11497.5 0
11498.5 0
11499.5 0
11500.5 0
11501.5 0
11502.5 0
11503.5 0
11504.5 0
11505.5 0
11506.5 0
11507.5 0
11508.5 0
11509.5 0
11510.5 0
11511.5 0
11512.5 0
11513.5 0
11514.5 0
11515.5 0
11516.5 0
11517.5 0
11518.5 0
11519.5 0
11520.5 0
11521.5 0
11522.5 0
11523.5 0
11524.5 0
11525.5 0
11526.5 0
11527.5 0
11528.5 0
11529.5 0
11530.5 0
11531.5 0
11532.5 0
11533.5 0
11534.5 0
11535.5 0
11536.5 0
11537.5 0
11538.5 0
11539.5 0
11540.5 0
11541.5 0
11542.5 0
11543.5 0
11544.5 0
11545.5 0
11546.5 0
11547.5 0
11548.5 0
11549.5 0
11550.5 0
11551.5 0
11552.5 0
11553.5 0
11554.5 0
11555.5 0
11556.5 0
11557.5 0
11558.5 0
11559.5 0
11560.5 0
11561.5 0
11562.5 0
11563.5 0
11564.5 0
11565.5 0
11566.5 0
11567.5 0
11568.5 0
11569.5 0
11570.5 0
11571.5 0
11572.5 0
11573.5 0
11574.5 0
11575.5 0
11576.5 0
11577.5 0
11578.5 0
11579.5 0
11580.5 0
11581.5 0
11582.5 0
11583.5 0
11584.5 0
11585.5 0
11586.5 0
11587.5 0
11588.5 0
11589.5 0
11590.5 0
11591.5 0
11592.5 0
11593.5 0
11594.5 0
11595.5 0
11596.5 0
11597.5 0
11598.5 0
11599.5 0
11600.5 0
11601.5 0
11602.5 0
11603.5 0
11604.5 0
11605.5 0
11606.5 0
11607.5 0
11608.5 0
11609.5 0
11610.5 0
11611.5 0
11612.5 0
11613.5 0
11614.5 0
11615.5 0
11616.5 0
11617.5 0
11618.5 0
11619.5 0
11620.5 0
11621.5 0
11622.5 0
11623.5 0
11624.5 0
11625.5 0
11626.5 0
11627.5 0
11628.5 0
11629.5 0
11630.5 0
11631.5 0
11632.5 0
11633.5 0
11634.5 0
11635.5 0
11636.5 0
11637.5 0
11638.5 0
11639.5 0
11640.5 0
11641.5 0
11642.5 0
11643.5 0
11644.5 0
11645.5 0
11646.5 0
11647.5 0
11648.5 0
11649.5 0
11650.5 0
11651.5 0
11652.5 0
11653.5 0
11654.5 0
11655.5 0
11656.5 0
11657.5 0
11658.5 0
11659.5 0
11660.5 0
11661.5 0
11662.5 0
11663.5 0
11664.5 0
11665.5 0
11666.5 0
11667.5 0
11668.5 0
11669.5 0
11670.5 0
11671.5 0
11672.5 0
11673.5 0
11674.5 0
11675.5 0
11676.5 0
11677.5 0
11678.5 0
11679.5 0
11680.5 0
11681.5 0
11682.5 0
11683.5 0
11684.5 0
11685.5 0
11686.5 0
11687.5 0
11688.5 0
11689.5 0
11690.5 0
11691.5 0
11692.5 0
11693.5 0
11694.5 0
11695.5 0
11696.5 0
11697.5 0
11698.5 0
11699.5 0
11700.5 0
11701.5 0
11702.5 0
11703.5 0
11704.5 0
11705.5 0
11706.5 0
11707.5 0
11708.5 0
11709.5 0
11710.5 0
11711.5 0
11712.5 0
11713.5 0
11714.5 0
11715.5 0
11716.5 0
11717.5 0
11718.5 0
11719.5 0
11720.5 0
11721.5 0
11722.5 0
11723.5 0
11724.5 0
11725.5 0
11726.5 0
11727.5 0
11728.5 0
11729.5 0
11730.5 0
11731.5 0
11732.5 0
11733.5 0
11734.5 0
11735.5 0
11736.5 0
11737.5 0
11738.5 0
11739.5 0
11740.5 0
11741.5 0
11742.5 0
11743.5 0
11744.5 0
11745.5 0
11746.5 0
11747.5 0
11748.5 0
11749.5 0
11750.5 0
11751.5 0
11752.5 0
11753.5 0
11754.5 0
11755.5 0
11756.5 0
11757.5 0
11758.5 0
11759.5 0
11760.5 0
11761.5 0
11762.5 0
11763.5 0
11764.5 0
11765.5 0
11766.5 0
11767.5 0
11768.5 0
11769.5 0
11770.5 0
11771.5 0
11772.5 0
11773.5 0
11774.5 0
11775.5 0
11776.5 0
11777.5 0
11778.5 0
11779.5 0
11780.5 0
11781.5 0
11782.5 0
11783.5 0
11784.5 0
11785.5 0
11786.5 0
11787.5 0
11788.5 0
11789.5 0
11790.5 0
11791.5 0
11792.5 0
11793.5 0
11794.5 0
11795.5 0
11796.5 0
11797.5 0
11798.5 0
11799.5 0
11800.5 0
11801.5 0
11802.5 0
11803.5 0
11804.5 0
11805.5 0
11806.5 0
11807.5 0
11808.5 0
11809.5 0
11810.5 0
11811.5 0
11812.5 0
11813.5 0
11814.5 0
11815.5 0
11816.5 0
11817.5 0
11818.5 0
11819.5 0
11820.5 0
11821.5 0
11822.5 0
11823.5 0
11824.5 0
11825.5 0
11826.5 0
11827.5 0
11828.5 0
11829.5 0
11830.5 0
11831.5 0
11832.5 0
11833.5 0
11834.5 0
11835.5 0
11836.5 0
11837.5 0
11838.5 0
11839.5 0
11840.5 0
11841.5 0
11842.5 0
11843.5 0
11844.5 0
11845.5 0
11846.5 0
11847.5 0
11848.5 0
11849.5 0
11850.5 0
11851.5 0
11852.5 0
11853.5 0
11854.5 0
11855.5 0
11856.5 0
11857.5 0
11858.5 0
11859.5 0
11860.5 0
11861.5 0
11862.5 0
11863.5 0
11864.5 0
11865.5 0
11866.5 0
11867.5 0
11868.5 0
11869.5 0
11870.5 0
11871.5 0
11872.5 0
11873.5 0
11874.5 0
11875.5 0
11876.5 0
11877.5 0
11878.5 0
11879.5 0
11880.5 0
11881.5 0
11882.5 0
11883.5 0
11884.5 0
11885.5 0
11886.5 0
11887.5 0
11888.5 0
11889.5 0
11890.5 0
11891.5 0
11892.5 0
11893.5 0
11894.5 0
11895.5 0
11896.5 0
11897.5 0
11898.5 0
11899.5 0
11900.5 0
11901.5 0
11902.5 0
11903.5 0
11904.5 0
11905.5 0
11906.5 0
11907.5 0
11908.5 0
11909.5 0
11910.5 0
11911.5 0
11912.5 0
11913.5 0
11914.5 0
11915.5 0
11916.5 0
11917.5 0
11918.5 0
11919.5 0
11920.5 0
11921.5 0
11922.5 0
11923.5 0
11924.5 0
11925.5 0
11926.5 0
11927.5 0
11928.5 0
11929.5 0
11930.5 0
11931.5 0
11932.5 0
11933.5 0
11934.5 0
11935.5 0
11936.5 0
11937.5 0
11938.5 0
11939.5 0
11940.5 0
11941.5 0
11942.5 -1.42857
11943.5 0
11944.5 0
11945.5 0
11946.5 0
11947.5 0
11948.5 0
11949.5 0
11950.5 0
11951.5 0
11952.5 0
11953.5 0
11954.5 0
11955.5 0
11956.5 0
11957.5 0
11958.5 0
11959.5 0
11960.5 0
11961.5 0
11962.5 0
11963.5 0
11964.5 0
11965.5 0
11966.5 0
11967.5 0
11968.5 1
11969.5 0
11970.5 0
11971.5 0
11972.5 0
11973.5 0
11974.5 0
11975.5 0
11976.5 0
11977.5 0
11978.5 0
11979.5 0
11980.5 0
11981.5 0
11982.5 0
11983.5 0
11984.5 0
11985.5 0
11986.5 0
11987.5 0
11988.5 0
11989.5 0
11990.5 0
11991.5 0
11992.5 0
11993.5 0
11994.5 0
11995.5 0
11996.5 0
11997.5 0
11998.5 0
11999.5 0
