# EGG_ProjY_E3661.0(6.0)_B3678.5(1.5)_B3690.0(2.0)
# X axis : Energy (keV) [Y axis]
# Y axis : Counts/1 keV
# N Bins : 12000
# X Min : 0
# X Max : 12000
# X value at the center of the bins
0.5 0
1.5 0
2.5 0
3.5 0
4.5 0
5.5 -4.71429
6.5 11
7.5 16.2857
8.5 -11
9.5 0.999999
10.5 19.2857
11.5 30.1429
12.5 54.2857
13.5 -1.14286
14.5 12.5714
15.5 70.1429
16.5 36.1429
17.5 93.7143
18.5 50.7143
19.5 35.2857
20.5 17.2857
21.5 99
22.5 56.4286
23.5 92
24.5 48
25.5 104.714
26.5 137.714
27.5 204.429
28.5 86.7143
29.5 251.571
30.5 148.429
31.5 73.5714
32.5 134
33.5 369
34.5 220
35.5 171.714
36.5 109.714
37.5 243.714
38.5 206.143
39.5 185.143
40.5 212.571
41.5 384.429
42.5 407.143
43.5 206.429
44.5 343.429
45.5 230.143
46.5 276.857
47.5 179.714
48.5 237.857
49.5 185.143
50.5 308
51.5 182.429
52.5 123
53.5 181
54.5 197.571
55.5 248.143
56.5 394.714
57.5 360.143
58.5 328
59.5 403.857
60.5 361.857
61.5 290.857
62.5 187.143
63.5 351.286
64.5 290.714
65.5 277.429
66.5 328.714
67.5 358.429
68.5 190.857
69.5 253.714
70.5 210.714
71.5 179
72.5 237.857
73.5 298.429
74.5 276
75.5 580.143
76.5 458.857
77.5 454.286
78.5 384.571
79.5 249.286
80.5 267.143
81.5 227.286
82.5 268.571
83.5 360.857
84.5 145.429
85.5 292.714
86.5 491.571
87.5 525.571
88.5 323.714
89.5 522.429
90.5 591.857
91.5 316.286
92.5 169.571
93.5 98.4285
94.5 387.714
95.5 307
96.5 255.857
97.5 342.714
98.5 197.286
99.5 283.571
100.5 353.571
101.5 466.857
102.5 319.714
103.5 342.286
104.5 265.857
105.5 196.571
106.5 344.429
107.5 338.143
108.5 181.286
109.5 361.857
110.5 345.571
111.5 281.429
112.5 206.286
113.5 378.714
114.5 477.857
115.5 461.429
116.5 204.143
117.5 297.286
118.5 198
119.5 305.286
120.5 311.143
121.5 264.286
122.5 320.857
123.5 423.714
124.5 285.286
125.5 275.286
126.5 47.1428
127.5 332.429
128.5 262
129.5 452
130.5 197.714
131.5 459.571
132.5 410.571
133.5 461.714
134.5 266.571
135.5 161.286
136.5 245.286
137.5 187.143
138.5 352.857
139.5 462.714
140.5 380.714
141.5 380.286
142.5 291.857
143.5 337.429
144.5 290
145.5 454.429
146.5 404.143
147.5 476.429
148.5 458.429
149.5 301.714
150.5 489.429
151.5 441
152.5 571.143
153.5 489
154.5 266.286
155.5 298.857
156.5 261.714
157.5 441.571
158.5 308.429
159.5 436.571
160.5 437.857
161.5 415.857
162.5 558.571
163.5 444.714
164.5 541.429
165.5 323.286
166.5 315
167.5 310.286
168.5 283.286
169.5 475.429
170.5 247.714
171.5 57.1428
172.5 526.857
173.5 917
174.5 1341.43
175.5 507.714
176.5 255
177.5 195
178.5 161.286
179.5 284.143
180.5 76.4285
181.5 306
182.5 370.286
183.5 190.286
184.5 335
185.5 180.714
186.5 230.571
187.5 214.714
188.5 362.286
189.5 331
190.5 160.857
191.5 416.143
192.5 339.286
193.5 331.857
194.5 330.286
195.5 484.714
196.5 223.714
197.5 335
198.5 476.571
199.5 544.857
200.5 476.429
201.5 457.857
202.5 465.571
203.5 855.571
204.5 621.286
205.5 764
206.5 766.143
207.5 636.857
208.5 691.714
209.5 452.571
210.5 673.571
211.5 372.714
212.5 437.286
213.5 317
214.5 348.714
215.5 455
216.5 515.714
217.5 537.714
218.5 543.571
219.5 403
220.5 468.571
221.5 190.429
222.5 278.286
223.5 387.857
224.5 396.429
225.5 359.571
226.5 239.714
227.5 222.286
228.5 382.857
229.5 436.429
230.5 354.143
231.5 482.571
232.5 178
233.5 386.143
234.5 394.286
235.5 490.286
236.5 664.429
237.5 548
238.5 692.714
239.5 478.857
240.5 690
241.5 530.714
242.5 663.429
243.5 414.143
244.5 614.143
245.5 431.857
246.5 590.571
247.5 335.714
248.5 282.429
249.5 410.286
250.5 398.286
251.5 401.857
252.5 212
253.5 258.143
254.5 306.571
255.5 53.1428
256.5 354.286
257.5 219.286
258.5 236
259.5 320.571
260.5 282.429
261.5 388.286
262.5 482.714
263.5 238.571
264.5 245.571
265.5 72.4285
266.5 153.429
267.5 77.1428
268.5 235
269.5 -101.143
270.5 173.286
271.5 109.714
272.5 261.857
273.5 220.429
274.5 145.857
275.5 102.571
276.5 175.571
277.5 319.571
278.5 34.1428
279.5 116
280.5 66.4285
281.5 60.1428
282.5 -0.142892
283.5 80
284.5 242
285.5 253.714
286.5 395
287.5 329.857
288.5 442.857
289.5 467.143
290.5 563.857
291.5 154.143
292.5 126.143
293.5 173.286
294.5 272.857
295.5 287.714
296.5 366.143
297.5 395.857
298.5 554.143
299.5 371.714
300.5 472.429
301.5 568.857
302.5 492.857
303.5 510.857
304.5 445
305.5 656.857
306.5 894.857
307.5 574.857
308.5 653.429
309.5 725.143
310.5 885.857
311.5 704.714
312.5 751.429
313.5 711.429
314.5 871
315.5 518
316.5 416.714
317.5 403.143
318.5 236.286
319.5 456.143
320.5 242.143
321.5 444.857
322.5 373.286
323.5 375
324.5 326
325.5 310
326.5 416.857
327.5 382.714
328.5 319.143
329.5 345
330.5 397.714
331.5 457.429
332.5 315.143
333.5 272.714
334.5 262.143
335.5 350.571
336.5 286.714
337.5 267.571
338.5 232.571
339.5 204
340.5 10.2857
341.5 91
342.5 -43.4286
343.5 -29.8572
344.5 36.2857
345.5 65.8571
346.5 137.571
347.5 309.714
348.5 90.5714
349.5 83
350.5 168.857
351.5 210.857
352.5 120.286
353.5 27
354.5 -12.7143
355.5 163.571
356.5 176.571
357.5 285.429
358.5 224.143
359.5 112.429
360.5 300.429
361.5 314.571
362.5 429.429
363.5 374.429
364.5 330.714
365.5 255.286
366.5 303.429
367.5 378.571
368.5 301.286
369.5 314.714
370.5 265.714
371.5 218
372.5 193
373.5 304.429
374.5 346.857
375.5 307.714
376.5 248.714
377.5 286
378.5 315.286
379.5 298.571
380.5 329.429
381.5 394.857
382.5 126.143
383.5 312.143
384.5 118.143
385.5 291.857
386.5 69.7143
387.5 233.143
388.5 291.143
389.5 298.714
390.5 283.857
391.5 250.429
392.5 117.714
393.5 378.857
394.5 247.286
395.5 115.429
396.5 251.286
397.5 198.429
398.5 167
399.5 324.143
400.5 284.857
401.5 300.714
402.5 255.143
403.5 621.143
404.5 578.429
405.5 362.143
406.5 315.571
407.5 324.429
408.5 244
409.5 234.571
410.5 226.714
411.5 201.571
412.5 324.429
413.5 136.286
414.5 285.857
415.5 106.857
416.5 137
417.5 364.429
418.5 228.286
419.5 146
420.5 174.143
421.5 132.857
422.5 173.429
423.5 45.2857
424.5 30.8571
425.5 118.429
426.5 130.714
427.5 104.286
428.5 274.286
429.5 183.857
430.5 158
431.5 197.714
432.5 184.143
433.5 94.8571
434.5 10.2857
435.5 91.1428
436.5 175.429
437.5 167
438.5 7.71427
439.5 133.571
440.5 -12.7143
441.5 139.143
442.5 135
443.5 47.1428
444.5 189.571
445.5 168.571
446.5 224
447.5 74.8571
448.5 215.286
449.5 95.8571
450.5 192.429
451.5 172.286
452.5 93.5714
453.5 199.571
454.5 163.857
455.5 114.429
456.5 23.5714
457.5 106
458.5 1.42855
459.5 51.4286
460.5 83.4286
461.5 201.571
462.5 351.714
463.5 128.857
464.5 110.429
465.5 312.714
466.5 170
467.5 165.571
468.5 220.143
469.5 187.857
470.5 347
471.5 255.714
472.5 313.714
473.5 196.857
474.5 208.714
475.5 259.429
476.5 242.143
477.5 67.2857
478.5 230.714
479.5 57.7143
480.5 254.571
481.5 166.571
482.5 48.5714
483.5 169.429
484.5 181.571
485.5 95.5714
486.5 122.857
487.5 144.571
488.5 128.429
489.5 116.143
490.5 219.286
491.5 179
492.5 270.571
493.5 148.714
494.5 168.714
495.5 78.1428
496.5 143.286
497.5 187.143
498.5 206.714
499.5 294
500.5 169
501.5 259.857
502.5 273.429
503.5 227.429
504.5 203.857
505.5 277.857
506.5 774.571
507.5 1353.86
508.5 2203.14
509.5 3186.71
510.5 3923
511.5 3321
512.5 1833
513.5 821.571
514.5 274.714
515.5 68.7143
516.5 87
517.5 -53.5714
518.5 -15.8572
519.5 9.42856
520.5 73
521.5 -20.5714
522.5 47.5714
523.5 5.2857
524.5 56.7143
525.5 79.4286
526.5 -18.2857
527.5 80.5714
528.5 -91.7143
529.5 -124.857
530.5 -47
531.5 26
532.5 -72.1429
533.5 -6.14287
534.5 54.2857
535.5 104.286
536.5 85.8571
537.5 6.99999
538.5 81.7143
539.5 -12.8572
540.5 10.7143
541.5 136.714
542.5 287.143
543.5 223.429
544.5 190.286
545.5 262
546.5 256.714
547.5 60.4286
548.5 325.714
549.5 177
550.5 190.857
551.5 329
552.5 208.429
553.5 147.143
554.5 -14.8572
555.5 -591.429
556.5 -1071.29
557.5 -388.714
558.5 92.5714
559.5 231.857
560.5 56.2857
561.5 161.571
562.5 66.7143
563.5 109.571
564.5 187.714
565.5 157.714
566.5 206.714
567.5 163.429
568.5 3.99999
569.5 158.143
570.5 213.714
571.5 63
572.5 53.8571
573.5 163
574.5 50.7143
575.5 96.1428
576.5 88.2857
577.5 79.5714
578.5 147.143
579.5 149.714
580.5 182.857
581.5 209.714
582.5 705.143
583.5 1409.71
584.5 795
585.5 261.857
586.5 188
587.5 159.429
588.5 81.2857
589.5 128.714
590.5 177.714
591.5 51.5714
592.5 114.857
593.5 175.857
594.5 151.571
595.5 243.857
596.5 307.857
597.5 121.857
598.5 118.857
599.5 173.143
600.5 106.286
601.5 154.286
602.5 -41.4286
603.5 142
604.5 71.8571
605.5 75
606.5 73.8571
607.5 163.714
608.5 56.1428
609.5 96.8571
610.5 89.7143
611.5 74.5714
612.5 155.143
613.5 77.8571
614.5 186.714
615.5 189.286
616.5 205.429
617.5 185.429
618.5 231.571
619.5 76
620.5 128.143
621.5 67.4286
622.5 127
623.5 65.8571
624.5 10.7143
625.5 174.857
626.5 118.714
627.5 90
628.5 128.571
629.5 -17.5714
630.5 73.4286
631.5 120.714
632.5 129.286
633.5 244.857
634.5 207
635.5 220.286
636.5 56.2857
637.5 38.8571
638.5 173.857
639.5 132
640.5 77.5714
641.5 162.857
642.5 40.7143
643.5 183.857
644.5 114.286
645.5 202.429
646.5 77.1428
647.5 33
648.5 96.5714
649.5 34.1428
650.5 -91
651.5 129.571
652.5 345.714
653.5 692.857
654.5 540.857
655.5 250
656.5 143.143
657.5 73.7143
658.5 85.1428
659.5 130
660.5 68.5714
661.5 66
662.5 -30.5714
663.5 -307
664.5 -1203.14
665.5 -1188.14
666.5 -389
667.5 -7.85716
668.5 45.2857
669.5 94.1428
670.5 116.286
671.5 74.1428
672.5 99.4286
673.5 87.5714
674.5 104.714
675.5 60.8571
676.5 150.714
677.5 65.4286
678.5 66.8571
679.5 145.143
680.5 -27.4286
681.5 154.143
682.5 106.143
683.5 53.5714
684.5 131.286
685.5 165.714
686.5 113
687.5 73.8571
688.5 57.5714
689.5 -124.571
690.5 110
691.5 84.8571
692.5 15.8571
693.5 -4.00001
694.5 32.5714
695.5 62.2857
696.5 108.571
697.5 108.857
698.5 77
699.5 -16.8572
700.5 34.4286
701.5 82
702.5 88
703.5 61.2857
704.5 30.8571
705.5 85.5714
706.5 58.5714
707.5 5.2857
708.5 30.4286
709.5 107.714
710.5 158.143
711.5 120.714
712.5 206
713.5 -30.7143
714.5 151.429
715.5 76.4286
716.5 63.8571
717.5 159
718.5 87.8571
719.5 174.286
720.5 110.571
721.5 105.857
722.5 117.857
723.5 128.857
724.5 142.143
725.5 202
726.5 104.714
727.5 73.5714
728.5 226.571
729.5 142.571
730.5 -10
731.5 -10.5714
732.5 107.857
733.5 -3.7143
734.5 123.857
735.5 104.286
736.5 94.2857
737.5 10.7143
738.5 132
739.5 108
740.5 115.286
741.5 41.2857
742.5 84.7143
743.5 92.8571
744.5 155.286
745.5 96
746.5 720
747.5 1292
748.5 952.571
749.5 425.714
750.5 154.429
751.5 151.286
752.5 97.4286
753.5 141.714
754.5 7.99999
755.5 66.4286
756.5 207.857
757.5 115.571
758.5 77.4286
759.5 60.7143
760.5 168.429
761.5 21.1428
762.5 109
763.5 46.2857
764.5 94.8571
765.5 -0.285725
766.5 5.99999
767.5 211.857
768.5 76.7143
769.5 24.2857
770.5 88.1428
771.5 14.7143
772.5 59.1428
773.5 61.2857
774.5 67.2857
775.5 133.571
776.5 131.857
777.5 42.1428
778.5 109
779.5 39.1428
780.5 9.57142
781.5 15.4286
782.5 78.8571
783.5 163.714
784.5 124.714
785.5 92.8571
786.5 77.1428
787.5 110.857
788.5 149.286
789.5 78.4286
790.5 269
791.5 125.714
792.5 179.143
793.5 165.571
794.5 85.8571
795.5 171.286
796.5 255.143
797.5 149.429
798.5 176.857
799.5 125
800.5 130.571
801.5 103
802.5 51.1428
803.5 177.714
804.5 5.2857
805.5 97.7143
806.5 88.8571
807.5 147
808.5 121
809.5 101.143
810.5 -9.85715
811.5 128.143
812.5 86.5714
813.5 154.571
814.5 122.429
815.5 72.8571
816.5 67.4286
817.5 71.8571
818.5 160.286
819.5 161.857
820.5 162.714
821.5 109.429
822.5 133.714
823.5 49.2857
824.5 73.2857
825.5 154.571
826.5 130.571
827.5 75.8571
828.5 130.429
829.5 33.1428
830.5 46.7143
831.5 185.429
832.5 49.4286
833.5 82.1428
834.5 105.429
835.5 7.14285
836.5 12
837.5 57.5714
838.5 139.571
839.5 164.857
840.5 104.429
841.5 125.714
842.5 82.2857
843.5 49.8571
844.5 43.5714
845.5 40.1428
846.5 185.857
847.5 115.286
848.5 207.286
849.5 181.143
850.5 152.286
851.5 73
852.5 73.1428
853.5 88.7143
854.5 90.5714
855.5 98.5714
856.5 45
857.5 118.571
858.5 48.1428
859.5 55
860.5 23.1428
861.5 133.714
862.5 108.143
863.5 -22
864.5 -17.5714
865.5 108
866.5 -44.2857
867.5 37.2857
868.5 71.1428
869.5 21.5714
870.5 60.5714
871.5 100.714
872.5 -23.1429
873.5 4.42856
874.5 -0.142868
875.5 136.714
876.5 57.7143
877.5 -19.5714
878.5 132.857
879.5 -18.2857
880.5 114.143
881.5 50
882.5 155.714
883.5 132.571
884.5 165
885.5 76.4286
886.5 85.2857
887.5 134.286
888.5 104.286
889.5 186.286
890.5 283
891.5 307.857
892.5 252.714
893.5 206.857
894.5 45.7143
895.5 102.143
896.5 100.857
897.5 65.8571
898.5 198.429
899.5 82.8571
900.5 43.1428
901.5 118.286
902.5 65.1428
903.5 152.286
904.5 149.143
905.5 123.143
906.5 159.714
907.5 29.2857
908.5 88
909.5 166.857
910.5 21.7143
911.5 192.857
912.5 79
913.5 132.857
914.5 62.8571
915.5 143.286
916.5 84.2857
917.5 14
918.5 159.857
919.5 46.8571
920.5 94.4286
921.5 21.7143
922.5 152.429
923.5 18
924.5 161.143
925.5 57.2857
926.5 96.1428
927.5 73.5714
928.5 19.8571
929.5 2.2857
930.5 32.7143
931.5 107.857
932.5 66
933.5 139
934.5 54.8571
935.5 40.2857
936.5 -14.7143
937.5 78.8571
938.5 188.429
939.5 119.286
940.5 163.429
941.5 26.2857
942.5 63.8571
943.5 145.714
944.5 10.7143
945.5 119.857
946.5 130
947.5 147.857
948.5 24.8571
949.5 83
950.5 98.7143
951.5 36.8571
952.5 65.2857
953.5 46.7143
954.5 158.429
955.5 6.85713
956.5 110.571
957.5 68
958.5 81.2857
959.5 255.714
960.5 332.143
961.5 275.857
962.5 66.1428
963.5 82.5714
964.5 170.143
965.5 122.429
966.5 -22.7143
967.5 41.4286
968.5 117.857
969.5 42.2857
970.5 71.5714
971.5 41.8571
972.5 101.571
973.5 79
974.5 191.857
975.5 50
976.5 125
977.5 64
978.5 107.571
979.5 118.286
980.5 -9.14287
981.5 130.429
982.5 77.8571
983.5 18.5714
984.5 146.429
985.5 89.4286
986.5 202.571
987.5 222
988.5 283.714
989.5 399.857
990.5 255.286
991.5 231.571
992.5 171.429
993.5 112.571
994.5 8.71428
995.5 151.714
996.5 125
997.5 61.2857
998.5 138.429
999.5 71.1428
1000.5 107.857
1001.5 75.4285
1002.5 172.857
1003.5 145.429
1004.5 -57.2857
1005.5 139.714
1006.5 103.286
1007.5 2.85713
1008.5 75.1428
1009.5 25.8571
1010.5 53.8571
1011.5 116.286
1012.5 69.1429
1013.5 95.8571
1014.5 94.8571
1015.5 43.2857
1016.5 171.286
1017.5 135.143
1018.5 127.429
1019.5 55.7143
1020.5 93.4286
1021.5 125.571
1022.5 81.8571
1023.5 136.714
1024.5 147.286
1025.5 111.857
1026.5 80.1428
1027.5 -17.4286
1028.5 60.5714
1029.5 70.7143
1030.5 54.8571
1031.5 80.1429
1032.5 33.2857
1033.5 12.4286
1034.5 38.4286
1035.5 129.714
1036.5 56.4286
1037.5 116
1038.5 74.1429
1039.5 73.2857
1040.5 -42.1429
1041.5 9.28571
1042.5 54.8571
1043.5 42.7143
1044.5 54
1045.5 68.8571
1046.5 85
1047.5 79.7143
1048.5 28.4286
1049.5 32.2857
1050.5 190.571
1051.5 234.143
1052.5 133.571
1053.5 67.2857
1054.5 13
1055.5 68.2857
1056.5 75.7143
1057.5 76.8571
1058.5 38
1059.5 55.4286
1060.5 63.1429
1061.5 44.4286
1062.5 73.1429
1063.5 -7.14286
1064.5 74.7143
1065.5 -17.2857
1066.5 50.8571
1067.5 78.2857
1068.5 109.429
1069.5 -40.5714
1070.5 77.7143
1071.5 71.4286
1072.5 195
1073.5 402.143
1074.5 393.429
1075.5 280.429
1076.5 22.5714
1077.5 90.5714
1078.5 63.5714
1079.5 114.143
1080.5 86.5714
1081.5 75.1429
1082.5 53.8571
1083.5 110.857
1084.5 71.4286
1085.5 101.571
1086.5 96.7143
1087.5 58.4286
1088.5 61.8571
1089.5 89.4286
1090.5 88.4286
1091.5 27.1429
1092.5 99.2857
1093.5 162.571
1094.5 48
1095.5 3.28571
1096.5 150.571
1097.5 42.5714
1098.5 8.57142
1099.5 83.2857
1100.5 -40.7143
1101.5 77.8571
1102.5 41.5714
1103.5 78.1429
1104.5 66.4286
1105.5 93.2857
1106.5 111
1107.5 57.7143
1108.5 83.7143
1109.5 57.2857
1110.5 74.8571
1111.5 48.1429
1112.5 41.4286
1113.5 57.2857
1114.5 121.714
1115.5 23.2857
1116.5 115.571
1117.5 81.4286
1118.5 47
1119.5 81.5714
1120.5 0.571422
1121.5 87.4286
1122.5 34.2857
1123.5 186.857
1124.5 383.143
1125.5 719
1126.5 1282.29
1127.5 411.714
1128.5 290
1129.5 129.143
1130.5 130.714
1131.5 52.7143
1132.5 55.1429
1133.5 66.2857
1134.5 22.8571
1135.5 35.1429
1136.5 8.85714
1137.5 84.4286
1138.5 106
1139.5 251.143
1140.5 386.714
1141.5 471.571
1142.5 269.286
1143.5 98.4286
1144.5 78.2857
1145.5 37.1429
1146.5 24.4286
1147.5 156.286
1148.5 85.4286
1149.5 86.1429
1150.5 36.7143
1151.5 16.4286
1152.5 56.8571
1153.5 96.8571
1154.5 194.571
1155.5 112
1156.5 504.142
1157.5 266.857
1158.5 255.571
1159.5 150.857
1160.5 -104.429
1161.5 55.2857
1162.5 39.8571
1163.5 68.1429
1164.5 106.286
1165.5 49.8571
1166.5 31.5714
1167.5 51.1429
1168.5 39.2857
1169.5 33.1429
1170.5 42.8571
1171.5 0.285711
1172.5 77.2857
1173.5 40.5714
1174.5 60.1429
1175.5 90.5714
1176.5 34
1177.5 92
1178.5 70.7143
1179.5 -25.1429
1180.5 35.2857
1181.5 85.7143
1182.5 46
1183.5 135
1184.5 132.143
1185.5 161.857
1186.5 109.429
1187.5 74.7143
1188.5 102.429
1189.5 20.7143
1190.5 45.2857
1191.5 32.2857
1192.5 59.8571
1193.5 23.1429
1194.5 54.5714
1195.5 30.1429
1196.5 58.1429
1197.5 -13.8571
1198.5 40.2857
1199.5 20.8571
1200.5 89.2857
1201.5 57.7143
1202.5 89.8571
1203.5 126
1204.5 124
1205.5 63.2857
1206.5 69
1207.5 105.143
1208.5 51
1209.5 -18
1210.5 45.2857
1211.5 62.7143
1212.5 67.1429
1213.5 28
1214.5 54.7143
1215.5 101.143
1216.5 69.8571
1217.5 99.2857
1218.5 68.1429
1219.5 316
1220.5 1091.43
1221.5 2734.43
1222.5 3747.43
1223.5 2131.29
1224.5 624.857
1225.5 166.143
1226.5 110.429
1227.5 -12.1429
1228.5 74
1229.5 -12
1230.5 41.2857
1231.5 20.8571
1232.5 34.5714
1233.5 12.2857
1234.5 66.1429
1235.5 -1.71429
1236.5 51.1429
1237.5 44.5714
1238.5 51.7143
1239.5 131.286
1240.5 32.8571
1241.5 70
1242.5 30.7143
1243.5 98.4286
1244.5 54.8571
1245.5 43.2857
1246.5 50.2857
1247.5 46.4286
1248.5 55.7143
1249.5 49.2857
1250.5 5.85714
1251.5 23
1252.5 -24.7143
1253.5 87.8571
1254.5 99.2857
1255.5 39.8571
1256.5 13.2857
1257.5 29.5714
1258.5 51.5714
1259.5 -230
1260.5 -731
1261.5 -1315.86
1262.5 -965.714
1263.5 -359
1264.5 -34.4286
1265.5 37
1266.5 72.1429
1267.5 7.71428
1268.5 11.4286
1269.5 76.1429
1270.5 96.2857
1271.5 69.2857
1272.5 129.429
1273.5 85.5714
1274.5 39.2857
1275.5 52.7143
1276.5 71.7143
1277.5 73.4286
1278.5 72.2857
1279.5 58.4286
1280.5 73.8571
1281.5 55.8571
1282.5 8.14285
1283.5 29.7143
1284.5 46.5714
1285.5 70.4286
1286.5 74
1287.5 82
1288.5 57
1289.5 79.5714
1290.5 84.7143
1291.5 56.4286
1292.5 46.2857
1293.5 97.2857
1294.5 101.143
1295.5 87.5714
1296.5 78.5714
1297.5 65.7143
1298.5 29.8571
1299.5 39.5714
1300.5 80.2857
1301.5 61.7143
1302.5 56.5714
1303.5 50.1429
1304.5 9.85714
1305.5 18.2857
1306.5 10.2857
1307.5 -44.4286
1308.5 99
1309.5 46.4286
1310.5 53.7143
1311.5 27.7143
1312.5 35.7143
1313.5 93.4286
1314.5 44.7143
1315.5 33.7143
1316.5 81.8571
1317.5 107.286
1318.5 74.5714
1319.5 34.7143
1320.5 74
1321.5 73.7143
1322.5 72.5714
1323.5 88.8571
1324.5 125.857
1325.5 74.5714
1326.5 131.857
1327.5 105.571
1328.5 80
1329.5 24.2857
1330.5 40.2857
1331.5 70.2857
1332.5 40.4286
1333.5 77.5714
1334.5 34.5714
1335.5 33.2857
1336.5 58.7143
1337.5 36.7143
1338.5 35.5714
1339.5 78.2857
1340.5 74.4286
1341.5 59
1342.5 119
1343.5 31.2857
1344.5 -13
1345.5 22.1429
1346.5 24.2857
1347.5 50.5714
1348.5 9.85714
1349.5 68.2857
1350.5 89.2857
1351.5 62.1429
1352.5 73.8571
1353.5 31.8571
1354.5 32.1429
1355.5 49.8571
1356.5 80.8571
1357.5 73
1358.5 22.4286
1359.5 74.1429
1360.5 47.4286
1361.5 45.5714
1362.5 48.7143
1363.5 76.5714
1364.5 87.4286
1365.5 136.714
1366.5 124
1367.5 130
1368.5 100.857
1369.5 42.2857
1370.5 63.4286
1371.5 60.8571
1372.5 95.4286
1373.5 19.1429
1374.5 55.5714
1375.5 54.4286
1376.5 93.7143
1377.5 4
1378.5 92
1379.5 125.571
1380.5 88.7143
1381.5 49.2857
1382.5 75.5714
1383.5 45.2857
1384.5 54.2857
1385.5 1.28571
1386.5 21.1429
1387.5 76.4286
1388.5 80.8571
1389.5 51.4286
1390.5 1.85714
1391.5 -12.7143
1392.5 7.14285
1393.5 46
1394.5 67.7143
1395.5 100.714
1396.5 39.4286
1397.5 33
1398.5 75
1399.5 15.1429
1400.5 83.2857
1401.5 28.4286
1402.5 38.5714
1403.5 -13.5714
1404.5 19.1429
1405.5 25.5714
1406.5 90
1407.5 66
1408.5 0.571426
1409.5 69.2857
1410.5 30.7143
1411.5 6.42857
1412.5 74.8571
1413.5 43.5714
1414.5 78.7143
1415.5 16.4286
1416.5 53.8571
1417.5 99
1418.5 92.1429
1419.5 86.1429
1420.5 89.8571
1421.5 52.5714
1422.5 51.7143
1423.5 21.8571
1424.5 49.5714
1425.5 15.8571
1426.5 32.8571
1427.5 110.857
1428.5 285.857
1429.5 131.429
1430.5 49.5714
1431.5 34.7143
1432.5 75
1433.5 75.4286
1434.5 34.7143
1435.5 49.4286
1436.5 89.5714
1437.5 80.5714
1438.5 41.2857
1439.5 33.8571
1440.5 86
1441.5 64
1442.5 33.2857
1443.5 15
1444.5 56.8571
1445.5 -28
1446.5 32.1429
1447.5 42.1429
1448.5 13.1429
1449.5 27.1429
1450.5 40.2857
1451.5 63.5714
1452.5 43.1429
1453.5 52.5714
1454.5 9.14285
1455.5 81.2857
1456.5 18.1429
1457.5 46.4286
1458.5 69.2857
1459.5 51.2857
1460.5 73.8571
1461.5 69
1462.5 42.4286
1463.5 4.14285
1464.5 104
1465.5 97.4286
1466.5 57.2857
1467.5 12.2857
1468.5 24.7143
1469.5 14.5714
1470.5 40.4286
1471.5 29.5714
1472.5 86.7143
1473.5 62.2857
1474.5 31.8571
1475.5 37.2857
1476.5 37.7143
1477.5 37.2857
1478.5 29.7143
1479.5 49.4286
1480.5 17.1429
1481.5 17
1482.5 72.7143
1483.5 30.4286
1484.5 24.1429
1485.5 -0.285717
1486.5 48.8571
1487.5 108.857
1488.5 58.8571
1489.5 28.5714
1490.5 -24
1491.5 18.8571
1492.5 29.1429
1493.5 5.14285
1494.5 1.42857
1495.5 48.1429
1496.5 91.8571
1497.5 130
1498.5 285.286
1499.5 636.143
1500.5 454.571
1501.5 82.4286
1502.5 115.143
1503.5 33
1504.5 47
1505.5 13.5714
1506.5 84.7143
1507.5 97.8571
1508.5 74.5714
1509.5 -5.57143
1510.5 51.7143
1511.5 13
1512.5 11.7143
1513.5 117.571
1514.5 -12
1515.5 16
1516.5 53.8571
1517.5 70.1429
1518.5 16.8571
1519.5 -20.1429
1520.5 -9
1521.5 8
1522.5 15.7143
1523.5 18.8571
1524.5 -19.8571
1525.5 39.8571
1526.5 78.8571
1527.5 96.2857
1528.5 48.8571
1529.5 50.1429
1530.5 69
1531.5 31.4286
1532.5 36.7143
1533.5 62
1534.5 25
1535.5 62
1536.5 28.1429
1537.5 -34.7143
1538.5 38.1429
1539.5 35.8571
1540.5 22.7143
1541.5 -70.4286
1542.5 58
1543.5 70.5714
1544.5 67.4286
1545.5 56.8571
1546.5 10.1429
1547.5 -51.4286
1548.5 61.8571
1549.5 31.8571
1550.5 34.5714
1551.5 50.1429
1552.5 56.4286
1553.5 28.2857
1554.5 25.4286
1555.5 20.7143
1556.5 10.5714
1557.5 77.5714
1558.5 108.714
1559.5 123.286
1560.5 112.429
1561.5 18.1429
1562.5 56.8571
1563.5 54.4286
1564.5 81
1565.5 103.143
1566.5 26.4286
1567.5 58.4286
1568.5 34.4286
1569.5 44.2857
1570.5 0.714283
1571.5 -4.42857
1572.5 82
1573.5 22.1429
1574.5 -10.4286
1575.5 13.5714
1576.5 -19.7143
1577.5 -20.4286
1578.5 54.8571
1579.5 -5.85715
1580.5 26.2857
1581.5 1.14285
1582.5 22.4286
1583.5 7.42857
1584.5 38.7143
1585.5 -37.5714
1586.5 27.1429
1587.5 27.2857
1588.5 -10.4286
1589.5 48.8571
1590.5 13
1591.5 80.1429
1592.5 12.8571
1593.5 67.5714
1594.5 13.1429
1595.5 39.1429
1596.5 -5.42857
1597.5 67
1598.5 22.8571
1599.5 13.1429
1600.5 21.1429
1601.5 51.5714
1602.5 60
1603.5 -6.85715
1604.5 40.7143
1605.5 60.8571
1606.5 105.429
1607.5 50
1608.5 77.5714
1609.5 33.2857
1610.5 66.5714
1611.5 91.4286
1612.5 20.5714
1613.5 22.1429
1614.5 4.14285
1615.5 79.8571
1616.5 45.4286
1617.5 44
1618.5 55.8571
1619.5 36.2857
1620.5 86.5714
1621.5 84.7143
1622.5 60
1623.5 78
1624.5 17.8571
1625.5 21.8571
1626.5 35.4286
1627.5 19.2857
1628.5 52.2857
1629.5 15.1429
1630.5 36.8571
1631.5 70.4286
1632.5 112
1633.5 317.286
1634.5 561.286
1635.5 603.143
1636.5 352.286
1637.5 81.8571
1638.5 27.7143
1639.5 1.57142
1640.5 82.2857
1641.5 -42.1429
1642.5 20.8571
1643.5 3.57143
1644.5 -14.2857
1645.5 -8.14286
1646.5 34.7143
1647.5 55.5714
1648.5 -22.2857
1649.5 -30.2857
1650.5 54.4286
1651.5 16.4286
1652.5 -27.1429
1653.5 -18.8571
1654.5 6.28571
1655.5 2.71428
1656.5 35
1657.5 84.1429
1658.5 54.1429
1659.5 91.7143
1660.5 79.8571
1661.5 1.28571
1662.5 55
1663.5 11.8571
1664.5 66.8571
1665.5 34.4286
1666.5 53.4286
1667.5 13.7143
1668.5 65.8571
1669.5 47.4286
1670.5 39.1429
1671.5 20.1429
1672.5 -15.1429
1673.5 19.1429
1674.5 51.2857
1675.5 27.8571
1676.5 -21.1429
1677.5 59
1678.5 47.7143
1679.5 18.2857
1680.5 5
1681.5 35.2857
1682.5 60.2857
1683.5 28
1684.5 57.1429
1685.5 67.1429
1686.5 66.8571
1687.5 1.28571
1688.5 6.42857
1689.5 35
1690.5 53.1429
1691.5 31.2857
1692.5 39.7143
1693.5 59.5714
1694.5 51.8571
1695.5 61.5714
1696.5 7.42857
1697.5 2.85714
1698.5 19.4286
1699.5 36.8571
1700.5 38.5714
1701.5 9.42857
1702.5 -4.71429
1703.5 22.7143
1704.5 87.4286
1705.5 -2.71429
1706.5 26.4286
1707.5 -10.7143
1708.5 -33.5714
1709.5 53.5714
1710.5 30.2857
1711.5 44.7143
1712.5 20.5714
1713.5 47.2857
1714.5 77.4286
1715.5 -30.1429
1716.5 -12.1429
1717.5 16.7143
1718.5 27.5714
1719.5 65.8571
1720.5 4.71428
1721.5 19.2857
1722.5 27.2857
1723.5 63.8571
1724.5 100.571
1725.5 116.714
1726.5 70.7143
1727.5 77
1728.5 40.2857
1729.5 66.8571
1730.5 92.4286
1731.5 75.2857
1732.5 59.7143
1733.5 41.4286
1734.5 56
1735.5 75.4286
1736.5 99.8571
1737.5 75.7143
1738.5 91.2857
1739.5 31.5714
1740.5 40.8571
1741.5 41.5714
1742.5 29
1743.5 -44
1744.5 -14.4286
1745.5 27.7143
1746.5 17.7143
1747.5 26.8571
1748.5 36.1429
1749.5 36
1750.5 30.8571
1751.5 72
1752.5 78.5714
1753.5 53
1754.5 97.7143
1755.5 61.4286
1756.5 32.8571
1757.5 83.5714
1758.5 -4.71429
1759.5 56.2857
1760.5 43.2857
1761.5 33.1429
1762.5 90.4286
1763.5 12.2857
1764.5 31.8571
1765.5 20
1766.5 36.1429
1767.5 36.7143
1768.5 15.2857
1769.5 63.7143
1770.5 44
1771.5 29.5714
1772.5 10.8571
1773.5 25
1774.5 24.7143
1775.5 15.1429
1776.5 -1.71429
1777.5 22.4286
1778.5 97.5714
1779.5 11
1780.5 32.8571
1781.5 14.1429
1782.5 -28.4286
1783.5 -5.14286
1784.5 26.7143
1785.5 72.2857
1786.5 62.4286
1787.5 2.42857
1788.5 31.1429
1789.5 -15.8571
1790.5 40.4286
1791.5 9.14285
1792.5 21.5714
1793.5 -3.28572
1794.5 8.57143
1795.5 5
1796.5 48.8571
1797.5 -9.57143
1798.5 31.5714
1799.5 -17.5714
1800.5 38.1429
1801.5 16.7143
1802.5 -5.71429
1803.5 18.7143
1804.5 24.2857
1805.5 45
1806.5 26
1807.5 50.7143
1808.5 -3.93391e-06
1809.5 2.71428
1810.5 -4.85715
1811.5 59.8571
1812.5 25.1429
1813.5 45.5714
1814.5 69.5714
1815.5 21.1429
1816.5 35.5714
1817.5 -12
1818.5 57.8571
1819.5 47.8571
1820.5 1.14285
1821.5 48.5714
1822.5 5.28571
1823.5 34
1824.5 37
1825.5 44
1826.5 36.5714
1827.5 16.8571
1828.5 39
1829.5 53.7143
1830.5 49.5714
1831.5 41.4286
1832.5 52
1833.5 31.4286
1834.5 30
1835.5 37.7143
1836.5 50.1429
1837.5 85
1838.5 153.429
1839.5 263
1840.5 289.714
1841.5 163.429
1842.5 121.286
1843.5 165.286
1844.5 117.571
1845.5 39.4286
1846.5 60
1847.5 52.1429
1848.5 51
1849.5 45.5714
1850.5 26.1429
1851.5 -14.2857
1852.5 24.7143
1853.5 -2.14286
1854.5 34.5714
1855.5 72.5714
1856.5 65.7143
1857.5 74.1429
1858.5 87.5714
1859.5 44.5714
1860.5 -33.5714
1861.5 49.2857
1862.5 36.8571
1863.5 -7.85715
1864.5 66
1865.5 -4.14286
1866.5 4.42857
1867.5 28.7143
1868.5 43.7143
1869.5 -19.1429
1870.5 -19.5714
1871.5 47
1872.5 47
1873.5 87
1874.5 61
1875.5 23.1429
1876.5 11.5714
1877.5 18.8571
1878.5 -37.8571
1879.5 18.7143
1880.5 23
1881.5 9
1882.5 -59
1883.5 -185.429
1884.5 -323.286
1885.5 -361.571
1886.5 -70.1429
1887.5 -75.8572
1888.5 43.8571
1889.5 -28
1890.5 6.42857
1891.5 -18.2857
1892.5 35.4286
1893.5 12.1429
1894.5 59.5714
1895.5 73.7143
1896.5 -32.5714
1897.5 24.2857
1898.5 -24.7143
1899.5 14.2857
1900.5 3.28571
1901.5 -22.4286
1902.5 -16.4286
1903.5 61.7143
1904.5 2.14285
1905.5 44.5714
1906.5 7.14286
1907.5 46.7143
1908.5 46
1909.5 0.714284
1910.5 29
1911.5 19.7143
1912.5 -39.2857
1913.5 -27.5714
1914.5 7.71428
1915.5 27
1916.5 33
1917.5 -33.5714
1918.5 20.1429
1919.5 15.7143
1920.5 27.4286
1921.5 34.4286
1922.5 11.1429
1923.5 39.2857
1924.5 15.2857
1925.5 60
1926.5 48.8571
1927.5 98.7143
1928.5 47.1429
1929.5 20.1429
1930.5 86.4286
1931.5 152.429
1932.5 129
1933.5 31
1934.5 48
1935.5 48
1936.5 56.2857
1937.5 42.4286
1938.5 20.4286
1939.5 -19.8571
1940.5 17.1429
1941.5 14.7143
1942.5 12.4286
1943.5 26
1944.5 43.7143
1945.5 -25.8571
1946.5 20.5714
1947.5 28.7143
1948.5 29.2857
1949.5 35.8571
1950.5 37.1429
1951.5 37.1429
1952.5 27
1953.5 34.5714
1954.5 24.2857
1955.5 25.4286
1956.5 89.7143
1957.5 10.7143
1958.5 33.8571
1959.5 44.8571
1960.5 57.2857
1961.5 48
1962.5 27.1429
1963.5 42.8571
1964.5 30.5714
1965.5 18.5714
1966.5 56
1967.5 36
1968.5 15.5714
1969.5 58.1429
1970.5 13.2857
1971.5 45.4286
1972.5 39.5714
1973.5 28
1974.5 -8.28572
1975.5 17.4286
1976.5 29.4286
1977.5 46.7143
1978.5 12.7143
1979.5 18
1980.5 3.42857
1981.5 -10.1429
1982.5 103.571
1983.5 16.4286
1984.5 44.1429
1985.5 41.8571
1986.5 33.5714
1987.5 7.28571
1988.5 35.5714
1989.5 35.2857
1990.5 42
1991.5 36.2857
1992.5 14.8571
1993.5 42.5714
1994.5 53.2857
1995.5 97.5714
1996.5 56.7143
1997.5 36.8571
1998.5 44.5714
1999.5 56.7143
2000.5 9.71428
2001.5 -29.2857
2002.5 30.8571
2003.5 31.2857
2004.5 24.1429
2005.5 54
2006.5 11
2007.5 8.57143
2008.5 10.1429
2009.5 6.14285
2010.5 7.42857
2011.5 79
2012.5 32.8571
2013.5 -20.8571
2014.5 2.71428
2015.5 63.1429
2016.5 29.5714
2017.5 38.5714
2018.5 38.7143
2019.5 32.5714
2020.5 -0.857145
2021.5 -20.5714
2022.5 30.5714
2023.5 36.2857
2024.5 25.2857
2025.5 8.57143
2026.5 12.4286
2027.5 -10
2028.5 8.71428
2029.5 74.4286
2030.5 11.4286
2031.5 -7.85714
2032.5 23.8571
2033.5 3.42857
2034.5 -0.428573
2035.5 62
2036.5 23.8571
2037.5 47.1429
2038.5 45.7143
2039.5 -24.8571
2040.5 45.2857
2041.5 26.7143
2042.5 30.5714
2043.5 47.4286
2044.5 62.7143
2045.5 18.7143
2046.5 16.4286
2047.5 42.2857
2048.5 41.7143
2049.5 33.5714
2050.5 8.42857
2051.5 22.5714
2052.5 5.28571
2053.5 14.1429
2054.5 2.14285
2055.5 33.1429
2056.5 105.571
2057.5 47.1429
2058.5 46.2857
2059.5 22.4286
2060.5 38
2061.5 14.4286
2062.5 43.1429
2063.5 60.1429
2064.5 55.2857
2065.5 44.4286
2066.5 45.4286
2067.5 20.1429
2068.5 50.1429
2069.5 67.1429
2070.5 151.429
2071.5 175.429
2072.5 151
2073.5 65.2857
2074.5 57
2075.5 35.2857
2076.5 14.5714
2077.5 49.7143
2078.5 31.7143
2079.5 62.4286
2080.5 5.71428
2081.5 46.8571
2082.5 39.4286
2083.5 36.7143
2084.5 -8.57143
2085.5 39.1429
2086.5 15.2857
2087.5 35.8571
2088.5 118.571
2089.5 85.4286
2090.5 55
2091.5 6.28571
2092.5 64.1429
2093.5 33.7143
2094.5 7
2095.5 50
2096.5 4.57143
2097.5 24.5714
2098.5 -10.2857
2099.5 76.1429
2100.5 -7.42857
2101.5 33.2857
2102.5 11.1429
2103.5 -6.28572
2104.5 50.2857
2105.5 -21.5714
2106.5 40.8571
2107.5 15.5714
2108.5 6.71428
2109.5 48.5714
2110.5 25.7143
2111.5 23.5714
2112.5 42.4286
2113.5 20.4286
2114.5 37.4286
2115.5 -6.71429
2116.5 4.71428
2117.5 51.7143
2118.5 6.28571
2119.5 39
2120.5 27.5714
2121.5 41.4286
2122.5 -2.28572
2123.5 48
2124.5 7
2125.5 8.42857
2126.5 33.1429
2127.5 86.1429
2128.5 55
2129.5 34.2857
2130.5 51.4286
2131.5 44.5714
2132.5 86
2133.5 56
2134.5 88.8571
2135.5 84.1429
2136.5 53
2137.5 45.4286
2138.5 19.7143
2139.5 37.5714
2140.5 -3.57143
2141.5 -37
2142.5 -29.5714
2143.5 -128
2144.5 -169.857
2145.5 -31.1429
2146.5 34.5714
2147.5 59.7143
2148.5 21.5714
2149.5 94.8571
2150.5 209
2151.5 16.8571
2152.5 1.14285
2153.5 27.5714
2154.5 32
2155.5 55.7143
2156.5 27.7143
2157.5 53.2857
2158.5 0.857141
2159.5 2.28571
2160.5 39.5714
2161.5 47.4286
2162.5 10.2857
2163.5 2.71428
2164.5 38.2857
2165.5 -4.28572
2166.5 6.42857
2167.5 1.42857
2168.5 24.7143
2169.5 28.4286
2170.5 -1.28572
2171.5 39.2857
2172.5 2.71428
2173.5 -37.8571
2174.5 54.8571
2175.5 55
2176.5 -5
2177.5 33.1429
2178.5 66.2857
2179.5 42.7143
2180.5 10.8571
2181.5 25.5714
2182.5 55.1429
2183.5 40.7143
2184.5 31.7143
2185.5 60
2186.5 52.1429
2187.5 1.28571
2188.5 23.7143
2189.5 17.5714
2190.5 47.2857
2191.5 14.4286
2192.5 32.4286
2193.5 -32.1429
2194.5 18.8571
2195.5 -8
2196.5 22.2857
2197.5 94.1429
2198.5 27
2199.5 22.4286
2200.5 57.7143
2201.5 144
2202.5 13.8571
2203.5 -0.857144
2204.5 13.2857
2205.5 37
2206.5 17
2207.5 45.4286
2208.5 10
2209.5 -6.14286
2210.5 13
2211.5 70
2212.5 37
2213.5 26
2214.5 17
2215.5 30.7143
2216.5 26.1429
2217.5 4.85714
2218.5 2.85714
2219.5 6.71428
2220.5 91.1429
2221.5 31.4286
2222.5 16.5714
2223.5 54.8571
2224.5 33.8571
2225.5 61.2857
2226.5 37.8571
2227.5 10
2228.5 49.8571
2229.5 26.8571
2230.5 14.2857
2231.5 23.5714
2232.5 2.71428
2233.5 16.8571
2234.5 48.4286
2235.5 47.7143
2236.5 33.1429
2237.5 7.71428
2238.5 51.1429
2239.5 64.8571
2240.5 74.2857
2241.5 31.7143
2242.5 28.1429
2243.5 23.8571
2244.5 35.7143
2245.5 -1.42857
2246.5 45
2247.5 36.7143
2248.5 37.2857
2249.5 37.4286
2250.5 81.2857
2251.5 18.7143
2252.5 13.5714
2253.5 -104.714
2254.5 -244.286
2255.5 -432.143
2256.5 -290.143
2257.5 -106.429
2258.5 -56.4286
2259.5 -2.14286
2260.5 38.5714
2261.5 27.8571
2262.5 53.8571
2263.5 58.4286
2264.5 74.8571
2265.5 68.5714
2266.5 47.7143
2267.5 40.7143
2268.5 41.4286
2269.5 -0.57143
2270.5 63.2857
2271.5 31.2857
2272.5 18.4286
2273.5 28
2274.5 48.2857
2275.5 62.4286
2276.5 51.7143
2277.5 19.8571
2278.5 6.42857
2279.5 -1
2280.5 32
2281.5 -15.4286
2282.5 9.42857
2283.5 44.8571
2284.5 40.8571
2285.5 13.1429
2286.5 40.1429
2287.5 23.8571
2288.5 7.57143
2289.5 23
2290.5 53.4286
2291.5 -9.14286
2292.5 47.4286
2293.5 -1.14286
2294.5 31.1429
2295.5 12.4286
2296.5 37.8571
2297.5 44.7143
2298.5 -30
2299.5 28.4286
2300.5 -17.7143
2301.5 -3.85715
2302.5 -20.8571
2303.5 19
2304.5 40.2857
2305.5 26.1429
2306.5 26.5714
2307.5 38.8571
2308.5 42
2309.5 14.5714
2310.5 21.5714
2311.5 31.8571
2312.5 11
2313.5 21
2314.5 41
2315.5 -9.85714
2316.5 49.5714
2317.5 32.2857
2318.5 3.71428
2319.5 27.8571
2320.5 14
2321.5 7
2322.5 -8
2323.5 4.71428
2324.5 25.5714
2325.5 42.5714
2326.5 -2.71429
2327.5 -3.71429
2328.5 -12.2857
2329.5 46.8571
2330.5 33.1429
2331.5 -23.8571
2332.5 49.2857
2333.5 -2.14286
2334.5 35.8571
2335.5 80.2857
2336.5 -14.4286
2337.5 29.5714
2338.5 -17.7143
2339.5 23.4286
2340.5 39.4286
2341.5 -2.28572
2342.5 12.4286
2343.5 62.1429
2344.5 12.7143
2345.5 22
2346.5 -12.1429
2347.5 10.5714
2348.5 23.7143
2349.5 -9.14286
2350.5 29.5714
2351.5 28.8571
2352.5 55.5714
2353.5 3.28571
2354.5 48.4286
2355.5 9.28571
2356.5 49
2357.5 -3.42857
2358.5 44
2359.5 -4.57143
2360.5 24.1429
2361.5 48.4286
2362.5 38.2857
2363.5 38.2857
2364.5 46.8571
2365.5 12.4286
2366.5 34.4286
2367.5 10.4286
2368.5 16.2857
2369.5 26.5714
2370.5 34.2857
2371.5 29.2857
2372.5 15.5714
2373.5 6.14286
2374.5 32.2857
2375.5 12.1429
2376.5 5.28571
2377.5 53.7143
2378.5 42.1429
2379.5 -9.85714
2380.5 11.2857
2381.5 6
2382.5 27.1429
2383.5 23.7143
2384.5 12.1429
2385.5 53.2857
2386.5 45.1429
2387.5 45.7143
2388.5 16.4286
2389.5 5.42857
2390.5 26.7143
2391.5 25
2392.5 26.4286
2393.5 42.4286
2394.5 31.1429
2395.5 9.28571
2396.5 58.4286
2397.5 31
2398.5 35.2857
2399.5 30.1429
2400.5 -18.4286
2401.5 10.7143
2402.5 -35.8571
2403.5 12.8571
2404.5 53.1429
2405.5 9.14286
2406.5 21.8571
2407.5 17.1429
2408.5 -13.4286
2409.5 18
2410.5 -1.57143
2411.5 34.8571
2412.5 30.2857
2413.5 -11.5714
2414.5 74.1429
2415.5 60.7143
2416.5 57.1429
2417.5 9.42857
2418.5 34.2857
2419.5 -5.71429
2420.5 48.2857
2421.5 6.85714
2422.5 46
2423.5 21.4286
2424.5 -28.2857
2425.5 20.4286
2426.5 35.1429
2427.5 -18.8571
2428.5 29.8571
2429.5 -14.5714
2430.5 -3.42857
2431.5 23.7143
2432.5 11.8571
2433.5 42.2857
2434.5 2.14286
2435.5 31.2857
2436.5 29.7143
2437.5 59.2857
2438.5 19.8571
2439.5 58.4286
2440.5 38.5714
2441.5 48.7143
2442.5 28.2857
2443.5 5.14286
2444.5 -3
2445.5 22.8571
2446.5 3
2447.5 37.4286
2448.5 34.2857
2449.5 48.1429
2450.5 29.5714
2451.5 50.1429
2452.5 40.4286
2453.5 -15.1429
2454.5 34.5714
2455.5 35
2456.5 5.42857
2457.5 12.1429
2458.5 37.5714
2459.5 63.8571
2460.5 20
2461.5 53.4286
2462.5 30.1429
2463.5 63.4286
2464.5 33.5714
2465.5 -1.57143
2466.5 -4.57143
2467.5 30
2468.5 42.4286
2469.5 45.5714
2470.5 18.5714
2471.5 36
2472.5 12.7143
2473.5 47.7143
2474.5 55.5714
2475.5 49
2476.5 64.5714
2477.5 65.2857
2478.5 57.7143
2479.5 6.42857
2480.5 21.2857
2481.5 16.5714
2482.5 25.7143
2483.5 43.1429
2484.5 1.42857
2485.5 34.1429
2486.5 23.1429
2487.5 37.7143
2488.5 27
2489.5 27.7143
2490.5 24.4286
2491.5 38.7143
2492.5 39.2857
2493.5 20.1429
2494.5 34.8571
2495.5 64.4286
2496.5 11.7143
2497.5 59.4286
2498.5 48.4286
2499.5 38.5714
2500.5 47
2501.5 8
2502.5 45.1429
2503.5 3
2504.5 42.7143
2505.5 22.4286
2506.5 15
2507.5 31.5714
2508.5 11.1429
2509.5 -0.714287
2510.5 27.1429
2511.5 41.2857
2512.5 14
2513.5 37
2514.5 35.8571
2515.5 31.5714
2516.5 28.8571
2517.5 69.8571
2518.5 54.1429
2519.5 35
2520.5 41.2857
2521.5 8
2522.5 4.14286
2523.5 13.7143
2524.5 52.5714
2525.5 41.7143
2526.5 12.5714
2527.5 43.5714
2528.5 26.8571
2529.5 9.57143
2530.5 0.571427
2531.5 22.2857
2532.5 21.7143
2533.5 67.8571
2534.5 32.5714
2535.5 9.28571
2536.5 21.5714
2537.5 -10.5714
2538.5 23.4286
2539.5 42.2857
2540.5 37.8571
2541.5 10.5714
2542.5 44.5714
2543.5 32
2544.5 56.5714
2545.5 18
2546.5 3
2547.5 30.5714
2548.5 -7.71429
2549.5 43.5714
2550.5 4
2551.5 71.5714
2552.5 6.57143
2553.5 14.5714
2554.5 50
2555.5 18
2556.5 22.8571
2557.5 12.5714
2558.5 4.42857
2559.5 4.85714
2560.5 18.2857
2561.5 60.8571
2562.5 16.5714
2563.5 6.85714
2564.5 21.2857
2565.5 84
2566.5 12
2567.5 30
2568.5 33.7143
2569.5 -2.28572
2570.5 14.7143
2571.5 34.4286
2572.5 26.1429
2573.5 51.4286
2574.5 5.28571
2575.5 12.4286
2576.5 31.2857
2577.5 17.1429
2578.5 53.8571
2579.5 44.1429
2580.5 16.5714
2581.5 -6.42857
2582.5 56.4286
2583.5 -7.71429
2584.5 1.71428
2585.5 -11.4286
2586.5 6.85714
2587.5 43.2857
2588.5 46.5714
2589.5 35.1429
2590.5 11.2857
2591.5 20.7143
2592.5 27
2593.5 16.4286
2594.5 -6
2595.5 51.8571
2596.5 48
2597.5 39.7143
2598.5 36
2599.5 74.1429
2600.5 91.7143
2601.5 35.8571
2602.5 61.4286
2603.5 16.2857
2604.5 21.1429
2605.5 15.4286
2606.5 19
2607.5 18.2857
2608.5 30.1429
2609.5 39.1429
2610.5 1.57143
2611.5 22.8571
2612.5 40.4286
2613.5 54.1429
2614.5 18.4286
2615.5 35.7143
2616.5 22.5714
2617.5 8.71428
2618.5 25.1429
2619.5 41.7143
2620.5 8.57143
2621.5 9
2622.5 18.8571
2623.5 64
2624.5 78.7143
2625.5 75
2626.5 46.7143
2627.5 57.1429
2628.5 22.8571
2629.5 -23
2630.5 18
2631.5 1.14286
2632.5 8.14286
2633.5 52.2857
2634.5 -0.857144
2635.5 11.7143
2636.5 32
2637.5 13.5714
2638.5 -15
2639.5 30.2857
2640.5 3.71428
2641.5 15.2857
2642.5 28.4286
2643.5 43.5714
2644.5 -0.142859
2645.5 20.2857
2646.5 5
2647.5 22.8571
2648.5 -6.57143
2649.5 14
2650.5 19
2651.5 -15.2857
2652.5 36
2653.5 21.2857
2654.5 64
2655.5 38.1429
2656.5 80.2857
2657.5 -7.85715
2658.5 21.4286
2659.5 6
2660.5 39.5714
2661.5 69.7143
2662.5 2.71428
2663.5 3.28571
2664.5 48.8571
2665.5 53.1429
2666.5 26
2667.5 36.1429
2668.5 0.285712
2669.5 47.7143
2670.5 58.1429
2671.5 74.1429
2672.5 -1
2673.5 49.4286
2674.5 63
2675.5 49.8571
2676.5 41.7143
2677.5 28.1429
2678.5 23.4286
2679.5 25.4286
2680.5 57.7143
2681.5 13
2682.5 20
2683.5 2.28571
2684.5 21.8571
2685.5 9.57143
2686.5 24.1429
2687.5 -20.5714
2688.5 -3.42857
2689.5 35.5714
2690.5 35.8571
2691.5 23.2857
2692.5 37.1429
2693.5 16.7143
2694.5 12
2695.5 14.4286
2696.5 9.57143
2697.5 19.2857
2698.5 49.7143
2699.5 27.2857
2700.5 -9.42857
2701.5 12.2857
2702.5 1.14286
2703.5 10.8571
2704.5 14.2857
2705.5 25.2857
2706.5 54.1429
2707.5 75.5714
2708.5 24.7143
2709.5 -11.7143
2710.5 21.8571
2711.5 6.14286
2712.5 5.85714
2713.5 13.8571
2714.5 36.1429
2715.5 21.1429
2716.5 39
2717.5 -5.85714
2718.5 29.1429
2719.5 18.7143
2720.5 15.8571
2721.5 38.4286
2722.5 28.8571
2723.5 -49.2857
2724.5 22.5714
2725.5 21.5714
2726.5 21.1429
2727.5 -33.1429
2728.5 11.1429
2729.5 38.7143
2730.5 -43.1429
2731.5 -37
2732.5 -44.5714
2733.5 -84.1429
2734.5 -37.8571
2735.5 -33.5714
2736.5 20.1429
2737.5 65.1429
2738.5 77
2739.5 90.5714
2740.5 60.2857
2741.5 0.999999
2742.5 51
2743.5 60.4286
2744.5 10
2745.5 31.4286
2746.5 18.4286
2747.5 27.7143
2748.5 20.4286
2749.5 30.8571
2750.5 46.1429
2751.5 66.7143
2752.5 78.5714
2753.5 47.2857
2754.5 48.2857
2755.5 42.4286
2756.5 47.5714
2757.5 30.4286
2758.5 71.1429
2759.5 66.7143
2760.5 51.2857
2761.5 34.7143
2762.5 14.7143
2763.5 28.8571
2764.5 53.2857
2765.5 36.2857
2766.5 12.2857
2767.5 58.1429
2768.5 7.28571
2769.5 25.2857
2770.5 7.42857
2771.5 6.28571
2772.5 6.71428
2773.5 22.8571
2774.5 -7.14286
2775.5 40.4286
2776.5 15
2777.5 30.5714
2778.5 18.7143
2779.5 58
2780.5 21.5714
2781.5 57.7143
2782.5 34.1429
2783.5 36.2857
2784.5 19.4286
2785.5 16.7143
2786.5 23.8571
2787.5 27.1429
2788.5 34.5714
2789.5 25.5714
2790.5 -13.4286
2791.5 -1.85714
2792.5 12.1429
2793.5 25
2794.5 28.1429
2795.5 9.14286
2796.5 20.1429
2797.5 28.1429
2798.5 35.8571
2799.5 23.7143
2800.5 58.5714
2801.5 31.7143
2802.5 53.4286
2803.5 20.2857
2804.5 -1.14286
2805.5 5.42857
2806.5 22.2857
2807.5 37
2808.5 45.1429
2809.5 43.7143
2810.5 52.8571
2811.5 21.8571
2812.5 20.7143
2813.5 31.2857
2814.5 71.8571
2815.5 33.8571
2816.5 71.1429
2817.5 41.2857
2818.5 5.71428
2819.5 -36.8571
2820.5 8
2821.5 -1.19209e-06
2822.5 7.42857
2823.5 -6.28572
2824.5 28.8571
2825.5 27.7143
2826.5 8.28571
2827.5 39
2828.5 16.2857
2829.5 40.8571
2830.5 51.2857
2831.5 -2.42857
2832.5 -1.14286
2833.5 22.4286
2834.5 37.8571
2835.5 36.7143
2836.5 -1.14286
2837.5 52.1429
2838.5 46.5714
2839.5 18.2857
2840.5 20.2857
2841.5 35.1429
2842.5 36.2857
2843.5 52
2844.5 75.8571
2845.5 43.2857
2846.5 50.5714
2847.5 61.7143
2848.5 3.85714
2849.5 28.7143
2850.5 42.4286
2851.5 40.1429
2852.5 44
2853.5 25.7143
2854.5 7.28571
2855.5 25
2856.5 50
2857.5 50.8571
2858.5 35
2859.5 9.57143
2860.5 33.2857
2861.5 30
2862.5 24.8571
2863.5 41.4286
2864.5 32.8571
2865.5 31.2857
2866.5 25.7143
2867.5 13
2868.5 28.4286
2869.5 9
2870.5 71.2857
2871.5 9.14286
2872.5 47.2857
2873.5 32.8571
2874.5 22.4286
2875.5 21.4286
2876.5 36.4286
2877.5 52.1429
2878.5 24.4286
2879.5 76.1429
2880.5 64.2857
2881.5 32.1429
2882.5 56.2857
2883.5 37
2884.5 36.5714
2885.5 25.1429
2886.5 26.8571
2887.5 51.5714
2888.5 -2.85714
2889.5 16.8571
2890.5 26.8571
2891.5 40.2857
2892.5 14.2857
2893.5 61
2894.5 61.1429
2895.5 33.7143
2896.5 39.5714
2897.5 51.1429
2898.5 39.5714
2899.5 33
2900.5 59.4286
2901.5 15
2902.5 38.7143
2903.5 -11.2857
2904.5 36.2857
2905.5 25.8571
2906.5 10
2907.5 44.2857
2908.5 5.14286
2909.5 17.4286
2910.5 27.5714
2911.5 10.5714
2912.5 37.7143
2913.5 28.4286
2914.5 47.2857
2915.5 36.2857
2916.5 7
2917.5 -16.8571
2918.5 -93.8571
2919.5 -216
2920.5 -309.286
2921.5 -291
2922.5 -206.143
2923.5 -78.5714
2924.5 21.4286
2925.5 45.4286
2926.5 19.7143
2927.5 39.8571
2928.5 17
2929.5 23.1429
2930.5 28.7143
2931.5 13.8571
2932.5 51.8571
2933.5 20.1429
2934.5 20.2857
2935.5 21.5714
2936.5 38.1429
2937.5 30.5714
2938.5 31.4286
2939.5 25.7143
2940.5 31.5714
2941.5 1.14286
2942.5 34.7143
2943.5 32.2857
2944.5 23.5714
2945.5 20.1429
2946.5 35.2857
2947.5 73.7143
2948.5 95.5714
2949.5 34.4286
2950.5 21.5714
2951.5 33.5714
2952.5 29.7143
2953.5 8.85714
2954.5 4
2955.5 20.4286
2956.5 18
2957.5 30.5714
2958.5 50.7143
2959.5 40.5714
2960.5 18.8571
2961.5 14.4286
2962.5 32.5714
2963.5 43.2857
2964.5 -0.428573
2965.5 34.4286
2966.5 55.5714
2967.5 16
2968.5 63.5714
2969.5 12.4286
2970.5 88.1429
2971.5 38.4286
2972.5 43.1429
2973.5 49.8571
2974.5 -6.85714
2975.5 12.7143
2976.5 18.2857
2977.5 33.5714
2978.5 13
2979.5 27.5714
2980.5 20.1429
2981.5 12.1429
2982.5 -1.07288e-06
2983.5 24.1429
2984.5 51.7143
2985.5 9.57143
2986.5 17.4286
2987.5 50.4286
2988.5 53.5714
2989.5 41
2990.5 24.2857
2991.5 32.1429
2992.5 38.4286
2993.5 66
2994.5 5.85714
2995.5 15.5714
2996.5 -2.14286
2997.5 7.42857
2998.5 45.7143
2999.5 12
3000.5 20.1429
3001.5 39
3002.5 32.2857
3003.5 35.7143
3004.5 -19.8571
3005.5 -4.42857
3006.5 40
3007.5 31.5714
3008.5 4
3009.5 61.2857
3010.5 48
3011.5 68
3012.5 14.4286
3013.5 28.2857
3014.5 0.285713
3015.5 25.1429
3016.5 -14.4286
3017.5 34.2857
3018.5 37
3019.5 37.8571
3020.5 0.285713
3021.5 24.7143
3022.5 18.1429
3023.5 60
3024.5 -20.4286
3025.5 19.7143
3026.5 25
3027.5 33
3028.5 18.1429
3029.5 10.2857
3030.5 27.4286
3031.5 47
3032.5 41.8571
3033.5 32.1429
3034.5 3.42857
3035.5 0.857141
3036.5 10.1429
3037.5 -52.5714
3038.5 -103.714
3039.5 -68.4286
3040.5 -43.5714
3041.5 10.2857
3042.5 7
3043.5 45.4286
3044.5 34.5714
3045.5 20.4286
3046.5 9.28571
3047.5 7.28571
3048.5 21.7143
3049.5 15.8571
3050.5 -4.42857
3051.5 9.85714
3052.5 -13.7143
3053.5 18.4286
3054.5 -14.8571
3055.5 15
3056.5 39.5714
3057.5 31.8571
3058.5 39.8571
3059.5 65.4286
3060.5 86.4286
3061.5 85.2857
3062.5 88
3063.5 130
3064.5 97.7143
3065.5 80.4286
3066.5 137.143
3067.5 102.714
3068.5 74.2857
3069.5 40.5714
3070.5 50.8571
3071.5 46.1429
3072.5 52.5714
3073.5 52.8571
3074.5 -12.1429
3075.5 23.2857
3076.5 22.1429
3077.5 43.4286
3078.5 7.42857
3079.5 23.1429
3080.5 17.4286
3081.5 58
3082.5 20.7143
3083.5 23.5714
3084.5 46.1429
3085.5 34.1429
3086.5 43
3087.5 17.2857
3088.5 28.1429
3089.5 17.2857
3090.5 42.7143
3091.5 20.2857
3092.5 23
3093.5 38.4286
3094.5 34.1429
3095.5 41.4286
3096.5 43.7143
3097.5 29.5714
3098.5 25.2857
3099.5 59.2857
3100.5 24.5714
3101.5 26.5714
3102.5 48.2857
3103.5 60.5714
3104.5 40
3105.5 47.8571
3106.5 -0.714287
3107.5 33
3108.5 19.1429
3109.5 8.28571
3110.5 21
3111.5 1.85714
3112.5 55.2857
3113.5 30.5714
3114.5 27.1429
3115.5 -1.42857
3116.5 -4.57143
3117.5 -7.85714
3118.5 5
3119.5 7.71428
3120.5 10.4286
3121.5 53.5714
3122.5 9.14286
3123.5 13.7143
3124.5 20.5714
3125.5 17.5714
3126.5 7.85714
3127.5 10.2857
3128.5 14
3129.5 56.2857
3130.5 18.7143
3131.5 -2.42857
3132.5 53.7143
3133.5 23
3134.5 18.4286
3135.5 46.1429
3136.5 29.7143
3137.5 42
3138.5 31.5714
3139.5 25
3140.5 39.4286
3141.5 11.2857
3142.5 19
3143.5 28.1429
3144.5 34.2857
3145.5 26.5714
3146.5 67.4286
3147.5 61.7143
3148.5 48
3149.5 39.8571
3150.5 33.7143
3151.5 9.28571
3152.5 4
3153.5 -3
3154.5 18.4286
3155.5 23
3156.5 40.1429
3157.5 20.2857
3158.5 2.28571
3159.5 21.4286
3160.5 21.2857
3161.5 -0.428572
3162.5 34.8571
3163.5 24.4286
3164.5 14.1429
3165.5 31.1429
3166.5 6
3167.5 15.7143
3168.5 37
3169.5 23.7143
3170.5 23.7143
3171.5 54
3172.5 36.1429
3173.5 19
3174.5 42.8571
3175.5 45.8571
3176.5 27
3177.5 17.5714
3178.5 39.5714
3179.5 18.7143
3180.5 68
3181.5 33.7143
3182.5 23.4286
3183.5 53.8571
3184.5 62.5714
3185.5 46.1429
3186.5 42
3187.5 29.2857
3188.5 17.2857
3189.5 26.4286
3190.5 11.8571
3191.5 26.5714
3192.5 39.8571
3193.5 33.4286
3194.5 27
3195.5 34.1429
3196.5 36.2857
3197.5 6.28571
3198.5 1.85714
3199.5 24.8571
3200.5 11.1429
3201.5 57.8571
3202.5 2.42857
3203.5 28.7143
3204.5 19.4286
3205.5 1.42857
3206.5 13.4286
3207.5 -10.8571
3208.5 32.2857
3209.5 32.1429
3210.5 -19.8571
3211.5 31
3212.5 48.7143
3213.5 25.2857
3214.5 37.4286
3215.5 24.5714
3216.5 25.7143
3217.5 17.5714
3218.5 33.2857
3219.5 9.28571
3220.5 38.7143
3221.5 19.8571
3222.5 25.2857
3223.5 25.7143
3224.5 4.14286
3225.5 12
3226.5 14.5714
3227.5 21.8571
3228.5 25.5714
3229.5 21
3230.5 30
3231.5 35.1429
3232.5 23.2857
3233.5 43.5714
3234.5 57.5714
3235.5 37.4286
3236.5 8.71428
3237.5 31.7143
3238.5 5.42857
3239.5 40.8571
3240.5 49.4286
3241.5 75.5714
3242.5 10
3243.5 16.7143
3244.5 61.4286
3245.5 42.7143
3246.5 22.8571
3247.5 85.4286
3248.5 48
3249.5 56.1429
3250.5 39.5714
3251.5 48.2857
3252.5 -3.71429
3253.5 23.5714
3254.5 -2.71429
3255.5 32.2857
3256.5 13.1429
3257.5 4.42857
3258.5 -48
3259.5 -55.8571
3260.5 -20.1429
3261.5 33.5714
3262.5 39.1429
3263.5 4.28571
3264.5 21.2857
3265.5 12
3266.5 47
3267.5 -20.4286
3268.5 -28.2857
3269.5 31.1429
3270.5 32.5714
3271.5 32.8571
3272.5 39.2857
3273.5 10.2857
3274.5 36.5714
3275.5 23.8571
3276.5 11.1429
3277.5 23.1429
3278.5 -3.42857
3279.5 10.2857
3280.5 18.5714
3281.5 41.7143
3282.5 -13.8571
3283.5 15.1429
3284.5 6.85714
3285.5 10.1429
3286.5 41.1429
3287.5 37
3288.5 40.8571
3289.5 17.2857
3290.5 14.7143
3291.5 21
3292.5 50.4286
3293.5 17.8571
3294.5 31.7143
3295.5 34.2857
3296.5 23.5714
3297.5 26.5714
3298.5 6.85714
3299.5 10.2857
3300.5 -15.5714
3301.5 9.14286
3302.5 -26.1429
3303.5 36.2857
3304.5 18.1429
3305.5 -9.53674e-07
3306.5 15.1429
3307.5 5.42857
3308.5 62.5714
3309.5 22.1429
3310.5 29
3311.5 29
3312.5 35.2857
3313.5 25.7143
3314.5 44.8571
3315.5 34.8571
3316.5 18.1429
3317.5 7
3318.5 34.1429
3319.5 23.5714
3320.5 -4.28572
3321.5 52.4286
3322.5 17.1429
3323.5 29.4286
3324.5 35.7143
3325.5 20.8571
3326.5 42.1429
3327.5 16.2857
3328.5 13.5714
3329.5 7
3330.5 16.2857
3331.5 15.4286
3332.5 57.2857
3333.5 -20.1429
3334.5 4.28571
3335.5 24.5714
3336.5 30.2857
3337.5 48
3338.5 53.8571
3339.5 53.5714
3340.5 43.8571
3341.5 38.5714
3342.5 37.4286
3343.5 35.5714
3344.5 32.8571
3345.5 49.1429
3346.5 6
3347.5 34.7143
3348.5 54.7143
3349.5 74
3350.5 61.8571
3351.5 56.5714
3352.5 33.2857
3353.5 49.5714
3354.5 41
3355.5 46.8571
3356.5 10.8571
3357.5 12.5714
3358.5 28.2857
3359.5 0.571428
3360.5 14.1429
3361.5 10.1429
3362.5 -2.71429
3363.5 21.4286
3364.5 32.4286
3365.5 52.4286
3366.5 62.5714
3367.5 64.5714
3368.5 43.5714
3369.5 12.2857
3370.5 32.1429
3371.5 8.85714
3372.5 27.1429
3373.5 14.5714
3374.5 12
3375.5 -3.85714
3376.5 21.4286
3377.5 39.4286
3378.5 7.42857
3379.5 16.8571
3380.5 26.2857
3381.5 37.4286
3382.5 47.1429
3383.5 17.1429
3384.5 14.5714
3385.5 26.4286
3386.5 20
3387.5 26.5714
3388.5 22.5714
3389.5 24.4286
3390.5 15.2857
3391.5 27.7143
3392.5 34.4286
3393.5 18.2857
3394.5 29
3395.5 65
3396.5 20.1429
3397.5 25.2857
3398.5 21.1429
3399.5 30
3400.5 54.2857
3401.5 24.1429
3402.5 27.5714
3403.5 48.5714
3404.5 5.14286
3405.5 23.8571
3406.5 27.7143
3407.5 15.5714
3408.5 -5.14286
3409.5 33.1429
3410.5 24.7143
3411.5 23.4286
3412.5 13.7143
3413.5 19.5714
3414.5 34.5714
3415.5 30.4286
3416.5 37.2857
3417.5 26.5714
3418.5 16.2857
3419.5 12.2857
3420.5 4.85714
3421.5 8.42857
3422.5 27.4286
3423.5 19
3424.5 -30.5714
3425.5 29.2857
3426.5 6.28571
3427.5 58.8571
3428.5 56.5714
3429.5 72.5714
3430.5 -21.8571
3431.5 19.8571
3432.5 49.2857
3433.5 25.1429
3434.5 28.2857
3435.5 39.2857
3436.5 5.42857
3437.5 6.42857
3438.5 3.14286
3439.5 10.8571
3440.5 16.4286
3441.5 14.1429
3442.5 21.7143
3443.5 28.5714
3444.5 43.8571
3445.5 56.4286
3446.5 31.5714
3447.5 10.8571
3448.5 9.28571
3449.5 30.1429
3450.5 16.7143
3451.5 23.7143
3452.5 19.8571
3453.5 14
3454.5 22.4286
3455.5 66.2857
3456.5 31.8571
3457.5 28.2857
3458.5 55.2857
3459.5 26.2857
3460.5 43.5714
3461.5 -20
3462.5 3.14286
3463.5 31.4286
3464.5 24.7143
3465.5 13.8571
3466.5 26
3467.5 37.1429
3468.5 8.85714
3469.5 47.1429
3470.5 20.7143
3471.5 39.2857
3472.5 21.8571
3473.5 26.8571
3474.5 22.2857
3475.5 56
3476.5 26.7143
3477.5 32.2857
3478.5 27
3479.5 25.1429
3480.5 25
3481.5 20.4286
3482.5 14
3483.5 42.5714
3484.5 41.4286
3485.5 17.4286
3486.5 42.5714
3487.5 37.1429
3488.5 14
3489.5 6.42857
3490.5 12
3491.5 40.8571
3492.5 37.1429
3493.5 15.5714
3494.5 40.1429
3495.5 36.8571
3496.5 16
3497.5 -13.2857
3498.5 6.42857
3499.5 4.85714
3500.5 21.1429
3501.5 19
3502.5 41
3503.5 28
3504.5 32.8571
3505.5 35.8571
3506.5 70.4286
3507.5 31.4286
3508.5 90.1429
3509.5 69.2857
3510.5 37
3511.5 19.4286
3512.5 44.5714
3513.5 26.2857
3514.5 32.7143
3515.5 6.85714
3516.5 21.2857
3517.5 10.8571
3518.5 48
3519.5 34.1429
3520.5 25.8571
3521.5 11.5714
3522.5 10.7143
3523.5 24.2857
3524.5 26.8571
3525.5 10.5714
3526.5 23.8571
3527.5 10.4286
3528.5 14
3529.5 20.8571
3530.5 17.7143
3531.5 77
3532.5 75.4286
3533.5 40.4286
3534.5 42.4286
3535.5 30.5714
3536.5 28
3537.5 28.7143
3538.5 39.4286
3539.5 30.7143
3540.5 17.5714
3541.5 40.1429
3542.5 26.1429
3543.5 31.8571
3544.5 10.2857
3545.5 26.1429
3546.5 36.7143
3547.5 40
3548.5 35.2857
3549.5 7
3550.5 19.5714
3551.5 34.7143
3552.5 38.7143
3553.5 32.2857
3554.5 14.1429
3555.5 27.1429
3556.5 4.14286
3557.5 23.7143
3558.5 17.5714
3559.5 23.1429
3560.5 8.57143
3561.5 8.14286
3562.5 24.5714
3563.5 29.4286
3564.5 -13.2857
3565.5 22.8571
3566.5 26
3567.5 8.71428
3568.5 36.7143
3569.5 29
3570.5 10.4286
3571.5 19.8571
3572.5 16.1429
3573.5 32.5714
3574.5 7.85714
3575.5 26.8571
3576.5 34.8571
3577.5 41.5714
3578.5 50
3579.5 84.2857
3580.5 96.1429
3581.5 134
3582.5 111.143
3583.5 52
3584.5 44
3585.5 55.1429
3586.5 22.1429
3587.5 -12
3588.5 12.1429
3589.5 3.28571
3590.5 25.7143
3591.5 22.1429
3592.5 24
3593.5 44.5714
3594.5 25.8571
3595.5 -10.1429
3596.5 6.42857
3597.5 15.5714
3598.5 16.5714
3599.5 23.2857
3600.5 42.4286
3601.5 62.4286
3602.5 79.8571
3603.5 97.7143
3604.5 119
3605.5 73.1429
3606.5 52.4286
3607.5 17.1429
3608.5 23.4286
3609.5 30
3610.5 16.7143
3611.5 -7.71429
3612.5 13.8571
3613.5 22.1429
3614.5 -5.28572
3615.5 14.4286
3616.5 27
3617.5 13.4286
3618.5 53.1429
3619.5 4.28571
3620.5 4.42857
3621.5 -31.2857
3622.5 21.4286
3623.5 25.8571
3624.5 -6.85714
3625.5 -38.2857
3626.5 -48.8571
3627.5 -64.7143
3628.5 -70.4286
3629.5 -34.4286
3630.5 -0.142858
3631.5 1.57143
3632.5 0.428571
3633.5 10.4286
3634.5 14.8571
3635.5 -3
3636.5 22.7143
3637.5 23.5714
3638.5 24
3639.5 15.7143
3640.5 -4.57143
3641.5 19.5714
3642.5 11.7143
3643.5 15.4286
3644.5 45
3645.5 38.7143
3646.5 33.1429
3647.5 40.8571
3648.5 65
3649.5 73.4286
3650.5 60.5714
3651.5 10.2857
3652.5 22.7143
3653.5 26.5714
3654.5 39.2857
3655.5 54.5714
3656.5 34.1429
3657.5 27.5714
3658.5 78.5714
3659.5 35.1429
3660.5 65.8571
3661.5 84.1429
3662.5 70
3663.5 23.7143
3664.5 17.4286
3665.5 28.2857
3666.5 13.7143
3667.5 35.5714
3668.5 16.5714
3669.5 31.7143
3670.5 3.71429
3671.5 8.14286
3672.5 23.1429
3673.5 28.4286
3674.5 20.2857
3675.5 30.7143
3676.5 33.5714
3677.5 7.71429
3678.5 27.7143
3679.5 -5.85714
3680.5 25.1429
3681.5 20.4286
3682.5 15.4286
3683.5 22.7143
3684.5 29.2857
3685.5 37.5714
3686.5 12.5714
3687.5 37.8571
3688.5 21.5714
3689.5 23.4286
3690.5 16.4286
3691.5 11.4286
3692.5 17.8571
3693.5 33.5714
3694.5 11
3695.5 29
3696.5 26
3697.5 35.2857
3698.5 22
3699.5 15.1429
3700.5 27.2857
3701.5 14
3702.5 31.8571
3703.5 11.7143
3704.5 38.8571
3705.5 39.4286
3706.5 34.7143
3707.5 13.4286
3708.5 3.85714
3709.5 20
3710.5 13.7143
3711.5 45
3712.5 20.7143
3713.5 -2.71429
3714.5 18.8571
3715.5 39.1429
3716.5 -8.71429
3717.5 29.2857
3718.5 -9.28571
3719.5 3.14286
3720.5 0.428571
3721.5 0.857142
3722.5 -3.57143
3723.5 -32
3724.5 -38.5714
3725.5 -40.7143
3726.5 -14.7143
3727.5 16.1429
3728.5 3.57143
3729.5 20.8571
3730.5 34.7143
3731.5 37
3732.5 26.5714
3733.5 34
3734.5 21.1429
3735.5 26.7143
3736.5 7.42857
3737.5 23.4286
3738.5 48.1429
3739.5 39.7143
3740.5 31.1429
3741.5 22.8571
3742.5 31.4286
3743.5 10.5714
3744.5 48.4286
3745.5 -1.14286
3746.5 16.1429
3747.5 16
3748.5 11
3749.5 13.4286
3750.5 42.5714
3751.5 14.7143
3752.5 24
3753.5 27.7143
3754.5 25
3755.5 56.7143
3756.5 80.1429
3757.5 51.2857
3758.5 65.5714
3759.5 86.4286
3760.5 72.8571
3761.5 120.143
3762.5 102
3763.5 54.4286
3764.5 45
3765.5 15.4286
3766.5 28.4286
3767.5 15.7143
3768.5 14
3769.5 22
3770.5 13.1429
3771.5 18.5714
3772.5 -16.8571
3773.5 28.2857
3774.5 16.2857
3775.5 8.57143
3776.5 13.4286
3777.5 -0.571429
3778.5 29.2857
3779.5 25.2857
3780.5 8.71429
3781.5 10.1429
3782.5 26.1429
3783.5 46.1429
3784.5 16.2857
3785.5 34.1429
3786.5 55.7143
3787.5 -14.2857
3788.5 -2
3789.5 25.2857
3790.5 12
3791.5 8.14286
3792.5 25.7143
3793.5 9.14286
3794.5 19.5714
3795.5 -1.28571
3796.5 26.8571
3797.5 8
3798.5 30
3799.5 7.42857
3800.5 5.57143
3801.5 30.7143
3802.5 15.5714
3803.5 15.8571
3804.5 -2.14286
3805.5 35
3806.5 20.2857
3807.5 46.8571
3808.5 56.8571
3809.5 75.2857
3810.5 20.7143
3811.5 36.1429
3812.5 2
3813.5 12.1429
3814.5 13.5714
3815.5 19
3816.5 2.42857
3817.5 24.4286
3818.5 7.42857
3819.5 -2.14286
3820.5 29
3821.5 13.7143
3822.5 21
3823.5 10.4286
3824.5 6.85714
3825.5 16.7143
3826.5 -9
3827.5 12.7143
3828.5 6.71429
3829.5 37.5714
3830.5 20.1429
3831.5 47
3832.5 49.2857
3833.5 23.4286
3834.5 32.2857
3835.5 18.1429
3836.5 27.7143
3837.5 21
3838.5 2.57143
3839.5 3.85714
3840.5 27.8571
3841.5 13
3842.5 21.5714
3843.5 31
3844.5 18.7143
3845.5 10.1429
3846.5 3.42857
3847.5 -1.57143
3848.5 8.57143
3849.5 5.42857
3850.5 -7.15256e-07
3851.5 4.28571
3852.5 3.42857
3853.5 16
3854.5 8.28571
3855.5 31
3856.5 27.7143
3857.5 -13.8571
3858.5 25.7143
3859.5 21.5714
3860.5 18.7143
3861.5 20.8571
3862.5 19.4286
3863.5 3.85714
3864.5 -1.57143
3865.5 1.85714
3866.5 31.8571
3867.5 -0.142858
3868.5 -0.571429
3869.5 23.5714
3870.5 23
3871.5 9.85714
3872.5 43.8571
3873.5 12.4286
3874.5 15
3875.5 17.2857
3876.5 -1.42857
3877.5 10.1429
3878.5 -20.1429
3879.5 -25.7143
3880.5 28.5714
3881.5 -2.42857
3882.5 23.5714
3883.5 11.7143
3884.5 42.1429
3885.5 49.7143
3886.5 101.429
3887.5 68.4286
3888.5 67.2857
3889.5 51.8571
3890.5 33.1429
3891.5 2.71429
3892.5 13.1429
3893.5 26.8571
3894.5 15.1429
3895.5 11.2857
3896.5 12.7143
3897.5 23
3898.5 17.2857
3899.5 39.7143
3900.5 18.4286
3901.5 32.8571
3902.5 14.4286
3903.5 27.8571
3904.5 28.4286
3905.5 26.5714
3906.5 -7.71429
3907.5 29
3908.5 10.2857
3909.5 27.7143
3910.5 5.85714
3911.5 -6.71429
3912.5 18.7143
3913.5 41.5714
3914.5 41.2857
3915.5 48.4286
3916.5 36.4286
3917.5 13
3918.5 45.8571
3919.5 22.4286
3920.5 20.5714
3921.5 13.7143
3922.5 -6.85714
3923.5 20.4286
3924.5 10.8571
3925.5 -5.57143
3926.5 7.14286
3927.5 -2.42857
3928.5 -0.571429
3929.5 9
3930.5 15
3931.5 26.1429
3932.5 7.71429
3933.5 -2.14286
3934.5 15
3935.5 12.7143
3936.5 21.1429
3937.5 25.8571
3938.5 15.7143
3939.5 12.4286
3940.5 16
3941.5 2.85714
3942.5 2.57143
3943.5 -2.85714
3944.5 20.7143
3945.5 -6
3946.5 33.5714
3947.5 -7.85714
3948.5 10.1429
3949.5 18.5714
3950.5 27.8571
3951.5 5
3952.5 19.5714
3953.5 -0.857144
3954.5 42.5714
3955.5 27.8571
3956.5 36.8571
3957.5 7.14286
3958.5 23
3959.5 18.4286
3960.5 -7
3961.5 15.4286
3962.5 13.7143
3963.5 33
3964.5 27.7143
3965.5 24.2857
3966.5 -2
3967.5 35.7143
3968.5 36
3969.5 0.285713
3970.5 31.5714
3971.5 9.71428
3972.5 22.5714
3973.5 38.2857
3974.5 36
3975.5 37.1429
3976.5 38.7143
3977.5 17.1429
3978.5 7.57143
3979.5 8.14286
3980.5 30.4286
3981.5 17.1429
3982.5 25.2857
3983.5 -2.85714
3984.5 26.5714
3985.5 16.1429
3986.5 16.2857
3987.5 28.1429
3988.5 17
3989.5 23.2857
3990.5 32.8571
3991.5 23.4286
3992.5 -8.85714
3993.5 17.7143
3994.5 20.2857
3995.5 16
3996.5 20.7143
3997.5 8.57143
3998.5 31.1429
3999.5 18.4286
4000.5 -5.57143
4001.5 20.4286
4002.5 18
4003.5 18.8571
4004.5 -4.14286
4005.5 -0.142858
4006.5 11.2857
4007.5 22
4008.5 8
4009.5 14
4010.5 14.1429
4011.5 1.42857
4012.5 8
4013.5 23.8571
4014.5 -19.1429
4015.5 9.28571
4016.5 3.14286
4017.5 0.285714
4018.5 23.7143
4019.5 34.2857
4020.5 20.5714
4021.5 9.28571
4022.5 22.1429
4023.5 8.85714
4024.5 17.7143
4025.5 26.7143
4026.5 17.1429
4027.5 -1.57143
4028.5 17.5714
4029.5 4.42857
4030.5 7.57143
4031.5 27
4032.5 36.7143
4033.5 30.7143
4034.5 33.5714
4035.5 25.8571
4036.5 20.4286
4037.5 8.42857
4038.5 9.71429
4039.5 23.5714
4040.5 22.7143
4041.5 15.8571
4042.5 32.1429
4043.5 11.8571
4044.5 3
4045.5 17.8571
4046.5 5.28571
4047.5 11
4048.5 7
4049.5 10.7143
4050.5 27.4286
4051.5 11.4286
4052.5 28.4286
4053.5 26.2857
4054.5 35.1429
4055.5 15.5714
4056.5 38.8571
4057.5 35.1429
4058.5 15
4059.5 14.5714
4060.5 33.7143
4061.5 14.2857
4062.5 15.1429
4063.5 23.5714
4064.5 26.8571
4065.5 -2.28571
4066.5 -5.42857
4067.5 17
4068.5 23.1429
4069.5 33.2857
4070.5 19.2857
4071.5 35.5714
4072.5 23.8571
4073.5 29
4074.5 44.8571
4075.5 21.8571
4076.5 31
4077.5 21.1429
4078.5 30.5714
4079.5 15.4286
4080.5 -9.71429
4081.5 14.2857
4082.5 -7.57143
4083.5 18.2857
4084.5 11.2857
4085.5 3
4086.5 -3.71429
4087.5 -6.57143
4088.5 -1.57143
4089.5 12.1429
4090.5 12.8571
4091.5 -4
4092.5 22.2857
4093.5 -16.1429
4094.5 16.8571
4095.5 15.5714
4096.5 23.8571
4097.5 4.28571
4098.5 9.85714
4099.5 12.8571
4100.5 29.5714
4101.5 -1.14286
4102.5 11.1429
4103.5 17
4104.5 13.2857
4105.5 -6.85714
4106.5 -14.7143
4107.5 5.71429
4108.5 17.5714
4109.5 0.714285
4110.5 19
4111.5 17.5714
4112.5 24.4286
4113.5 29.7143
4114.5 20.7143
4115.5 24.2857
4116.5 18
4117.5 32.4286
4118.5 74.1429
4119.5 60
4120.5 36.2857
4121.5 30.4286
4122.5 42.1429
4123.5 22.1429
4124.5 20.5714
4125.5 8.85714
4126.5 -6
4127.5 -5.71429
4128.5 17.7143
4129.5 23.1429
4130.5 -19.7143
4131.5 -45.1429
4132.5 -52.5714
4133.5 -84.2857
4134.5 -75.8571
4135.5 -41.1429
4136.5 -5.71429
4137.5 -8.42857
4138.5 2.57143
4139.5 8.28571
4140.5 -9.71429
4141.5 -3
4142.5 1.28571
4143.5 0.857142
4144.5 -6.14286
4145.5 7.57143
4146.5 -25.1429
4147.5 -8.85714
4148.5 -34.7143
4149.5 -52
4150.5 -44.1429
4151.5 -19
4152.5 -2.14286
4153.5 40.4286
4154.5 35.5714
4155.5 18.5714
4156.5 72.5714
4157.5 45.5714
4158.5 76.8571
4159.5 138.286
4160.5 52.1429
4161.5 38.2857
4162.5 37.1429
4163.5 28
4164.5 56.8571
4165.5 94.5714
4166.5 96.7143
4167.5 103.286
4168.5 63
4169.5 37.5714
4170.5 28.5714
4171.5 12.1429
4172.5 38.7143
4173.5 20.4286
4174.5 4.85714
4175.5 15.8571
4176.5 19.1429
4177.5 6.42857
4178.5 -8
4179.5 13.4286
4180.5 7.28571
4181.5 35
4182.5 14.4286
4183.5 40.5714
4184.5 54.4286
4185.5 51.5714
4186.5 17.7143
4187.5 47.8571
4188.5 29.4286
4189.5 38.8571
4190.5 19.5714
4191.5 36
4192.5 -2
4193.5 20.2857
4194.5 33.2857
4195.5 13.5714
4196.5 25
4197.5 14.8571
4198.5 34.2857
4199.5 23
4200.5 28
4201.5 10
4202.5 1.28571
4203.5 16.5714
4204.5 7
4205.5 1.85714
4206.5 -1.57143
4207.5 20.5714
4208.5 24.7143
4209.5 26.1429
4210.5 28.7143
4211.5 26.5714
4212.5 27.7143
4213.5 2.85714
4214.5 7.28571
4215.5 24.8571
4216.5 26.7143
4217.5 -5.42857
4218.5 16.7143
4219.5 5
4220.5 7.57143
4221.5 17.5714
4222.5 12.4286
4223.5 -6.85714
4224.5 -0.857143
4225.5 14.5714
4226.5 9.42857
4227.5 20.2857
4228.5 -5.42857
4229.5 28
4230.5 23.4286
4231.5 8.71429
4232.5 18
4233.5 -1.57143
4234.5 7.28571
4235.5 21.1429
4236.5 12.4286
4237.5 10.2857
4238.5 10.5714
4239.5 6.57143
4240.5 15.1429
4241.5 2.85714
4242.5 7.42857
4243.5 17.5714
4244.5 5.14286
4245.5 14.8571
4246.5 -15.5714
4247.5 5.28571
4248.5 -5.71429
4249.5 6.28571
4250.5 6.14286
4251.5 18
4252.5 14.8571
4253.5 -7.57143
4254.5 5.57143
4255.5 2.14286
4256.5 21.8571
4257.5 10.1429
4258.5 -2
4259.5 -13.1429
4260.5 6.28571
4261.5 11.4286
4262.5 7.71429
4263.5 8.85714
4264.5 29.2857
4265.5 28.4286
4266.5 12.7143
4267.5 23.4286
4268.5 20.5714
4269.5 24.7143
4270.5 11.2857
4271.5 12.1429
4272.5 33.5714
4273.5 -3
4274.5 11.1429
4275.5 9.71429
4276.5 9.85714
4277.5 16.5714
4278.5 15.7143
4279.5 7.57143
4280.5 9.14286
4281.5 21.7143
4282.5 11
4283.5 21.2857
4284.5 11.2857
4285.5 10.2857
4286.5 21.7143
4287.5 3
4288.5 29
4289.5 11.1429
4290.5 4.71429
4291.5 21.5714
4292.5 30.2857
4293.5 26.7143
4294.5 26.2857
4295.5 46.7143
4296.5 22.5714
4297.5 29.7143
4298.5 37
4299.5 10.7143
4300.5 17.7143
4301.5 10.1429
4302.5 16.1429
4303.5 16.1429
4304.5 -1.14286
4305.5 1.85714
4306.5 1.42857
4307.5 19.2857
4308.5 12
4309.5 -0.285715
4310.5 -0.714286
4311.5 0.714285
4312.5 2
4313.5 11.5714
4314.5 -4.57143
4315.5 21.7143
4316.5 11.5714
4317.5 23
4318.5 20.1429
4319.5 7.85714
4320.5 15.7143
4321.5 3.14286
4322.5 20
4323.5 20.2857
4324.5 21.5714
4325.5 3
4326.5 20.8571
4327.5 14.4286
4328.5 14
4329.5 -5.14286
4330.5 19
4331.5 10.5714
4332.5 24.5714
4333.5 8.85714
4334.5 41.5714
4335.5 7.85714
4336.5 7.14286
4337.5 11.8571
4338.5 21.5714
4339.5 25.2857
4340.5 7.28571
4341.5 0.714285
4342.5 13.2857
4343.5 12.5714
4344.5 29.8571
4345.5 13.5714
4346.5 25.2857
4347.5 16.2857
4348.5 28.2857
4349.5 23.1429
4350.5 12.7143
4351.5 23.1429
4352.5 3.42857
4353.5 8.85714
4354.5 15.8571
4355.5 17.1429
4356.5 -1.57143
4357.5 29.4286
4358.5 18
4359.5 19.7143
4360.5 7.42857
4361.5 -4.42857
4362.5 27.1429
4363.5 10.7143
4364.5 4.14286
4365.5 -3.57628e-07
4366.5 15.8571
4367.5 11.8571
4368.5 27.2857
4369.5 20
4370.5 20.5714
4371.5 11.1429
4372.5 13.2857
4373.5 11
4374.5 6.28571
4375.5 29.1429
4376.5 2.42857
4377.5 -12.4286
4378.5 22.5714
4379.5 29.1429
4380.5 4.14286
4381.5 21.5714
4382.5 25.8571
4383.5 -0.285715
4384.5 16.8571
4385.5 7.42857
4386.5 6.42857
4387.5 22.2857
4388.5 12
4389.5 1.14286
4390.5 7.28571
4391.5 -3.42857
4392.5 35.1429
4393.5 17.2857
4394.5 30.4286
4395.5 11.2857
4396.5 27.1429
4397.5 11.5714
4398.5 24.5714
4399.5 21.2857
4400.5 3.14286
4401.5 10.8571
4402.5 7.71429
4403.5 11.4286
4404.5 0.142857
4405.5 13.8571
4406.5 -0.142858
4407.5 29.1429
4408.5 13.4286
4409.5 -3.71429
4410.5 12
4411.5 -1
4412.5 16.1429
4413.5 9.57143
4414.5 11.7143
4415.5 16.8571
4416.5 12.2857
4417.5 10.1429
4418.5 12.2857
4419.5 17.8571
4420.5 9.28571
4421.5 6
4422.5 17.5714
4423.5 22.1429
4424.5 43.7143
4425.5 23
4426.5 31.1429
4427.5 33.2857
4428.5 32.8571
4429.5 19.5714
4430.5 18
4431.5 12.1429
4432.5 9.71429
4433.5 -9.42857
4434.5 -11.4286
4435.5 -10
4436.5 26.2857
4437.5 -12.7143
4438.5 10.7143
4439.5 18.7143
4440.5 20.2857
4441.5 13.1429
4442.5 -2.42857
4443.5 8.57143
4444.5 15.8571
4445.5 13.1429
4446.5 8.57143
4447.5 8.28571
4448.5 10.8571
4449.5 3
4450.5 15.8571
4451.5 12
4452.5 17.1429
4453.5 33.1429
4454.5 18.8571
4455.5 44.7143
4456.5 53.2857
4457.5 73.7143
4458.5 39.7143
4459.5 57.1429
4460.5 16
4461.5 7.71429
4462.5 4.28571
4463.5 6
4464.5 34.2857
4465.5 3.42857
4466.5 6.57143
4467.5 13.7143
4468.5 0.857142
4469.5 7.71429
4470.5 12
4471.5 12.5714
4472.5 17.8571
4473.5 25.2857
4474.5 8
4475.5 13.7143
4476.5 23
4477.5 12.2857
4478.5 8.85714
4479.5 20.1429
4480.5 10.4286
4481.5 10.8571
4482.5 14.8571
4483.5 23.7143
4484.5 12
4485.5 -12.7143
4486.5 13.2857
4487.5 34.2857
4488.5 8.85714
4489.5 6.14286
4490.5 2.28571
4491.5 13.4286
4492.5 14.2857
4493.5 13.4286
4494.5 -0.285715
4495.5 16.1429
4496.5 17.8571
4497.5 22.4286
4498.5 18.7143
4499.5 39.1429
4500.5 42.7143
4501.5 3.42857
4502.5 15.4286
4503.5 20.7143
4504.5 24.4286
4505.5 12.4286
4506.5 -6
4507.5 18.5714
4508.5 -1.42857
4509.5 25.1429
4510.5 17.5714
4511.5 12.5714
4512.5 9
4513.5 18.4286
4514.5 -2.85714
4515.5 9.14286
4516.5 23.8571
4517.5 24.4286
4518.5 11.7143
4519.5 33.8571
4520.5 -0.714286
4521.5 1.57143
4522.5 -2.42857
4523.5 26.1429
4524.5 8.57143
4525.5 32.1429
4526.5 18.1429
4527.5 3.85714
4528.5 1.85714
4529.5 26.4286
4530.5 5.42857
4531.5 12.4286
4532.5 9.28571
4533.5 -2.57143
4534.5 14.4286
4535.5 -0.857143
4536.5 -0.714286
4537.5 2.57143
4538.5 6.85714
4539.5 6.14286
4540.5 10.8571
4541.5 1.42857
4542.5 0.857143
4543.5 4.42857
4544.5 16.1429
4545.5 17.1429
4546.5 7.28571
4547.5 8.28571
4548.5 11.1429
4549.5 22.7143
4550.5 2.14286
4551.5 4.85714
4552.5 18.4286
4553.5 25.7143
4554.5 26.2857
4555.5 23.7143
4556.5 25.4286
4557.5 21.5714
4558.5 38.8571
4559.5 22.1429
4560.5 5.71429
4561.5 8.85714
4562.5 18.4286
4563.5 0.857142
4564.5 5.28571
4565.5 24.2857
4566.5 -0.285715
4567.5 9.14286
4568.5 0.857143
4569.5 -4.14286
4570.5 2.28571
4571.5 22.8571
4572.5 13
4573.5 10.4286
4574.5 1.42857
4575.5 -0.142858
4576.5 23.2857
4577.5 16.8571
4578.5 14.2857
4579.5 4
4580.5 15.5714
4581.5 -7.71429
4582.5 6.57143
4583.5 12
4584.5 19.8571
4585.5 36.7143
4586.5 27.2857
4587.5 19
4588.5 24.4286
4589.5 27.8571
4590.5 20.5714
4591.5 17.1429
4592.5 -18.7143
4593.5 -6.14286
4594.5 18
4595.5 18.2857
4596.5 12.5714
4597.5 20.5714
4598.5 18.7143
4599.5 6.28571
4600.5 7.28571
4601.5 6.71429
4602.5 11.5714
4603.5 -0.142858
4604.5 -5.42857
4605.5 12.8571
4606.5 31
4607.5 11.4286
4608.5 16.8571
4609.5 23.8571
4610.5 0.571428
4611.5 24.7143
4612.5 26.2857
4613.5 15.2857
4614.5 -2.57143
4615.5 17.2857
4616.5 14.7143
4617.5 10.5714
4618.5 6.28571
4619.5 20.2857
4620.5 20.2857
4621.5 -13.2857
4622.5 -9.57143
4623.5 17
4624.5 1.28571
4625.5 33
4626.5 43.5714
4627.5 10.7143
4628.5 13.8571
4629.5 -10.1429
4630.5 12.7143
4631.5 -0.428572
4632.5 5.85714
4633.5 -7.42857
4634.5 16.5714
4635.5 -25.7143
4636.5 -11.2857
4637.5 -30
4638.5 8.42857
4639.5 7
4640.5 10.2857
4641.5 -5.57143
4642.5 11.4286
4643.5 -5.57143
4644.5 -15.2857
4645.5 -0.142857
4646.5 1.85714
4647.5 -11.4286
4648.5 24.8571
4649.5 -12.4286
4650.5 -20.7143
4651.5 -42.1429
4652.5 -1.71429
4653.5 11.8571
4654.5 -15.4286
4655.5 13.8571
4656.5 -15.4286
4657.5 5.71429
4658.5 10.2857
4659.5 2
4660.5 -0.142858
4661.5 -14.2857
4662.5 19.2857
4663.5 8.14286
4664.5 18.8571
4665.5 19.1429
4666.5 4.14286
4667.5 8
4668.5 4.57143
4669.5 14.8571
4670.5 22.2857
4671.5 17.5714
4672.5 -11.4286
4673.5 23
4674.5 37.7143
4675.5 36
4676.5 77.7143
4677.5 100
4678.5 134.286
4679.5 94.5714
4680.5 54.7143
4681.5 48.2857
4682.5 33.5714
4683.5 25.1429
4684.5 19.7143
4685.5 27.1429
4686.5 9.57143
4687.5 -9.28571
4688.5 20.7143
4689.5 8.14286
4690.5 9.57143
4691.5 -8.57143
4692.5 1
4693.5 15.7143
4694.5 26
4695.5 -11.8571
4696.5 25.2857
4697.5 24.5714
4698.5 15
4699.5 6
4700.5 1.14286
4701.5 -5.85714
4702.5 2.28571
4703.5 15.7143
4704.5 3
4705.5 -12
4706.5 12.4286
4707.5 6.14286
4708.5 13.2857
4709.5 3.14286
4710.5 11.8571
4711.5 2.57143
4712.5 5.28571
4713.5 30
4714.5 -6.28571
4715.5 22.8571
4716.5 10.2857
4717.5 8.85714
4718.5 5.85714
4719.5 20
4720.5 6.14286
4721.5 3.28571
4722.5 20.7143
4723.5 13.1429
4724.5 27.4286
4725.5 7.71429
4726.5 13.2857
4727.5 -1.85714
4728.5 16
4729.5 13.8571
4730.5 8.57143
4731.5 17
4732.5 14.7143
4733.5 -0.285715
4734.5 3.14286
4735.5 7.42857
4736.5 -2.42857
4737.5 14.8571
4738.5 15.8571
4739.5 4.85714
4740.5 9.71429
4741.5 3
4742.5 9.85714
4743.5 -0.857143
4744.5 -19.5714
4745.5 10
4746.5 -10.4286
4747.5 13.8571
4748.5 2.71429
4749.5 25.7143
4750.5 7.57143
4751.5 -12.5714
4752.5 5.14286
4753.5 -4.57143
4754.5 -18.8571
4755.5 -1.57143
4756.5 -15.2857
4757.5 -36.5714
4758.5 -23.1429
4759.5 -29.7143
4760.5 -15.5714
4761.5 -8
4762.5 -3
4763.5 15.8571
4764.5 -0.285715
4765.5 15.5714
4766.5 -8.57143
4767.5 5.71429
4768.5 -5.57143
4769.5 10
4770.5 14.7143
4771.5 15.7143
4772.5 16.2857
4773.5 16.1429
4774.5 32.1429
4775.5 23.5714
4776.5 23.7143
4777.5 1.57143
4778.5 -2.14286
4779.5 8.71429
4780.5 3.85714
4781.5 12.4286
4782.5 15.1429
4783.5 9.57143
4784.5 12.8571
4785.5 8.57143
4786.5 14.7143
4787.5 17.8571
4788.5 12.2857
4789.5 2
4790.5 2.28571
4791.5 -9.28571
4792.5 -13.1429
4793.5 13.2857
4794.5 3.71429
4795.5 1
4796.5 1.28571
4797.5 12.4286
4798.5 13.1429
4799.5 -4.85714
4800.5 18.7143
4801.5 12.4286
4802.5 8.28571
4803.5 34.5714
4804.5 56.8571
4805.5 96.2857
4806.5 102
4807.5 128.571
4808.5 110.429
4809.5 69.1429
4810.5 31.8571
4811.5 51.2857
4812.5 35.8571
4813.5 13.1429
4814.5 43.7143
4815.5 29.1429
4816.5 23.1429
4817.5 18
4818.5 2.71429
4819.5 6.71429
4820.5 -2.28571
4821.5 -4.71429
4822.5 14.8571
4823.5 17.8571
4824.5 19.4286
4825.5 8.14286
4826.5 15.7143
4827.5 3.14286
4828.5 3.14286
4829.5 0.285714
4830.5 7.71429
4831.5 -4.85714
4832.5 16.8571
4833.5 8.57143
4834.5 8.71429
4835.5 -3.71429
4836.5 2.42857
4837.5 11.1429
4838.5 11
4839.5 6.71429
4840.5 12.4286
4841.5 26.2857
4842.5 22
4843.5 17.2857
4844.5 23.8571
4845.5 23
4846.5 12.7143
4847.5 15.4286
4848.5 5.57143
4849.5 -12.1429
4850.5 3.71429
4851.5 7.71429
4852.5 0.428571
4853.5 12.7143
4854.5 19
4855.5 14.1429
4856.5 13.5714
4857.5 -13.1429
4858.5 5.71429
4859.5 9.71429
4860.5 3
4861.5 -2.71429
4862.5 7.57143
4863.5 6.14286
4864.5 7
4865.5 6.42857
4866.5 11.8571
4867.5 19
4868.5 15.2857
4869.5 22
4870.5 11.4286
4871.5 2.57143
4872.5 24.4286
4873.5 21.2857
4874.5 18.7143
4875.5 2.71429
4876.5 14.4286
4877.5 11.2857
4878.5 35.2857
4879.5 25.5714
4880.5 13.8571
4881.5 10.8571
4882.5 16.7143
4883.5 14.4286
4884.5 -2.14286
4885.5 19.4286
4886.5 7
4887.5 15
4888.5 8.71429
4889.5 4
4890.5 1.57143
4891.5 33.7143
4892.5 4.14286
4893.5 9.57143
4894.5 13.2857
4895.5 0.857143
4896.5 -2.57143
4897.5 11.5714
4898.5 7.85714
4899.5 19.1429
4900.5 20.4286
4901.5 4
4902.5 -6
4903.5 6.28571
4904.5 7.42857
4905.5 10
4906.5 6.14286
4907.5 0.142857
4908.5 17.8571
4909.5 -4.71429
4910.5 -7.85714
4911.5 12.8571
4912.5 -4.14286
4913.5 2.85714
4914.5 6.85714
4915.5 10.5714
4916.5 3
4917.5 29.1429
4918.5 24
4919.5 45.2857
4920.5 -23.7143
4921.5 -0.428572
4922.5 21.1429
4923.5 15.2857
4924.5 15.1429
4925.5 -7.71429
4926.5 3.28571
4927.5 -12.2857
4928.5 -0.285715
4929.5 -5.85714
4930.5 21.5714
4931.5 3
4932.5 19.5714
4933.5 17.5714
4934.5 2
4935.5 2.57143
4936.5 8.71429
4937.5 0.857143
4938.5 5.28571
4939.5 24.7143
4940.5 3.42857
4941.5 0.857143
4942.5 9
4943.5 17.1429
4944.5 -1.14286
4945.5 8.42857
4946.5 7.28571
4947.5 11.1429
4948.5 19.2857
4949.5 17.5714
4950.5 9.28571
4951.5 27.4286
4952.5 12.1429
4953.5 3
4954.5 6.14286
4955.5 27.2857
4956.5 18.4286
4957.5 7.42857
4958.5 15.2857
4959.5 3.42857
4960.5 3.57143
4961.5 18.1429
4962.5 5
4963.5 11.7143
4964.5 1.71429
4965.5 11.5714
4966.5 -11.4286
4967.5 5.42857
4968.5 1.28571
4969.5 11.8571
4970.5 4.71429
4971.5 10.5714
4972.5 -7.28571
4973.5 -12
4974.5 22.4286
4975.5 8.85714
4976.5 12.7143
4977.5 10.7143
4978.5 8.71429
4979.5 20.8571
4980.5 7.28571
4981.5 9
4982.5 6.14286
4983.5 14.1429
4984.5 6.85714
4985.5 13.4286
4986.5 8
4987.5 -9.57143
4988.5 -1.14286
4989.5 3.42857
4990.5 7
4991.5 10.4286
4992.5 17.8571
4993.5 -6.57143
4994.5 -1.42857
4995.5 2.71429
4996.5 7.71429
4997.5 -0.714286
4998.5 1.28571
4999.5 3
5000.5 -6.42857
5001.5 1.71429
5002.5 18
5003.5 11
5004.5 22
5005.5 23.5714
5006.5 16
5007.5 7
5008.5 20.2857
5009.5 16.8571
5010.5 6.57143
5011.5 4.28571
5012.5 -7.85714
5013.5 6.85714
5014.5 -0.428572
5015.5 15.5714
5016.5 3.57143
5017.5 11.1429
5018.5 -1.85714
5019.5 7.42857
5020.5 11.8571
5021.5 15
5022.5 11.7143
5023.5 25.8571
5024.5 26.2857
5025.5 9.57143
5026.5 17.5714
5027.5 -4.85714
5028.5 16.7143
5029.5 27.4286
5030.5 13.1429
5031.5 25.4286
5032.5 -9
5033.5 -1.57143
5034.5 -3.85714
5035.5 2.85714
5036.5 31.5714
5037.5 19.4286
5038.5 12.8571
5039.5 10
5040.5 8.28571
5041.5 14.1429
5042.5 7.42857
5043.5 4.42857
5044.5 -8.42857
5045.5 4.85714
5046.5 18.8571
5047.5 12.1429
5048.5 3.42857
5049.5 8.28571
5050.5 6.14286
5051.5 5.57143
5052.5 0.142857
5053.5 21.5714
5054.5 3.14286
5055.5 4.57143
5056.5 12.8571
5057.5 20.7143
5058.5 7
5059.5 14.8571
5060.5 13.5714
5061.5 9
5062.5 5.71429
5063.5 8.85714
5064.5 -7.28571
5065.5 14.2857
5066.5 8.57143
5067.5 10.5714
5068.5 11.8571
5069.5 11.2857
5070.5 17.1429
5071.5 22.7143
5072.5 11.2857
5073.5 12
5074.5 8.57143
5075.5 9.14286
5076.5 2.42857
5077.5 -3.14286
5078.5 -1.71429
5079.5 -2.57143
5080.5 -8.42857
5081.5 13.4286
5082.5 -3.71429
5083.5 17
5084.5 7.28571
5085.5 12.4286
5086.5 19.1429
5087.5 14.5714
5088.5 -3.14286
5089.5 9.28571
5090.5 11.2857
5091.5 10.7143
5092.5 18.1429
5093.5 8.85714
5094.5 15.2857
5095.5 13
5096.5 21.2857
5097.5 17.2857
5098.5 -9
5099.5 11
5100.5 19.2857
5101.5 -10.8571
5102.5 -5.42857
5103.5 9.85714
5104.5 0.571428
5105.5 16.4286
5106.5 1.42857
5107.5 21.1429
5108.5 -0.571429
5109.5 15.5714
5110.5 17
5111.5 6.42857
5112.5 7.42857
5113.5 2.42857
5114.5 5.85714
5115.5 1.42857
5116.5 20.7143
5117.5 23.4286
5118.5 20.5714
5119.5 14.2857
5120.5 9
5121.5 22.5714
5122.5 15.4286
5123.5 2.71429
5124.5 6.14286
5125.5 11.7143
5126.5 7.14286
5127.5 -0.428572
5128.5 10.1429
5129.5 -8
5130.5 15.8571
5131.5 4.85714
5132.5 12.8571
5133.5 13
5134.5 5.71429
5135.5 7.57143
5136.5 -4.14286
5137.5 12.1429
5138.5 8.85714
5139.5 18
5140.5 3.85714
5141.5 19.8571
5142.5 3.71429
5143.5 9.85714
5144.5 24.8571
5145.5 4.14286
5146.5 11.7143
5147.5 5.42857
5148.5 -15
5149.5 -6
5150.5 1.42857
5151.5 4
5152.5 5.57143
5153.5 6.71429
5154.5 -2.85714
5155.5 -0.571429
5156.5 15.5714
5157.5 -9.28571
5158.5 -24
5159.5 -4.85714
5160.5 -25.8571
5161.5 -24.8571
5162.5 -45.8571
5163.5 -24.2857
5164.5 -29.2857
5165.5 -12.2857
5166.5 -12
5167.5 -25.5714
5168.5 -6.14286
5169.5 -13.8571
5170.5 3.71429
5171.5 -5
5172.5 -13.4286
5173.5 4.14286
5174.5 -7.28571
5175.5 22.2857
5176.5 -7.85714
5177.5 11.8571
5178.5 19
5179.5 -0.285715
5180.5 2.71429
5181.5 7.42857
5182.5 8.14286
5183.5 14.4286
5184.5 15.7143
5185.5 7.85714
5186.5 13.2857
5187.5 10.8571
5188.5 -1.14286
5189.5 11.8571
5190.5 28.7143
5191.5 13.1429
5192.5 32.5714
5193.5 32.7143
5194.5 58.7143
5195.5 37.1429
5196.5 33.7143
5197.5 29.5714
5198.5 18.5714
5199.5 10.4286
5200.5 -6.85714
5201.5 -0.857143
5202.5 3
5203.5 12.4286
5204.5 4.42857
5205.5 12.4286
5206.5 5.42857
5207.5 -2
5208.5 5.71429
5209.5 10
5210.5 18.7143
5211.5 13.1429
5212.5 19.8571
5213.5 16
5214.5 4.14286
5215.5 16.1429
5216.5 10.8571
5217.5 1.57143
5218.5 2.71429
5219.5 3.85714
5220.5 -0.142857
5221.5 2.71429
5222.5 20.2857
5223.5 9.57143
5224.5 26.8571
5225.5 28.2857
5226.5 34.5714
5227.5 4.71429
5228.5 8.42857
5229.5 14.5714
5230.5 9
5231.5 8.14286
5232.5 2.57143
5233.5 7.28571
5234.5 -2.42857
5235.5 10.5714
5236.5 11.2857
5237.5 1.14286
5238.5 12
5239.5 12.5714
5240.5 7
5241.5 12.1429
5242.5 3.14286
5243.5 30.7143
5244.5 18
5245.5 12.2857
5246.5 -5.71429
5247.5 -0.857143
5248.5 2.42857
5249.5 0.142857
5250.5 12.8571
5251.5 -2
5252.5 6.85714
5253.5 1
5254.5 3.85714
5255.5 19.7143
5256.5 10.2857
5257.5 6.42857
5258.5 6.42857
5259.5 -11
5260.5 -9.71429
5261.5 5.28571
5262.5 11.5714
5263.5 -6.71429
5264.5 15
5265.5 -17
5266.5 -27.5714
5267.5 -41.8571
5268.5 -72
5269.5 -87.5714
5270.5 -75.2857
5271.5 -80.2857
5272.5 -12.2857
5273.5 5.14286
5274.5 -2.38419e-07
5275.5 4.57143
5276.5 11.8571
5277.5 8.71429
5278.5 -4.85714
5279.5 11.4286
5280.5 3
5281.5 1.71429
5282.5 29.1429
5283.5 20.1429
5284.5 27.7143
5285.5 61.5714
5286.5 34.8571
5287.5 33.1429
5288.5 32.4286
5289.5 1.42857
5290.5 19.4286
5291.5 -2.71429
5292.5 4.14286
5293.5 -0.714286
5294.5 11
5295.5 17.2857
5296.5 6
5297.5 20.5714
5298.5 19.1429
5299.5 -11.8571
5300.5 7.28571
5301.5 5.28571
5302.5 26.7143
5303.5 34.1429
5304.5 30.2857
5305.5 12.8571
5306.5 3.42857
5307.5 14
5308.5 11
5309.5 -8.71429
5310.5 15.5714
5311.5 2.57143
5312.5 6.42857
5313.5 18.2857
5314.5 12.4286
5315.5 -1
5316.5 1.71429
5317.5 25.4286
5318.5 37
5319.5 3.14286
5320.5 33.1429
5321.5 26.2857
5322.5 46
5323.5 45
5324.5 34.1429
5325.5 32.2857
5326.5 22.7143
5327.5 11.5714
5328.5 14.1429
5329.5 17.5714
5330.5 7.85714
5331.5 -2.38419e-07
5332.5 3.28571
5333.5 2.71429
5334.5 6.57143
5335.5 2.85714
5336.5 11
5337.5 17.1429
5338.5 8.14286
5339.5 3.57143
5340.5 10.1429
5341.5 23
5342.5 30.1429
5343.5 1.14286
5344.5 4.57143
5345.5 7.71429
5346.5 20.2857
5347.5 28.4286
5348.5 26.7143
5349.5 22.4286
5350.5 -18.5714
5351.5 13.8571
5352.5 35.5714
5353.5 3.42857
5354.5 34.5714
5355.5 37.7143
5356.5 5.85714
5357.5 25.2857
5358.5 11.7143
5359.5 9
5360.5 2.71429
5361.5 5.42857
5362.5 13
5363.5 10
5364.5 11.2857
5365.5 -6.28571
5366.5 10.1429
5367.5 -0.142857
5368.5 6.28571
5369.5 15.4286
5370.5 5.85714
5371.5 14.1429
5372.5 8
5373.5 4.85714
5374.5 17.4286
5375.5 13.4286
5376.5 -7.14286
5377.5 0.857143
5378.5 -7
5379.5 3.57143
5380.5 17.2857
5381.5 4.85714
5382.5 12.8571
5383.5 1
5384.5 -5.42857
5385.5 12.8571
5386.5 21.5714
5387.5 -7.85714
5388.5 7.57143
5389.5 24.8571
5390.5 8.42857
5391.5 21
5392.5 6.28571
5393.5 20.7143
5394.5 30.2857
5395.5 46.7143
5396.5 66.4286
5397.5 46.7143
5398.5 51.5714
5399.5 28.1429
5400.5 22.1429
5401.5 19.7143
5402.5 13.7143
5403.5 -2
5404.5 19.4286
5405.5 5.14286
5406.5 -2.57143
5407.5 4.57143
5408.5 3.42857
5409.5 2.42857
5410.5 1.42857
5411.5 6.71429
5412.5 6.57143
5413.5 4.71429
5414.5 17.1429
5415.5 16.7143
5416.5 0.571428
5417.5 4.14286
5418.5 16.8571
5419.5 6.57143
5420.5 3.28571
5421.5 2.42857
5422.5 11.4286
5423.5 -6.71429
5424.5 9.57143
5425.5 11.2857
5426.5 -2.57143
5427.5 9.85714
5428.5 8.42857
5429.5 12.4286
5430.5 4.71429
5431.5 3.14286
5432.5 3.57143
5433.5 -1.85714
5434.5 19.2857
5435.5 2.42857
5436.5 8
5437.5 15.1429
5438.5 0.857143
5439.5 3.57143
5440.5 3.28571
5441.5 -8.28571
5442.5 0.857143
5443.5 11.2857
5444.5 2.85714
5445.5 4.85714
5446.5 2
5447.5 5.71429
5448.5 12.4286
5449.5 3.57143
5450.5 -0.285715
5451.5 -2.14286
5452.5 12.1429
5453.5 -1.85714
5454.5 5.28571
5455.5 1.71429
5456.5 3.57143
5457.5 8.71429
5458.5 32
5459.5 -5.85714
5460.5 21.4286
5461.5 20.2857
5462.5 6
5463.5 8.28571
5464.5 12.5714
5465.5 20.1429
5466.5 3.85714
5467.5 -13.2857
5468.5 6.14286
5469.5 -16
5470.5 -1.71429
5471.5 20.7143
5472.5 -2.14286
5473.5 16.1429
5474.5 -12.2857
5475.5 1.57143
5476.5 13.5714
5477.5 -8.28571
5478.5 -5.42857
5479.5 9.42857
5480.5 8.85714
5481.5 16.7143
5482.5 -11.5714
5483.5 14
5484.5 8.85714
5485.5 17
5486.5 10.5714
5487.5 18.1429
5488.5 -3.71429
5489.5 -4.85714
5490.5 23.2857
5491.5 2
5492.5 6.57143
5493.5 -4.71429
5494.5 17.8571
5495.5 0.142857
5496.5 16
5497.5 4.85714
5498.5 22.4286
5499.5 12.4286
5500.5 2.42857
5501.5 -1.14286
5502.5 16.2857
5503.5 9.85714
5504.5 5.85714
5505.5 1.71429
5506.5 8
5507.5 15.1429
5508.5 5.28571
5509.5 12.2857
5510.5 -7.42857
5511.5 4.42857
5512.5 -1.19209e-07
5513.5 -3.28571
5514.5 8.57143
5515.5 6.57143
5516.5 4.28571
5517.5 10
5518.5 -2.38419e-07
5519.5 -0.285715
5520.5 14.8571
5521.5 11
5522.5 6.85714
5523.5 17.8571
5524.5 -3.85714
5525.5 19.7143
5526.5 8.71429
5527.5 7.71429
5528.5 2
5529.5 9.28571
5530.5 15.7143
5531.5 13.5714
5532.5 15.7143
5533.5 14.4286
5534.5 2.85714
5535.5 31.8571
5536.5 37.2857
5537.5 28.2857
5538.5 43.8571
5539.5 10
5540.5 10
5541.5 2
5542.5 0.571428
5543.5 26.4286
5544.5 9.71429
5545.5 13.7143
5546.5 -7.71429
5547.5 8.85714
5548.5 -2.57143
5549.5 -2.85714
5550.5 18.1429
5551.5 4.71429
5552.5 23.8571
5553.5 0.428571
5554.5 7
5555.5 19.5714
5556.5 0.285714
5557.5 12.7143
5558.5 8.71429
5559.5 3.85714
5560.5 7.85714
5561.5 7.71429
5562.5 -2.38419e-07
5563.5 -7
5564.5 13
5565.5 9
5566.5 3
5567.5 2.42857
5568.5 17.7143
5569.5 5.85714
5570.5 4.28571
5571.5 -1.14286
5572.5 7.57143
5573.5 19.7143
5574.5 14.2857
5575.5 15.4286
5576.5 -1
5577.5 2.28571
5578.5 18
5579.5 12.4286
5580.5 2.42857
5581.5 -2
5582.5 24.2857
5583.5 -3.14286
5584.5 11.8571
5585.5 -1.14286
5586.5 13.7143
5587.5 6.71429
5588.5 5.85714
5589.5 7.42857
5590.5 -10
5591.5 9.42857
5592.5 15.4286
5593.5 -0.285715
5594.5 17.1429
5595.5 10.5714
5596.5 -1
5597.5 -3.57143
5598.5 4.42857
5599.5 7
5600.5 13.1429
5601.5 4.57143
5602.5 7.71429
5603.5 17.8571
5604.5 -6.57143
5605.5 4.85714
5606.5 6.57143
5607.5 9
5608.5 13
5609.5 13
5610.5 -3
5611.5 22.2857
5612.5 -1
5613.5 0.714285
5614.5 10.8571
5615.5 6.14286
5616.5 17.2857
5617.5 11.4286
5618.5 8.28571
5619.5 3.28571
5620.5 15.4286
5621.5 1.57143
5622.5 10
5623.5 19.1429
5624.5 12.8571
5625.5 20.2857
5626.5 17.7143
5627.5 36.1429
5628.5 49
5629.5 51.4286
5630.5 48.1429
5631.5 43.1429
5632.5 19.5714
5633.5 20
5634.5 15
5635.5 14.4286
5636.5 17.7143
5637.5 9.85714
5638.5 6.28571
5639.5 -1.19209e-07
5640.5 2.14286
5641.5 -7.57143
5642.5 15.5714
5643.5 4.71429
5644.5 -10.1429
5645.5 1.14286
5646.5 2
5647.5 3.28571
5648.5 10
5649.5 0.142857
5650.5 5.42857
5651.5 5.85714
5652.5 5.28571
5653.5 5.14286
5654.5 3
5655.5 -8.71429
5656.5 15.7143
5657.5 4.28571
5658.5 11
5659.5 0.857143
5660.5 4.28571
5661.5 4.14286
5662.5 6.85714
5663.5 -2.57143
5664.5 2.42857
5665.5 6
5666.5 -7.42857
5667.5 6.57143
5668.5 3.57143
5669.5 6.71429
5670.5 6.71429
5671.5 8.14286
5672.5 5
5673.5 28.2857
5674.5 -2.14286
5675.5 10.2857
5676.5 9.57143
5677.5 6.57143
5678.5 16.1429
5679.5 6.71429
5680.5 15.1429
5681.5 12.1429
5682.5 6.71429
5683.5 11.7143
5684.5 10.4286
5685.5 12.8571
5686.5 9.28571
5687.5 4.71429
5688.5 2.57143
5689.5 -4
5690.5 -3.71429
5691.5 4.57143
5692.5 9.85714
5693.5 0.857143
5694.5 9.71429
5695.5 4.71429
5696.5 3.85714
5697.5 8.71429
5698.5 3
5699.5 7.71429
5700.5 -1.71429
5701.5 -1.85714
5702.5 8.14286
5703.5 3.28571
5704.5 9.85714
5705.5 4.85714
5706.5 7
5707.5 16.7143
5708.5 12.1429
5709.5 10.1429
5710.5 8.57143
5711.5 11.7143
5712.5 1.28571
5713.5 20.2857
5714.5 6.14286
5715.5 12.8571
5716.5 -1
5717.5 14.4286
5718.5 -1.71429
5719.5 9
5720.5 10
5721.5 12.7143
5722.5 26.1429
5723.5 7.42857
5724.5 11.7143
5725.5 3
5726.5 -0.857143
5727.5 14.2857
5728.5 6.71429
5729.5 3.57143
5730.5 17.4286
5731.5 20.5714
5732.5 32.2857
5733.5 40
5734.5 64.2857
5735.5 63.2857
5736.5 47.7143
5737.5 41.8571
5738.5 38.4286
5739.5 11.5714
5740.5 18
5741.5 0.857143
5742.5 3.71429
5743.5 -9.57143
5744.5 5.57143
5745.5 4
5746.5 -5.14286
5747.5 0.857143
5748.5 6.71429
5749.5 9.14286
5750.5 9.57143
5751.5 -7
5752.5 7
5753.5 9.28571
5754.5 13.4286
5755.5 14
5756.5 3.85714
5757.5 -9.57143
5758.5 -2.42857
5759.5 11.2857
5760.5 -4.42857
5761.5 12.1429
5762.5 5.57143
5763.5 19.5714
5764.5 4.57143
5765.5 1.57143
5766.5 11
5767.5 -1.14286
5768.5 3.57143
5769.5 -2.71429
5770.5 5
5771.5 4.71429
5772.5 -2.38419e-07
5773.5 -5.57143
5774.5 -1
5775.5 15
5776.5 7.14286
5777.5 1.71429
5778.5 3
5779.5 -2.85714
5780.5 -0.714286
5781.5 9.71429
5782.5 -10
5783.5 -21.7143
5784.5 -2.85714
5785.5 -12.4286
5786.5 -0.428572
5787.5 -4.42857
5788.5 -7.28571
5789.5 -4.71429
5790.5 -9.14286
5791.5 -4.57143
5792.5 7
5793.5 5.57143
5794.5 4
5795.5 3.42857
5796.5 0.714286
5797.5 1.71429
5798.5 9.14286
5799.5 9.71429
5800.5 -1.14286
5801.5 2.57143
5802.5 10.2857
5803.5 10.7143
5804.5 3
5805.5 4.28571
5806.5 7.28571
5807.5 1.57143
5808.5 9.28571
5809.5 16.4286
5810.5 7.28571
5811.5 10.2857
5812.5 17.7143
5813.5 18.2857
5814.5 22.2857
5815.5 8.14286
5816.5 21
5817.5 5.42857
5818.5 19.7143
5819.5 15.7143
5820.5 3.14286
5821.5 -5
5822.5 1.14286
5823.5 6.28571
5824.5 1.28571
5825.5 0.714285
5826.5 14.1429
5827.5 17.7143
5828.5 29.4286
5829.5 24
5830.5 38.2857
5831.5 68.2857
5832.5 45
5833.5 97.2857
5834.5 96
5835.5 59
5836.5 44.7143
5837.5 18.5714
5838.5 15.4286
5839.5 10.8571
5840.5 -3
5841.5 7.57143
5842.5 20.7143
5843.5 4.85714
5844.5 -4
5845.5 -1.14286
5846.5 3.71429
5847.5 2.28571
5848.5 6.42857
5849.5 3.28571
5850.5 4.14286
5851.5 8.42857
5852.5 4
5853.5 9.42857
5854.5 7.57143
5855.5 -1.71429
5856.5 13.2857
5857.5 8.71429
5858.5 4.42857
5859.5 4.42857
5860.5 3.28571
5861.5 6.14286
5862.5 1.71429
5863.5 2.28571
5864.5 8.42857
5865.5 9.42857
5866.5 1
5867.5 1.71429
5868.5 9.85714
5869.5 1.42857
5870.5 4.71429
5871.5 -5.71429
5872.5 16
5873.5 -5.71429
5874.5 5.42857
5875.5 -0.714286
5876.5 4
5877.5 14.5714
5878.5 -3
5879.5 -0.285714
5880.5 1.28571
5881.5 4
5882.5 10.2857
5883.5 8.71429
5884.5 -4.71429
5885.5 -8.14286
5886.5 11.5714
5887.5 13.8571
5888.5 7.42857
5889.5 2.42857
5890.5 3.14286
5891.5 12.2857
5892.5 9.85714
5893.5 -3.14286
5894.5 0.285714
5895.5 -1.57143
5896.5 1.14286
5897.5 7
5898.5 2.85714
5899.5 2.85714
5900.5 -2.42857
5901.5 2.14286
5902.5 3.14286
5903.5 1.85714
5904.5 10.5714
5905.5 -5.42857
5906.5 5.42857
5907.5 2.14286
5908.5 6
5909.5 5.71429
5910.5 1.14286
5911.5 -0.857143
5912.5 3.71429
5913.5 10.4286
5914.5 4.85714
5915.5 -2.28571
5916.5 10.2857
5917.5 3.42857
5918.5 1.71429
5919.5 9.42857
5920.5 10.8571
5921.5 3.28571
5922.5 16.2857
5923.5 3.14286
5924.5 3.85714
5925.5 8.14286
5926.5 8.42857
5927.5 5.85714
5928.5 1.42857
5929.5 7.85714
5930.5 2.42857
5931.5 5.14286
5932.5 5.14286
5933.5 3.85714
5934.5 0.714286
5935.5 7.42857
5936.5 13.4286
5937.5 19.2857
5938.5 4.71429
5939.5 -6.14286
5940.5 12.5714
5941.5 5.42857
5942.5 -1.19209e-07
5943.5 1.71429
5944.5 3.57143
5945.5 2.14286
5946.5 10.5714
5947.5 7.14286
5948.5 -0.142857
5949.5 15.2857
5950.5 3.85714
5951.5 8.14286
5952.5 8.57143
5953.5 1.42857
5954.5 -6.71429
5955.5 7.14286
5956.5 6.14286
5957.5 8.85714
5958.5 5.85714
5959.5 9.85714
5960.5 7.85714
5961.5 2
5962.5 0.714286
5963.5 11.4286
5964.5 10.7143
5965.5 8.42857
5966.5 5.14286
5967.5 20.7143
5968.5 6
5969.5 17
5970.5 16
5971.5 7.42857
5972.5 10.4286
5973.5 -6.71429
5974.5 13.2857
5975.5 9.42857
5976.5 5.14286
5977.5 8.57143
5978.5 7.14286
5979.5 16.5714
5980.5 4
5981.5 0.857143
5982.5 4.57143
5983.5 4.85714
5984.5 1
5985.5 3.14286
5986.5 -0.571429
5987.5 6.14286
5988.5 4.42857
5989.5 6.57143
5990.5 11.5714
5991.5 -0.428572
5992.5 10.2857
5993.5 12
5994.5 -1.57143
5995.5 3
5996.5 -7.85714
5997.5 31
5998.5 32.8571
5999.5 18.8571
6000.5 12.5714
6001.5 8.28571
6002.5 25.4286
6003.5 -13.8571
6004.5 10.7143
6005.5 10.2857
6006.5 5.14286
6007.5 2.14286
6008.5 9.71429
6009.5 1.42857
6010.5 11.2857
6011.5 16.2857
6012.5 -1.57143
6013.5 2
6014.5 0.714286
6015.5 9.85714
6016.5 1.71429
6017.5 1.71429
6018.5 -1.57143
6019.5 0.142857
6020.5 4.28571
6021.5 3.14286
6022.5 7.57143
6023.5 -1
6024.5 3.28571
6025.5 6.57143
6026.5 6.57143
6027.5 8.57143
6028.5 10.5714
6029.5 6.14286
6030.5 6.14286
6031.5 3
6032.5 12.4286
6033.5 13.2857
6034.5 9.14286
6035.5 0.285714
6036.5 -4.28571
6037.5 2.14286
6038.5 -1.57143
6039.5 4.85714
6040.5 10.7143
6041.5 5
6042.5 6.85714
6043.5 8.28571
6044.5 3.85714
6045.5 -8
6046.5 9.28571
6047.5 3.85714
6048.5 -1
6049.5 -3.14286
6050.5 0.571429
6051.5 7.57143
6052.5 4.85714
6053.5 0.428571
6054.5 2.71429
6055.5 6.28571
6056.5 2.57143
6057.5 13.5714
6058.5 5.57143
6059.5 8.57143
6060.5 -3.57143
6061.5 2.85714
6062.5 9.57143
6063.5 7.57143
6064.5 -3.71429
6065.5 0.428571
6066.5 11.8571
6067.5 0.428571
6068.5 6
6069.5 3.28571
6070.5 9.85714
6071.5 11.4286
6072.5 13.5714
6073.5 0.857143
6074.5 2
6075.5 10.8571
6076.5 13.1429
6077.5 9.57143
6078.5 0.857143
6079.5 9
6080.5 -4.28571
6081.5 -6
6082.5 6.85714
6083.5 1.85714
6084.5 6.85714
6085.5 6.28571
6086.5 12.2857
6087.5 10.5714
6088.5 3
6089.5 -3
6090.5 0.142857
6091.5 0.857143
6092.5 -3
6093.5 4.14286
6094.5 -5.28571
6095.5 6.28571
6096.5 2.14286
6097.5 3.42857
6098.5 0.285714
6099.5 7.57143
6100.5 3.71429
6101.5 15.8571
6102.5 19.8571
6103.5 1.71429
6104.5 9.42857
6105.5 9.57143
6106.5 10.4286
6107.5 -2.57143
6108.5 2.28571
6109.5 14.1429
6110.5 3.85714
6111.5 -2.85714
6112.5 6.42857
6113.5 9.42857
6114.5 -2.42857
6115.5 5.71429
6116.5 6.57143
6117.5 8
6118.5 2.42857
6119.5 -3.85714
6120.5 14.8571
6121.5 13.1429
6122.5 12.5714
6123.5 12.7143
6124.5 13.7143
6125.5 -3.14286
6126.5 4.42857
6127.5 1.28571
6128.5 8.85714
6129.5 2.71429
6130.5 -1.57143
6131.5 9.28571
6132.5 5
6133.5 0.571429
6134.5 -5.28571
6135.5 13
6136.5 4.57143
6137.5 2.57143
6138.5 2.85714
6139.5 0.857143
6140.5 -0.571429
6141.5 5.85714
6142.5 -2
6143.5 3.28571
6144.5 7.14286
6145.5 -0.714286
6146.5 -2.71429
6147.5 -2.71429
6148.5 7.42857
6149.5 9.57143
6150.5 7.85714
6151.5 -0.428571
6152.5 -9
6153.5 4
6154.5 4.85714
6155.5 6.28571
6156.5 6.28571
6157.5 11.2857
6158.5 -2.14286
6159.5 1.85714
6160.5 3.28571
6161.5 4.57143
6162.5 2.85714
6163.5 11
6164.5 0.714286
6165.5 3.14286
6166.5 0.857143
6167.5 8.57143
6168.5 1.42857
6169.5 3.57143
6170.5 1.28571
6171.5 2.85714
6172.5 6.57143
6173.5 9
6174.5 -1.85714
6175.5 0.285714
6176.5 7
6177.5 -2.57143
6178.5 3.85714
6179.5 -1.85714
6180.5 3.28571
6181.5 5.57143
6182.5 -1.14286
6183.5 -2.14286
6184.5 -1.57143
6185.5 0.142857
6186.5 2.85714
6187.5 -4.57143
6188.5 3.57143
6189.5 5.28571
6190.5 4.57143
6191.5 -5.71429
6192.5 4.57143
6193.5 3.28571
6194.5 -4
6195.5 7.85714
6196.5 -2.85714
6197.5 5.85714
6198.5 1.85714
6199.5 2.42857
6200.5 -5.57143
6201.5 2.57143
6202.5 0.285714
6203.5 1.57143
6204.5 9.85714
6205.5 2.42857
6206.5 7.85714
6207.5 -0.428571
6208.5 8
6209.5 4.85714
6210.5 6.57143
6211.5 5.28571
6212.5 9.57143
6213.5 11.2857
6214.5 -5
6215.5 2.57143
6216.5 5
6217.5 10
6218.5 6.85714
6219.5 2.85714
6220.5 -0.857143
6221.5 2.71429
6222.5 0.714286
6223.5 13.7143
6224.5 -2.14286
6225.5 3.28571
6226.5 1.42857
6227.5 4.28571
6228.5 4.71429
6229.5 -0.285714
6230.5 -2.85714
6231.5 -4
6232.5 2.28571
6233.5 9
6234.5 1.14286
6235.5 2.28571
6236.5 4.57143
6237.5 4.28571
6238.5 1.14286
6239.5 11.5714
6240.5 18.2857
6241.5 19.8571
6242.5 36.5714
6243.5 56.1429
6244.5 71.2857
6245.5 84.8571
6246.5 107.143
6247.5 111.857
6248.5 69.5714
6249.5 46.5714
6250.5 18
6251.5 6.57143
6252.5 7
6253.5 2.57143
6254.5 -2.14286
6255.5 9
6256.5 7.28571
6257.5 10
6258.5 8.57143
6259.5 4.57143
6260.5 -1.57143
6261.5 -2.85714
6262.5 -5.28571
6263.5 -1.14286
6264.5 7
6265.5 3.28571
6266.5 5
6267.5 -1.42857
6268.5 -9
6269.5 4
6270.5 3.28571
6271.5 -0.142857
6272.5 1.57143
6273.5 4.57143
6274.5 -2.14286
6275.5 2.57143
6276.5 -1.14286
6277.5 6.28571
6278.5 7.28571
6279.5 5.28571
6280.5 0.428571
6281.5 -2.42857
6282.5 2.28571
6283.5 3.28571
6284.5 -0.428571
6285.5 -1.42857
6286.5 -1.85714
6287.5 -4.14286
6288.5 -0.857143
6289.5 -2.14286
6290.5 -6.57143
6291.5 -7
6292.5 -2.85714
6293.5 -16.7143
6294.5 -15.1429
6295.5 -38.2857
6296.5 -25.8571
6297.5 -32
6298.5 -17.7143
6299.5 -14.5714
6300.5 -2.57143
6301.5 0.428571
6302.5 9.28571
6303.5 -8
6304.5 4.57143
6305.5 3.85714
6306.5 -1.14286
6307.5 3
6308.5 7
6309.5 0.857143
6310.5 6
6311.5 -0.428571
6312.5 -3.14286
6313.5 2.28571
6314.5 0.571429
6315.5 2.28571
6316.5 2.28571
6317.5 6
6318.5 0.857143
6319.5 3.57143
6320.5 6.57143
6321.5 1.42857
6322.5 5.85714
6323.5 17.8571
6324.5 23.2857
6325.5 24.5714
6326.5 27.5714
6327.5 36.8571
6328.5 36.7143
6329.5 26.8571
6330.5 14.2857
6331.5 3.85714
6332.5 3.28571
6333.5 4.57143
6334.5 7
6335.5 4.28571
6336.5 6.28571
6337.5 3.28571
6338.5 -2.85714
6339.5 0.285714
6340.5 -1.42857
6341.5 2
6342.5 0.285714
6343.5 4
6344.5 5
6345.5 -2.42857
6346.5 5
6347.5 6
6348.5 2.28571
6349.5 1.57143
6350.5 5
6351.5 -1.42857
6352.5 5
6353.5 3.28571
6354.5 -1.42857
6355.5 2.28571
6356.5 -0.714286
6357.5 -2.14286
6358.5 4
6359.5 5
6360.5 2.57143
6361.5 1.28571
6362.5 1.28571
6363.5 0.571429
6364.5 2
6365.5 2
6366.5 0.285714
6367.5 0.571429
6368.5 -1.42857
6369.5 1.57143
6370.5 3.57143
6371.5 1.28571
6372.5 6
6373.5 2
6374.5 3
6375.5 5.28571
6376.5 1.28571
6377.5 2.28571
6378.5 -0.428571
6379.5 -3.42857
6380.5 0.571429
6381.5 2.28571
6382.5 1
6383.5 -4.14286
6384.5 0.285714
6385.5 3
6386.5 4
6387.5 -1.42857
6388.5 1.28571
6389.5 -2.14286
6390.5 -0.428571
6391.5 5
6392.5 -3.14286
6393.5 0.571429
6394.5 -3.14286
6395.5 -0.714286
6396.5 -4.14286
6397.5 2.28571
6398.5 1.28571
6399.5 4
6400.5 1.28571
6401.5 1.57143
6402.5 -1.14286
6403.5 2.28571
6404.5 6
6405.5 2
6406.5 -0.714286
6407.5 4
6408.5 1.57143
6409.5 2
6410.5 4
6411.5 0.571429
6412.5 0.285714
6413.5 -0.142857
6414.5 -1.14286
6415.5 2.57143
6416.5 2.28571
6417.5 -0.428571
6418.5 1
6419.5 -1.14286
6420.5 1.57143
6421.5 1.57143
6422.5 0.285714
6423.5 1.28571
6424.5 2.28571
6425.5 -2.42857
6426.5 8
6427.5 -2.14286
6428.5 3
6429.5 1
6430.5 2
6431.5 2
6432.5 0.571429
6433.5 -0.714286
6434.5 0
6435.5 7
6436.5 1.57143
6437.5 -0.714286
6438.5 2.28571
6439.5 2.85714
6440.5 1
6441.5 -0.428571
6442.5 4.57143
6443.5 6
6444.5 8
6445.5 2.85714
6446.5 14.2857
6447.5 7.28571
6448.5 13
6449.5 0.571429
6450.5 5.57143
6451.5 2.28571
6452.5 3
6453.5 1.28571
6454.5 0.285714
6455.5 -0.428571
6456.5 3
6457.5 1
6458.5 1.28571
6459.5 2
6460.5 2
6461.5 1.28571
6462.5 -1.14286
6463.5 1
6464.5 1.57143
6465.5 2
6466.5 -0.142857
6467.5 1.28571
6468.5 2.28571
6469.5 -4.57143
6470.5 0.571429
6471.5 2.85714
6472.5 -7.28571
6473.5 -1.28571
6474.5 10.8571
6475.5 -5.71429
6476.5 17.1429
6477.5 19.2857
6478.5 18.2857
6479.5 32.2857
6480.5 15.2857
6481.5 -12.1429
6482.5 15.5714
6483.5 8.71429
6484.5 0.857143
6485.5 5.57143
6486.5 -4.14286
6487.5 3.57143
6488.5 2.28571
6489.5 2.28571
6490.5 2.28571
6491.5 3
6492.5 1.57143
6493.5 -0.714286
6494.5 -1.42857
6495.5 -1.42857
6496.5 4.28571
6497.5 1
6498.5 1
6499.5 -0.714286
6500.5 4
6501.5 -3.14286
6502.5 3
6503.5 1.28571
6504.5 1
6505.5 3
6506.5 2.28571
6507.5 2
6508.5 2.28571
6509.5 -0.714286
6510.5 0
6511.5 3
6512.5 0.285714
6513.5 3.28571
6514.5 -2.42857
6515.5 -3.42857
6516.5 1
6517.5 1.57143
6518.5 1.28571
6519.5 1
6520.5 1
6521.5 2
6522.5 0.285714
6523.5 -0.714286
6524.5 1
6525.5 0
6526.5 3.28571
6527.5 2
6528.5 2
6529.5 -0.714286
6530.5 4
6531.5 1.28571
6532.5 2
6533.5 1
6534.5 5.28571
6535.5 -0.714286
6536.5 -0.714286
6537.5 3
6538.5 3
6539.5 -5.14286
6540.5 2.57143
6541.5 -2.14286
6542.5 -1.14286
6543.5 -0.428571
6544.5 3
6545.5 2.57143
6546.5 4.57143
6547.5 -2.14286
6548.5 3.28571
6549.5 1.57143
6550.5 1.28571
6551.5 1
6552.5 3.28571
6553.5 1
6554.5 -2.42857
6555.5 0.285714
6556.5 3.28571
6557.5 1.28571
6558.5 0.285714
6559.5 1
6560.5 -3.14286
6561.5 0
6562.5 5
6563.5 1
6564.5 -3.42857
6565.5 3
6566.5 5
6567.5 0.285714
6568.5 3
6569.5 3
6570.5 3
6571.5 4
6572.5 2
6573.5 0.285714
6574.5 3
6575.5 0
6576.5 4
6577.5 4
6578.5 3
6579.5 2
6580.5 2
6581.5 0
6582.5 1
6583.5 2
6584.5 7
6585.5 1
6586.5 -1.71429
6587.5 -1.42857
6588.5 2
6589.5 0
6590.5 4
6591.5 4
6592.5 1
6593.5 2.28571
6594.5 -2.42857
6595.5 -3.42857
6596.5 -0.714286
6597.5 -0.714286
6598.5 1
6599.5 1
6600.5 2
6601.5 0.285714
6602.5 4
6603.5 -2.42857
6604.5 6
6605.5 -1.71429
6606.5 4
6607.5 2
6608.5 1.28571
6609.5 4
6610.5 -0.714286
6611.5 -1.71429
6612.5 -0.714286
6613.5 1
6614.5 -1.71429
6615.5 3
6616.5 1
6617.5 4.28571
6618.5 -1.42857
6619.5 1.28571
6620.5 -0.428571
6621.5 0.571429
6622.5 9
6623.5 1
6624.5 2.28571
6625.5 5
6626.5 0.285714
6627.5 -3.42857
6628.5 3
6629.5 5
6630.5 -0.714286
6631.5 -2.42857
6632.5 5
6633.5 2
6634.5 -1.71429
6635.5 2
6636.5 1.28571
6637.5 -1.71429
6638.5 4
6639.5 2
6640.5 0.285714
6641.5 0.285714
6642.5 4
6643.5 2
6644.5 1
6645.5 -0.428571
6646.5 1.28571
6647.5 0.285714
6648.5 0.285714
6649.5 5
6650.5 0.285714
6651.5 -0.714286
6652.5 2.28571
6653.5 5
6654.5 2.28571
6655.5 1
6656.5 2
6657.5 1
6658.5 2
6659.5 -0.714286
6660.5 2
6661.5 7
6662.5 2
6663.5 3
6664.5 -1.42857
6665.5 4
6666.5 1.28571
6667.5 0.285714
6668.5 4
6669.5 -3.14286
6670.5 2.28571
6671.5 0
6672.5 -0.714286
6673.5 -1.71429
6674.5 1
6675.5 1
6676.5 1
6677.5 1
6678.5 1
6679.5 1.28571
6680.5 1
6681.5 2
6682.5 1
6683.5 4
6684.5 4
6685.5 6
6686.5 0.571429
6687.5 4
6688.5 0
6689.5 0.285714
6690.5 3.57143
6691.5 2
6692.5 0.285714
6693.5 -2.42857
6694.5 2.28571
6695.5 4
6696.5 3
6697.5 7
6698.5 -0.714286
6699.5 1.28571
6700.5 1
6701.5 3
6702.5 5
6703.5 4
6704.5 -1.42857
6705.5 4
6706.5 2.28571
6707.5 2
6708.5 2
6709.5 4
6710.5 0.285714
6711.5 0.571429
6712.5 4.28571
6713.5 1.28571
6714.5 3.28571
6715.5 6
6716.5 5
6717.5 9
6718.5 14
6719.5 7
6720.5 6.28571
6721.5 13.2857
6722.5 15
6723.5 9
6724.5 12
6725.5 2.28571
6726.5 3
6727.5 2
6728.5 4
6729.5 2
6730.5 -0.428571
6731.5 1
6732.5 3.28571
6733.5 2
6734.5 2
6735.5 4
6736.5 5
6737.5 8
6738.5 4
6739.5 1
6740.5 3.28571
6741.5 2
6742.5 -0.714286
6743.5 -1.42857
6744.5 2
6745.5 -1.71429
6746.5 4
6747.5 2
6748.5 4
6749.5 -1.71429
6750.5 1
6751.5 2.28571
6752.5 -1.42857
6753.5 1
6754.5 -0.428571
6755.5 1
6756.5 2
6757.5 1.28571
6758.5 0.285714
6759.5 0.285714
6760.5 1
6761.5 1.28571
6762.5 5
6763.5 3
6764.5 7.28571
6765.5 1
6766.5 2.28571
6767.5 4
6768.5 5
6769.5 3.28571
6770.5 7
6771.5 6
6772.5 3.28571
6773.5 4
6774.5 4
6775.5 2
6776.5 3
6777.5 2
6778.5 -0.714286
6779.5 3
6780.5 2
6781.5 1
6782.5 3
6783.5 3
6784.5 3
6785.5 -1.42857
6786.5 1
6787.5 0
6788.5 0.285714
6789.5 5
6790.5 3
6791.5 3
6792.5 -0.714286
6793.5 0.285714
6794.5 -0.714286
6795.5 6
6796.5 2
6797.5 5
6798.5 1.28571
6799.5 2
6800.5 6
6801.5 1
6802.5 1
6803.5 5.28571
6804.5 -0.714286
6805.5 2
6806.5 1.28571
6807.5 1
6808.5 1
6809.5 -0.714286
6810.5 3
6811.5 2
6812.5 1
6813.5 4.28571
6814.5 0.571429
6815.5 6.28571
6816.5 1.28571
6817.5 0
6818.5 0.571429
6819.5 1
6820.5 5
6821.5 2
6822.5 -1.42857
6823.5 2
6824.5 -0.714286
6825.5 4
6826.5 4
6827.5 0.285714
6828.5 3
6829.5 4
6830.5 -0.714286
6831.5 0.285714
6832.5 0
6833.5 1
6834.5 1
6835.5 0
6836.5 4
6837.5 -0.714286
6838.5 0
6839.5 2
6840.5 1
6841.5 -0.714286
6842.5 3
6843.5 1
6844.5 3
6845.5 4
6846.5 -4.14286
6847.5 1.28571
6848.5 2
6849.5 1
6850.5 2
6851.5 -0.714286
6852.5 -1.71429
6853.5 -2.42857
6854.5 0.285714
6855.5 -1.71429
6856.5 0.285714
6857.5 0.285714
6858.5 0
6859.5 0.285714
6860.5 5
6861.5 -1.71429
6862.5 -0.714286
6863.5 1
6864.5 2
6865.5 -1.71429
6866.5 0.285714
6867.5 2
6868.5 1
6869.5 -1.71429
6870.5 1
6871.5 1.28571
6872.5 1
6873.5 -1.71429
6874.5 1
6875.5 0
6876.5 2
6877.5 2
6878.5 2
6879.5 1
6880.5 3
6881.5 4
6882.5 0.285714
6883.5 0
6884.5 1
6885.5 2
6886.5 -1.42857
6887.5 5
6888.5 -3.42857
6889.5 -1.71429
6890.5 1
6891.5 -1.71429
6892.5 2
6893.5 2
6894.5 1
6895.5 3
6896.5 4
6897.5 0
6898.5 3
6899.5 -1.42857
6900.5 2.28571
6901.5 4.28571
6902.5 3
6903.5 0.285714
6904.5 2.28571
6905.5 -1.42857
6906.5 1
6907.5 0.285714
6908.5 -0.428571
6909.5 3
6910.5 -2.42857
6911.5 -1.71429
6912.5 -3.42857
6913.5 0.571429
6914.5 3
6915.5 1.28571
6916.5 2
6917.5 -0.714286
6918.5 -0.714286
6919.5 -1.71429
6920.5 0
6921.5 3
6922.5 0.285714
6923.5 1.28571
6924.5 0.285714
6925.5 2
6926.5 3
6927.5 0.285714
6928.5 1.28571
6929.5 2
6930.5 1.28571
6931.5 0.285714
6932.5 -1.42857
6933.5 5
6934.5 -2.14286
6935.5 3
6936.5 -2.42857
6937.5 0.285714
6938.5 1.57143
6939.5 2
6940.5 2
6941.5 0
6942.5 1
6943.5 1
6944.5 3
6945.5 1.28571
6946.5 4
6947.5 2
6948.5 3.28571
6949.5 2.28571
6950.5 2
6951.5 5
6952.5 6
6953.5 16
6954.5 16
6955.5 15.5714
6956.5 16.2857
6957.5 16.2857
6958.5 19.2857
6959.5 23
6960.5 12.2857
6961.5 15
6962.5 16
6963.5 8.28571
6964.5 6
6965.5 5
6966.5 4
6967.5 0.285714
6968.5 0.285714
6969.5 0.285714
6970.5 0
6971.5 2.28571
6972.5 -1.71429
6973.5 1
6974.5 0.285714
6975.5 -0.714286
6976.5 0.285714
6977.5 -2.42857
6978.5 3
6979.5 3
6980.5 -0.714286
6981.5 1
6982.5 1
6983.5 -1.42857
6984.5 0
6985.5 2
6986.5 3
6987.5 -0.714286
6988.5 1
6989.5 0.285714
6990.5 0.285714
6991.5 -2.42857
6992.5 2
6993.5 -0.714286
6994.5 -1.42857
6995.5 1
6996.5 1
6997.5 1
6998.5 2
6999.5 3
7000.5 -0.714286
7001.5 3
7002.5 0
7003.5 2
7004.5 1.28571
7005.5 0.285714
7006.5 -1.42857
7007.5 3
7008.5 3
7009.5 3
7010.5 1
7011.5 4
7012.5 0.285714
7013.5 0
7014.5 2
7015.5 5
7016.5 1
7017.5 2
7018.5 2
7019.5 0
7020.5 1
7021.5 3
7022.5 3
7023.5 -1.71429
7024.5 2
7025.5 1.28571
7026.5 1
7027.5 0.285714
7028.5 5
7029.5 5
7030.5 4
7031.5 1
7032.5 1
7033.5 0
7034.5 2
7035.5 3
7036.5 1
7037.5 1
7038.5 3
7039.5 3
7040.5 3
7041.5 0
7042.5 2
7043.5 -0.714286
7044.5 2
7045.5 -0.714286
7046.5 0.285714
7047.5 1
7048.5 3
7049.5 0
7050.5 -2.42857
7051.5 0.285714
7052.5 -0.714286
7053.5 0
7054.5 -2.42857
7055.5 1
7056.5 2
7057.5 0
7058.5 1
7059.5 1
7060.5 0
7061.5 1
7062.5 2.28571
7063.5 -1.71429
7064.5 0
7065.5 1
7066.5 1
7067.5 -2.42857
7068.5 2
7069.5 3
7070.5 -4.85714
7071.5 -1.71429
7072.5 1
7073.5 5
7074.5 -0.714286
7075.5 1
7076.5 4
7077.5 2
7078.5 -4.14286
7079.5 -2.42857
7080.5 2
7081.5 0.285714
7082.5 1
7083.5 0
7084.5 -1.71429
7085.5 0.285714
7086.5 1
7087.5 1
7088.5 1
7089.5 1
7090.5 -0.714286
7091.5 -0.714286
7092.5 -0.714286
7093.5 2
7094.5 -1.71429
7095.5 2
7096.5 1
7097.5 -3.14286
7098.5 2
7099.5 -1.71429
7100.5 0
7101.5 3
7102.5 0.285714
7103.5 0
7104.5 1.28571
7105.5 1.28571
7106.5 1
7107.5 -0.714286
7108.5 1
7109.5 3
7110.5 2
7111.5 -0.714286
7112.5 1
7113.5 0
7114.5 1
7115.5 2
7116.5 0
7117.5 1
7118.5 2
7119.5 -2.42857
7120.5 1
7121.5 2
7122.5 0.571429
7123.5 -0.714286
7124.5 -1.71429
7125.5 3
7126.5 2
7127.5 3.28571
7128.5 2
7129.5 -1.71429
7130.5 0.285714
7131.5 -0.714286
7132.5 4
7133.5 1
7134.5 0.285714
7135.5 1
7136.5 2
7137.5 3
7138.5 0
7139.5 1
7140.5 1
7141.5 1
7142.5 0.285714
7143.5 0
7144.5 3
7145.5 3.28571
7146.5 2
7147.5 2
7148.5 2
7149.5 1.28571
7150.5 4
7151.5 1
7152.5 -1.71429
7153.5 -1.71429
7154.5 1.28571
7155.5 4
7156.5 -1.71429
7157.5 0
7158.5 0
7159.5 -0.714286
7160.5 -0.714286
7161.5 2
7162.5 0.285714
7163.5 3
7164.5 1
7165.5 2
7166.5 2
7167.5 2
7168.5 2
7169.5 0
7170.5 2
7171.5 -1.71429
7172.5 2
7173.5 2
7174.5 -1.71429
7175.5 1
7176.5 1
7177.5 -1.71429
7178.5 2
7179.5 -0.714286
7180.5 0
7181.5 1
7182.5 0
7183.5 1
7184.5 2
7185.5 -0.714286
7186.5 0
7187.5 0
7188.5 0.571429
7189.5 1
7190.5 -1.71429
7191.5 1
7192.5 2
7193.5 3
7194.5 0
7195.5 3
7196.5 -1.42857
7197.5 1
7198.5 -1.71429
7199.5 1
7200.5 -3.42857
7201.5 -5.14286
7202.5 -0.428571
7203.5 3
7204.5 3
7205.5 3
7206.5 2.28571
7207.5 -1.42857
7208.5 3
7209.5 1.57143
7210.5 1
7211.5 2.57143
7212.5 -2.42857
7213.5 1.28571
7214.5 1.28571
7215.5 -1.71429
7216.5 3
7217.5 6
7218.5 2
7219.5 1
7220.5 0.285714
7221.5 2
7222.5 -1.42857
7223.5 3
7224.5 -2.42857
7225.5 3
7226.5 0
7227.5 4
7228.5 2
7229.5 1
7230.5 3
7231.5 4
7232.5 2
7233.5 -0.714286
7234.5 1
7235.5 2
7236.5 3
7237.5 1
7238.5 2
7239.5 -0.714286
7240.5 0.285714
7241.5 0.285714
7242.5 2
7243.5 4
7244.5 1
7245.5 3
7246.5 -4.14286
7247.5 -0.714286
7248.5 -0.714286
7249.5 3
7250.5 -0.714286
7251.5 1
7252.5 0
7253.5 1
7254.5 -0.714286
7255.5 2
7256.5 -0.714286
7257.5 3
7258.5 -0.714286
7259.5 2.28571
7260.5 2.28571
7261.5 0.285714
7262.5 2.28571
7263.5 2
7264.5 2
7265.5 -2.42857
7266.5 2.28571
7267.5 -3.42857
7268.5 2
7269.5 5
7270.5 0
7271.5 3
7272.5 3
7273.5 1
7274.5 0
7275.5 1
7276.5 -0.714286
7277.5 4
7278.5 -0.714286
7279.5 2
7280.5 2
7281.5 2
7282.5 2
7283.5 2
7284.5 1.28571
7285.5 0.285714
7286.5 0
7287.5 1
7288.5 1
7289.5 1
7290.5 1
7291.5 5.28571
7292.5 1
7293.5 1
7294.5 1
7295.5 1
7296.5 3.28571
7297.5 -1.71429
7298.5 -1.71429
7299.5 1
7300.5 1
7301.5 3
7302.5 2
7303.5 0
7304.5 1
7305.5 1
7306.5 0
7307.5 3
7308.5 -1.71429
7309.5 2
7310.5 2
7311.5 0
7312.5 1.28571
7313.5 2
7314.5 0
7315.5 2
7316.5 3
7317.5 2
7318.5 4
7319.5 1
7320.5 0
7321.5 2
7322.5 -0.714286
7323.5 3
7324.5 0
7325.5 2
7326.5 1
7327.5 0
7328.5 1
7329.5 0
7330.5 -0.714286
7331.5 0
7332.5 2
7333.5 1
7334.5 0
7335.5 -0.714286
7336.5 2
7337.5 1
7338.5 0
7339.5 0
7340.5 1.28571
7341.5 0
7342.5 0
7343.5 0
7344.5 2
7345.5 3
7346.5 2
7347.5 1
7348.5 1
7349.5 -0.714286
7350.5 5
7351.5 0
7352.5 1
7353.5 3
7354.5 -3.42857
7355.5 1
7356.5 -0.714286
7357.5 -1.71429
7358.5 1
7359.5 0
7360.5 1
7361.5 2
7362.5 0
7363.5 2
7364.5 1.28571
7365.5 2.28571
7366.5 4
7367.5 1
7368.5 2
7369.5 -0.714286
7370.5 -0.714286
7371.5 0
7372.5 2
7373.5 1
7374.5 0
7375.5 0
7376.5 0
7377.5 0
7378.5 1
7379.5 0
7380.5 -2.42857
7381.5 1
7382.5 3
7383.5 2
7384.5 -0.714286
7385.5 0
7386.5 -2.42857
7387.5 3
7388.5 1
7389.5 0
7390.5 -1.71429
7391.5 2
7392.5 1
7393.5 2
7394.5 -1.71429
7395.5 0
7396.5 0
7397.5 0
7398.5 1
7399.5 2
7400.5 2
7401.5 1.28571
7402.5 1
7403.5 -1.71429
7404.5 0
7405.5 0
7406.5 2
7407.5 1
7408.5 -0.714286
7409.5 3
7410.5 -2.42857
7411.5 1
7412.5 1.28571
7413.5 0.571429
7414.5 2
7415.5 3
7416.5 -3.42857
7417.5 -3.42857
7418.5 0.285714
7419.5 2
7420.5 -0.714286
7421.5 2
7422.5 1
7423.5 2
7424.5 1
7425.5 1
7426.5 0
7427.5 0
7428.5 -1.71429
7429.5 0.285714
7430.5 0
7431.5 2.28571
7432.5 0
7433.5 2
7434.5 -1.71429
7435.5 -1.71429
7436.5 0
7437.5 1
7438.5 0
7439.5 1
7440.5 -0.714286
7441.5 -1.71429
7442.5 -3.42857
7443.5 1
7444.5 0
7445.5 1
7446.5 0
7447.5 1
7448.5 1
7449.5 -1.71429
7450.5 1.28571
7451.5 -1.71429
7452.5 0
7453.5 0.285714
7454.5 -1.71429
7455.5 1.28571
7456.5 1
7457.5 0
7458.5 -0.714286
7459.5 2
7460.5 3
7461.5 2
7462.5 6.28571
7463.5 6
7464.5 12
7465.5 22
7466.5 22
7467.5 26
7468.5 36
7469.5 49
7470.5 32
7471.5 16
7472.5 11.2857
7473.5 9
7474.5 5
7475.5 2
7476.5 0
7477.5 1
7478.5 4
7479.5 0
7480.5 0
7481.5 1
7482.5 0
7483.5 3
7484.5 0.285714
7485.5 1
7486.5 2
7487.5 1
7488.5 -1.71429
7489.5 0
7490.5 1
7491.5 0
7492.5 2
7493.5 -3.42857
7494.5 0
7495.5 0
7496.5 0
7497.5 1
7498.5 1
7499.5 2
7500.5 1
7501.5 0
7502.5 -0.714286
7503.5 0
7504.5 1
7505.5 1
7506.5 -1.71429
7507.5 1
7508.5 0
7509.5 0
7510.5 -2.42857
7511.5 0
7512.5 1
7513.5 0
7514.5 0
7515.5 0
7516.5 1
7517.5 0
7518.5 -0.714286
7519.5 0
7520.5 0
7521.5 0
7522.5 0
7523.5 0
7524.5 0
7525.5 1
7526.5 -1.71429
7527.5 0
7528.5 1
7529.5 1
7530.5 0
7531.5 0
7532.5 1
7533.5 0
7534.5 0
7535.5 -0.714286
7536.5 0
7537.5 1
7538.5 -1.71429
7539.5 0
7540.5 0
7541.5 -1.71429
7542.5 0
7543.5 2
7544.5 1
7545.5 0
7546.5 2
7547.5 0
7548.5 0
7549.5 -0.714286
7550.5 2
7551.5 -0.714286
7552.5 -1.71429
7553.5 0
7554.5 0
7555.5 -1.71429
7556.5 -1.71429
7557.5 0
7558.5 2
7559.5 1
7560.5 0
7561.5 1
7562.5 -1.71429
7563.5 -1.71429
7564.5 -1.71429
7565.5 0
7566.5 1
7567.5 -1.71429
7568.5 0
7569.5 0
7570.5 0
7571.5 1
7572.5 1
7573.5 -1.71429
7574.5 1
7575.5 0
7576.5 -0.714286
7577.5 1
7578.5 0
7579.5 1
7580.5 -0.714286
7581.5 -0.714286
7582.5 1
7583.5 0
7584.5 0
7585.5 -1.71429
7586.5 1
7587.5 -1.71429
7588.5 0
7589.5 1
7590.5 0
7591.5 0
7592.5 0
7593.5 -1.71429
7594.5 -0.714286
7595.5 -1.71429
7596.5 2
7597.5 0
7598.5 0
7599.5 1
7600.5 -1.71429
7601.5 -0.714286
7602.5 0
7603.5 1
7604.5 -0.714286
7605.5 -1.71429
7606.5 -1.71429
7607.5 0
7608.5 1
7609.5 1
7610.5 -1.71429
7611.5 -1.71429
7612.5 0
7613.5 0
7614.5 1
7615.5 0
7616.5 -1.71429
7617.5 0
7618.5 0
7619.5 2
7620.5 0
7621.5 0
7622.5 1
7623.5 2
7624.5 0
7625.5 0
7626.5 -1.71429
7627.5 1
7628.5 1
7629.5 1
7630.5 2
7631.5 -0.714286
7632.5 1
7633.5 -1.71429
7634.5 0
7635.5 1
7636.5 -0.714286
7637.5 0
7638.5 2
7639.5 0
7640.5 -1.71429
7641.5 0
7642.5 2
7643.5 1
7644.5 -0.714286
7645.5 0
7646.5 -0.714286
7647.5 1
7648.5 0
7649.5 -1.71429
7650.5 0
7651.5 0
7652.5 -1.71429
7653.5 0
7654.5 0
7655.5 0
7656.5 2
7657.5 0
7658.5 0
7659.5 0
7660.5 0
7661.5 -0.714286
7662.5 0.285714
7663.5 0
7664.5 0
7665.5 0
7666.5 0
7667.5 0
7668.5 0
7669.5 0
7670.5 1
7671.5 1
7672.5 0
7673.5 0
7674.5 1
7675.5 -1.71429
7676.5 0
7677.5 0
7678.5 1
7679.5 2
7680.5 0
7681.5 0
7682.5 0
7683.5 0
7684.5 -3.42857
7685.5 1
7686.5 -1.71429
7687.5 0
7688.5 0
7689.5 -1.71429
7690.5 -1.71429
7691.5 0
7692.5 1
7693.5 -0.714286
7694.5 0
7695.5 1
7696.5 1
7697.5 0
7698.5 -1.71429
7699.5 0
7700.5 0
7701.5 1
7702.5 2
7703.5 0
7704.5 0
7705.5 0
7706.5 0
7707.5 0
7708.5 0
7709.5 1
7710.5 0
7711.5 0
7712.5 1
7713.5 -0.714286
7714.5 1
7715.5 0
7716.5 0
7717.5 1
7718.5 1
7719.5 0
7720.5 0
7721.5 0
7722.5 2
7723.5 0
7724.5 2
7725.5 2
7726.5 2
7727.5 1
7728.5 -0.714286
7729.5 1
7730.5 0
7731.5 1
7732.5 0
7733.5 -3.42857
7734.5 0
7735.5 -0.714286
7736.5 0
7737.5 0
7738.5 2
7739.5 0
7740.5 0
7741.5 0
7742.5 0
7743.5 0
7744.5 0
7745.5 2
7746.5 0
7747.5 0
7748.5 0
7749.5 0
7750.5 0
7751.5 0.285714
7752.5 0
7753.5 0
7754.5 1
7755.5 0
7756.5 0
7757.5 0
7758.5 0
7759.5 -1.71429
7760.5 1
7761.5 1
7762.5 -0.714286
7763.5 1
7764.5 0
7765.5 0
7766.5 2
7767.5 1
7768.5 -3.42857
7769.5 0.285714
7770.5 -2.42857
7771.5 0.571429
7772.5 7
7773.5 0.285714
7774.5 -0.714286
7775.5 0
7776.5 0
7777.5 -1.71429
7778.5 1
7779.5 0
7780.5 1
7781.5 -3.42857
7782.5 0
7783.5 0
7784.5 0
7785.5 0
7786.5 0
7787.5 1
7788.5 -0.714286
7789.5 1
7790.5 -1.71429
7791.5 -1.71429
7792.5 2
7793.5 1
7794.5 0
7795.5 1
7796.5 0
7797.5 0
7798.5 0
7799.5 0
7800.5 0
7801.5 0
7802.5 0
7803.5 1
7804.5 0
7805.5 0
7806.5 2
7807.5 0
7808.5 0
7809.5 2
7810.5 0
7811.5 0
7812.5 0
7813.5 0
7814.5 0
7815.5 1
7816.5 -1.71429
7817.5 -1.71429
7818.5 0
7819.5 0
7820.5 0
7821.5 0
7822.5 0
7823.5 1
7824.5 2
7825.5 -1.71429
7826.5 -1.71429
7827.5 0
7828.5 0
7829.5 1
7830.5 -3.42857
7831.5 0
7832.5 0
7833.5 0
7834.5 0
7835.5 0
7836.5 1
7837.5 0
7838.5 0
7839.5 0
7840.5 0
7841.5 1
7842.5 0
7843.5 0
7844.5 0
7845.5 0
7846.5 2
7847.5 0
7848.5 0
7849.5 0
7850.5 0
7851.5 1
7852.5 0.285714
7853.5 0
7854.5 0
7855.5 0
7856.5 0
7857.5 0
7858.5 0
7859.5 0
7860.5 -1.71429
7861.5 0
7862.5 0
7863.5 -1.71429
7864.5 0
7865.5 0
7866.5 -1.71429
7867.5 0
7868.5 0
7869.5 0
7870.5 1
7871.5 -1.71429
7872.5 0
7873.5 0
7874.5 1
7875.5 2
7876.5 0
7877.5 0
7878.5 0
7879.5 0
7880.5 -1.71429
7881.5 0
7882.5 0
7883.5 -1.71429
7884.5 -0.714286
7885.5 0
7886.5 0
7887.5 1
7888.5 0
7889.5 0
7890.5 0
7891.5 0
7892.5 -0.714286
7893.5 0
7894.5 0
7895.5 0
7896.5 0
7897.5 0
7898.5 0
7899.5 1
7900.5 0
7901.5 -1.71429
7902.5 1
7903.5 0
7904.5 0
7905.5 0
7906.5 0
7907.5 0
7908.5 0
7909.5 1
7910.5 1
7911.5 0
7912.5 0
7913.5 0
7914.5 0
7915.5 -0.714286
7916.5 0
7917.5 0
7918.5 0
7919.5 -1.71429
7920.5 0
7921.5 0
7922.5 1
7923.5 1
7924.5 1
7925.5 0
7926.5 1
7927.5 0
7928.5 0
7929.5 1
7930.5 0
7931.5 2
7932.5 0
7933.5 0
7934.5 0
7935.5 0
7936.5 0
7937.5 0
7938.5 0
7939.5 -0.714286
7940.5 0
7941.5 0
7942.5 1
7943.5 0
7944.5 0
7945.5 0
7946.5 0
7947.5 0
7948.5 0
7949.5 0
7950.5 0
7951.5 0
7952.5 0
7953.5 0
7954.5 0
7955.5 0
7956.5 0
7957.5 0
7958.5 -1.42857
7959.5 0
7960.5 1
7961.5 0
7962.5 0
7963.5 0
7964.5 1
7965.5 0
7966.5 1
7967.5 0
7968.5 0
7969.5 2
7970.5 1
7971.5 1
7972.5 0
7973.5 0
7974.5 0
7975.5 -1.71429
7976.5 0
7977.5 -0.714286
7978.5 0
7979.5 -1.71429
7980.5 1
7981.5 1
7982.5 0
7983.5 -1.71429
7984.5 0
7985.5 0
7986.5 0
7987.5 0
7988.5 0
7989.5 0
7990.5 -1.71429
7991.5 0
7992.5 0
7993.5 1
7994.5 0
7995.5 1
7996.5 0
7997.5 0
7998.5 1
7999.5 -1.71429
8000.5 0
8001.5 -0.714286
8002.5 0
8003.5 0
8004.5 0
8005.5 1
8006.5 0
8007.5 0
8008.5 0
8009.5 0
8010.5 0
8011.5 0
8012.5 0
8013.5 0
8014.5 0
8015.5 -1.71429
8016.5 0
8017.5 1
8018.5 0
8019.5 0
8020.5 -1.71429
8021.5 -0.714286
8022.5 0
8023.5 3
8024.5 0
8025.5 0
8026.5 0
8027.5 0
8028.5 1
8029.5 0
8030.5 -1.71429
8031.5 -1.71429
8032.5 1
8033.5 1
8034.5 2
8035.5 0
8036.5 0
8037.5 0
8038.5 0
8039.5 0
8040.5 0
8041.5 0
8042.5 0
8043.5 1
8044.5 0
8045.5 0
8046.5 0
8047.5 0
8048.5 -0.714286
8049.5 0
8050.5 0
8051.5 0
8052.5 0
8053.5 0
8054.5 0
8055.5 2
8056.5 0
8057.5 -1.71429
8058.5 1
8059.5 1
8060.5 0
8061.5 0
8062.5 0
8063.5 0
8064.5 -0.714286
8065.5 0
8066.5 0
8067.5 -1.71429
8068.5 0
8069.5 0
8070.5 0
8071.5 0
8072.5 1
8073.5 0
8074.5 1
8075.5 1
8076.5 0
8077.5 0
8078.5 0
8079.5 0
8080.5 0
8081.5 0
8082.5 0
8083.5 0
8084.5 -0.714286
8085.5 -0.714286
8086.5 2
8087.5 0
8088.5 0
8089.5 0
8090.5 0
8091.5 0
8092.5 0
8093.5 0
8094.5 0
8095.5 -1.71429
8096.5 1
8097.5 0
8098.5 1
8099.5 -1.71429
8100.5 1
8101.5 0
8102.5 0
8103.5 -1.71429
8104.5 0
8105.5 0
8106.5 0
8107.5 0
8108.5 0
8109.5 0
8110.5 0
8111.5 0
8112.5 1
8113.5 0
8114.5 0
8115.5 1
8116.5 -3.42857
8117.5 0
8118.5 0
8119.5 0
8120.5 0
8121.5 0
8122.5 0
8123.5 0
8124.5 1
8125.5 0
8126.5 0
8127.5 0
8128.5 0
8129.5 0
8130.5 0
8131.5 -1.71429
8132.5 0
8133.5 0
8134.5 1
8135.5 0
8136.5 1
8137.5 0
8138.5 0
8139.5 0
8140.5 0
8141.5 0
8142.5 0
8143.5 -1.71429
8144.5 0
8145.5 0
8146.5 1
8147.5 0
8148.5 1
8149.5 1
8150.5 1
8151.5 0
8152.5 0
8153.5 1
8154.5 -1.71429
8155.5 0
8156.5 0
8157.5 0
8158.5 0
8159.5 -1.71429
8160.5 0
8161.5 0
8162.5 0
8163.5 0
8164.5 0
8165.5 1
8166.5 0
8167.5 1
8168.5 0
8169.5 0
8170.5 0
8171.5 0
8172.5 0
8173.5 0
8174.5 0
8175.5 0
8176.5 0
8177.5 0
8178.5 0
8179.5 1
8180.5 0
8181.5 1
8182.5 -1.71429
8183.5 0
8184.5 0
8185.5 1
8186.5 2
8187.5 -1.71429
8188.5 0
8189.5 -1.71429
8190.5 0
8191.5 0
8192.5 0
8193.5 0
8194.5 0
8195.5 0
8196.5 0
8197.5 0
8198.5 0
8199.5 0
8200.5 0
8201.5 0
8202.5 0
8203.5 0
8204.5 0
8205.5 -1.71429
8206.5 -1.71429
8207.5 0
8208.5 0
8209.5 1
8210.5 0
8211.5 1
8212.5 0
8213.5 1
8214.5 0
8215.5 0
8216.5 0
8217.5 2
8218.5 -1.71429
8219.5 0
8220.5 0
8221.5 0
8222.5 0
8223.5 0
8224.5 0
8225.5 0
8226.5 0
8227.5 0
8228.5 0
8229.5 0
8230.5 1
8231.5 0
8232.5 0
8233.5 0
8234.5 0
8235.5 0
8236.5 -1.71429
8237.5 1
8238.5 -1.71429
8239.5 0
8240.5 0
8241.5 1
8242.5 -1.71429
8243.5 0
8244.5 0
8245.5 0
8246.5 0
8247.5 0
8248.5 0
8249.5 0
8250.5 1
8251.5 0
8252.5 0
8253.5 0
8254.5 1
8255.5 0
8256.5 2
8257.5 0
8258.5 0
8259.5 0
8260.5 0
8261.5 0
8262.5 0
8263.5 0
8264.5 0
8265.5 0
8266.5 1
8267.5 0
8268.5 0
8269.5 0
8270.5 0
8271.5 0
8272.5 -1.71429
8273.5 1
8274.5 0
8275.5 0
8276.5 0
8277.5 0
8278.5 0
8279.5 0
8280.5 0.285714
8281.5 0
8282.5 -1.71429
8283.5 -2.42857
8284.5 0
8285.5 0
8286.5 0
8287.5 1
8288.5 0
8289.5 0
8290.5 0
8291.5 0
8292.5 0
8293.5 0
8294.5 0
8295.5 0
8296.5 0
8297.5 0
8298.5 0
8299.5 0
8300.5 2
8301.5 0
8302.5 0
8303.5 0
8304.5 0
8305.5 0
8306.5 0
8307.5 1
8308.5 0
8309.5 1
8310.5 0
8311.5 0
8312.5 -1.71429
8313.5 0
8314.5 0
8315.5 0
8316.5 -1.71429
8317.5 0
8318.5 0
8319.5 0
8320.5 0
8321.5 0
8322.5 0
8323.5 0
8324.5 0
8325.5 0
8326.5 0
8327.5 0
8328.5 0
8329.5 -1.71429
8330.5 0
8331.5 0
8332.5 0
8333.5 0.285714
8334.5 0
8335.5 -1.71429
8336.5 0
8337.5 0
8338.5 0
8339.5 0
8340.5 0
8341.5 0
8342.5 0
8343.5 0
8344.5 0
8345.5 0
8346.5 0
8347.5 0
8348.5 0
8349.5 0
8350.5 0
8351.5 -0.714286
8352.5 1
8353.5 0
8354.5 0
8355.5 -0.714286
8356.5 1
8357.5 -1.71429
8358.5 0
8359.5 0
8360.5 0
8361.5 0
8362.5 -1.71429
8363.5 1
8364.5 0
8365.5 1
8366.5 -1.71429
8367.5 0
8368.5 0
8369.5 0
8370.5 0
8371.5 -1.71429
8372.5 0
8373.5 0
8374.5 0
8375.5 0
8376.5 0
8377.5 0
8378.5 -1.71429
8379.5 0
8380.5 0
8381.5 0
8382.5 2
8383.5 0
8384.5 0
8385.5 0
8386.5 0
8387.5 0
8388.5 1
8389.5 0
8390.5 0
8391.5 0
8392.5 0
8393.5 0
8394.5 0
8395.5 -1.71429
8396.5 -1.71429
8397.5 0
8398.5 0
8399.5 -1.71429
8400.5 1
8401.5 0
8402.5 0
8403.5 0
8404.5 0
8405.5 0
8406.5 0
8407.5 0
8408.5 1
8409.5 0
8410.5 0
8411.5 0
8412.5 -1.71429
8413.5 0
8414.5 -1.71429
8415.5 0
8416.5 0
8417.5 0
8418.5 -1.71429
8419.5 0
8420.5 0
8421.5 0
8422.5 0
8423.5 1
8424.5 0
8425.5 0
8426.5 0
8427.5 -0.714286
8428.5 0
8429.5 0
8430.5 0
8431.5 0
8432.5 1
8433.5 0
8434.5 0
8435.5 0
8436.5 0
8437.5 -1.71429
8438.5 0
8439.5 -1.71429
8440.5 2
8441.5 1
8442.5 0
8443.5 0
8444.5 0
8445.5 0
8446.5 0
8447.5 0
8448.5 1
8449.5 1
8450.5 0
8451.5 0
8452.5 0
8453.5 0
8454.5 0
8455.5 0
8456.5 0
8457.5 -1.71429
8458.5 -0.714286
8459.5 0
8460.5 0
8461.5 1
8462.5 0
8463.5 0
8464.5 0
8465.5 -0.714286
8466.5 0
8467.5 0
8468.5 0
8469.5 1
8470.5 1
8471.5 0
8472.5 0
8473.5 1
8474.5 0
8475.5 1
8476.5 0
8477.5 0
8478.5 0
8479.5 0
8480.5 -0.714286
8481.5 0
8482.5 0
8483.5 0
8484.5 1
8485.5 -1.71429
8486.5 0
8487.5 0
8488.5 0
8489.5 0
8490.5 0
8491.5 0
8492.5 -1.71429
8493.5 0
8494.5 1
8495.5 0
8496.5 0
8497.5 0
8498.5 0
8499.5 0
8500.5 -1.71429
8501.5 0
8502.5 0
8503.5 0
8504.5 0
8505.5 0
8506.5 0
8507.5 0
8508.5 0
8509.5 0
8510.5 0
8511.5 0
8512.5 1
8513.5 1
8514.5 0
8515.5 0
8516.5 0
8517.5 0
8518.5 0
8519.5 -0.714286
8520.5 0
8521.5 0
8522.5 0
8523.5 0
8524.5 0
8525.5 0
8526.5 -3.42857
8527.5 0
8528.5 0
8529.5 0
8530.5 0
8531.5 0
8532.5 0
8533.5 0
8534.5 0
8535.5 0
8536.5 0
8537.5 0
8538.5 0
8539.5 0
8540.5 0
8541.5 0
8542.5 0
8543.5 1
8544.5 0
8545.5 0
8546.5 0
8547.5 1
8548.5 0
8549.5 0
8550.5 0
8551.5 0
8552.5 -3.42857
8553.5 0
8554.5 0
8555.5 0
8556.5 1
8557.5 0
8558.5 1
8559.5 0
8560.5 0
8561.5 0
8562.5 0
8563.5 0
8564.5 -0.714286
8565.5 0
8566.5 0
8567.5 0
8568.5 0
8569.5 0
8570.5 0
8571.5 2
8572.5 0
8573.5 0
8574.5 -1.71429
8575.5 1
8576.5 0
8577.5 0
8578.5 0
8579.5 0.285714
8580.5 0
8581.5 -0.714286
8582.5 0
8583.5 0
8584.5 0
8585.5 2
8586.5 0.285714
8587.5 0
8588.5 0
8589.5 0
8590.5 -1.71429
8591.5 0
8592.5 0
8593.5 0
8594.5 -0.714286
8595.5 0
8596.5 0
8597.5 0
8598.5 -1.71429
8599.5 0
8600.5 -1.71429
8601.5 0
8602.5 0
8603.5 0
8604.5 0
8605.5 0
8606.5 0
8607.5 0
8608.5 0
8609.5 1
8610.5 1
8611.5 0
8612.5 1
8613.5 1
8614.5 0
8615.5 1
8616.5 0
8617.5 0
8618.5 0
8619.5 0
8620.5 0
8621.5 0
8622.5 -1.71429
8623.5 0
8624.5 0
8625.5 0
8626.5 0
8627.5 -1.71429
8628.5 1
8629.5 1
8630.5 0
8631.5 0
8632.5 0
8633.5 0
8634.5 -0.714286
8635.5 0
8636.5 0
8637.5 1
8638.5 0
8639.5 1
8640.5 0
8641.5 0
8642.5 0
8643.5 0
8644.5 0
8645.5 0
8646.5 0
8647.5 0
8648.5 1
8649.5 0
8650.5 0
8651.5 0
8652.5 0
8653.5 0
8654.5 0
8655.5 0
8656.5 0
8657.5 0
8658.5 0
8659.5 0
8660.5 1
8661.5 1
8662.5 0
8663.5 0
8664.5 0
8665.5 0
8666.5 0
8667.5 0
8668.5 0
8669.5 0
8670.5 -1.71429
8671.5 0
8672.5 0
8673.5 0
8674.5 0
8675.5 0
8676.5 0
8677.5 0
8678.5 0
8679.5 0
8680.5 0
8681.5 0
8682.5 0
8683.5 0
8684.5 0
8685.5 -1.71429
8686.5 0
8687.5 0
8688.5 0
8689.5 0
8690.5 1
8691.5 1
8692.5 0
8693.5 0
8694.5 0
8695.5 0
8696.5 0
8697.5 0
8698.5 1
8699.5 0
8700.5 0
8701.5 0
8702.5 0
8703.5 0
8704.5 -1.71429
8705.5 1
8706.5 0
8707.5 1
8708.5 -1.71429
8709.5 0
8710.5 0
8711.5 0
8712.5 0
8713.5 1
8714.5 0
8715.5 1
8716.5 0
8717.5 0
8718.5 0
8719.5 0
8720.5 0
8721.5 0
8722.5 1
8723.5 0
8724.5 -1.71429
8725.5 0
8726.5 -1.71429
8727.5 0
8728.5 0
8729.5 0
8730.5 1
8731.5 0
8732.5 1
8733.5 0
8734.5 0
8735.5 0
8736.5 0
8737.5 0
8738.5 0
8739.5 0
8740.5 1
8741.5 0
8742.5 0
8743.5 -1.71429
8744.5 0
8745.5 1
8746.5 0
8747.5 0
8748.5 0
8749.5 0
8750.5 -1.71429
8751.5 0
8752.5 0
8753.5 0
8754.5 0
8755.5 1
8756.5 0
8757.5 0
8758.5 0
8759.5 0
8760.5 0
8761.5 0
8762.5 1
8763.5 0
8764.5 0
8765.5 0
8766.5 0
8767.5 -1.71429
8768.5 0
8769.5 0
8770.5 0
8771.5 -1.71429
8772.5 0
8773.5 0
8774.5 0
8775.5 0
8776.5 0
8777.5 0
8778.5 0
8779.5 1
8780.5 0
8781.5 0
8782.5 0
8783.5 1
8784.5 0
8785.5 0
8786.5 0
8787.5 0
8788.5 0
8789.5 1
8790.5 0
8791.5 0
8792.5 1
8793.5 1
8794.5 0
8795.5 -1.71429
8796.5 -1.71429
8797.5 0
8798.5 1
8799.5 0
8800.5 0
8801.5 -1.71429
8802.5 0
8803.5 0
8804.5 -1.71429
8805.5 0
8806.5 0
8807.5 0
8808.5 0
8809.5 0
8810.5 0
8811.5 0
8812.5 0
8813.5 0
8814.5 0
8815.5 0
8816.5 0
8817.5 0
8818.5 0
8819.5 1
8820.5 0
8821.5 0
8822.5 -1.71429
8823.5 0
8824.5 -1.71429
8825.5 0
8826.5 0
8827.5 1
8828.5 0
8829.5 0
8830.5 0
8831.5 0
8832.5 -3.42857
8833.5 0
8834.5 1
8835.5 1
8836.5 0
8837.5 0
8838.5 -1.71429
8839.5 0
8840.5 0
8841.5 0
8842.5 0
8843.5 -1.71429
8844.5 0
8845.5 1
8846.5 1
8847.5 1
8848.5 0
8849.5 0
8850.5 0
8851.5 0
8852.5 0
8853.5 0
8854.5 1
8855.5 1
8856.5 0
8857.5 0
8858.5 0
8859.5 0
8860.5 0
8861.5 0
8862.5 0
8863.5 0
8864.5 0
8865.5 0
8866.5 0
8867.5 0
8868.5 0
8869.5 0
8870.5 0
8871.5 0
8872.5 0
8873.5 0
8874.5 0
8875.5 -1.71429
8876.5 -1.71429
8877.5 0
8878.5 0
8879.5 0
8880.5 0
8881.5 0
8882.5 0
8883.5 0
8884.5 0
8885.5 0
8886.5 1
8887.5 0
8888.5 0
8889.5 0
8890.5 0
8891.5 0
8892.5 -1.71429
8893.5 0
8894.5 1
8895.5 0
8896.5 0
8897.5 0
8898.5 0
8899.5 1
8900.5 0
8901.5 0
8902.5 -1.71429
8903.5 0
8904.5 0
8905.5 0
8906.5 0
8907.5 0
8908.5 -1.71429
8909.5 -1.71429
8910.5 0
8911.5 1
8912.5 0
8913.5 0
8914.5 -1.71429
8915.5 0
8916.5 0
8917.5 0
8918.5 -1.71429
8919.5 -1.71429
8920.5 0
8921.5 0
8922.5 0
8923.5 0
8924.5 0
8925.5 0
8926.5 0
8927.5 0
8928.5 0
8929.5 0
8930.5 0
8931.5 0
8932.5 0
8933.5 0
8934.5 0
8935.5 0
8936.5 0
8937.5 0
8938.5 0
8939.5 0
8940.5 0
8941.5 0
8942.5 0
8943.5 0
8944.5 0
8945.5 -1.71429
8946.5 0
8947.5 0
8948.5 0
8949.5 0
8950.5 0
8951.5 0
8952.5 0
8953.5 0
8954.5 -0.714286
8955.5 0
8956.5 0
8957.5 0
8958.5 0
8959.5 0
8960.5 0
8961.5 0
8962.5 0
8963.5 0
8964.5 0
8965.5 0
8966.5 0
8967.5 0
8968.5 1
8969.5 0
8970.5 0
8971.5 1
8972.5 0
8973.5 0
8974.5 0
8975.5 0
8976.5 0
8977.5 1
8978.5 0
8979.5 0
8980.5 0
8981.5 0
8982.5 0
8983.5 0
8984.5 0
8985.5 1
8986.5 0
8987.5 -0.714286
8988.5 0
8989.5 1
8990.5 0
8991.5 0
8992.5 0
8993.5 0
8994.5 0
8995.5 0
8996.5 0
8997.5 0
8998.5 0
8999.5 0
9000.5 0
9001.5 0
9002.5 0
9003.5 0
9004.5 0
9005.5 0
9006.5 0
9007.5 0
9008.5 0
9009.5 0
9010.5 0
9011.5 0
9012.5 0
9013.5 1
9014.5 0
9015.5 0
9016.5 0
9017.5 0
9018.5 -1.71429
9019.5 0
9020.5 0
9021.5 1
9022.5 0
9023.5 0
9024.5 0
9025.5 0
9026.5 1
9027.5 0
9028.5 0
9029.5 0
9030.5 0
9031.5 0
9032.5 0
9033.5 0
9034.5 1
9035.5 0
9036.5 -1.71429
9037.5 0
9038.5 -1.71429
9039.5 0
9040.5 0
9041.5 0
9042.5 0
9043.5 0
9044.5 1
9045.5 0
9046.5 0
9047.5 0
9048.5 -1.71429
9049.5 0
9050.5 0
9051.5 0
9052.5 0
9053.5 1
9054.5 0
9055.5 -3.42857
9056.5 -1.71429
9057.5 0
9058.5 0
9059.5 0
9060.5 0
9061.5 0
9062.5 0
9063.5 0
9064.5 0
9065.5 1
9066.5 0
9067.5 0
9068.5 0
9069.5 0
9070.5 0
9071.5 0
9072.5 0
9073.5 1
9074.5 0
9075.5 0
9076.5 0
9077.5 -1.71429
9078.5 0
9079.5 -1.71429
9080.5 0
9081.5 0
9082.5 0
9083.5 0
9084.5 0
9085.5 0
9086.5 1
9087.5 0
9088.5 1
9089.5 0
9090.5 0
9091.5 0
9092.5 0
9093.5 1
9094.5 1
9095.5 0
9096.5 0
9097.5 0
9098.5 0
9099.5 0
9100.5 0
9101.5 0
9102.5 0
9103.5 0
9104.5 0
9105.5 0
9106.5 -1.71429
9107.5 0
9108.5 0
9109.5 0
9110.5 0
9111.5 1
9112.5 0
9113.5 -1.71429
9114.5 1
9115.5 0
9116.5 0
9117.5 0
9118.5 0
9119.5 1
9120.5 2
9121.5 -1.71429
9122.5 0
9123.5 0
9124.5 0
9125.5 0
9126.5 0
9127.5 0
9128.5 0
9129.5 -1.71429
9130.5 0
9131.5 0
9132.5 0
9133.5 1
9134.5 -3.42857
9135.5 0
9136.5 0
9137.5 0
9138.5 0
9139.5 0
9140.5 0
9141.5 0
9142.5 0
9143.5 0
9144.5 0
9145.5 0
9146.5 0
9147.5 0
9148.5 0
9149.5 0
9150.5 0
9151.5 0
9152.5 0
9153.5 0
9154.5 0
9155.5 1
9156.5 0
9157.5 0
9158.5 0
9159.5 1
9160.5 0
9161.5 0
9162.5 0
9163.5 0
9164.5 1
9165.5 0
9166.5 0
9167.5 0
9168.5 0
9169.5 0
9170.5 1
9171.5 -1.71429
9172.5 0
9173.5 0
9174.5 0
9175.5 2
9176.5 0
9177.5 0
9178.5 0
9179.5 0
9180.5 1
9181.5 0
9182.5 1
9183.5 0
9184.5 -1.71429
9185.5 1
9186.5 0
9187.5 0
9188.5 0
9189.5 -1.71429
9190.5 0
9191.5 0
9192.5 0
9193.5 0
9194.5 1
9195.5 0
9196.5 -1.71429
9197.5 0
9198.5 0
9199.5 0
9200.5 0
9201.5 0
9202.5 0
9203.5 1
9204.5 0
9205.5 0
9206.5 0
9207.5 1
9208.5 0
9209.5 2
9210.5 0
9211.5 1
9212.5 0
9213.5 1
9214.5 0
9215.5 0
9216.5 0
9217.5 1
9218.5 -1.71429
9219.5 0
9220.5 0
9221.5 0
9222.5 1
9223.5 -1.71429
9224.5 0
9225.5 0
9226.5 1
9227.5 0
9228.5 0
9229.5 0
9230.5 0
9231.5 0
9232.5 0
9233.5 0
9234.5 1
9235.5 1
9236.5 -1.71429
9237.5 0
9238.5 1
9239.5 0
9240.5 0
9241.5 0
9242.5 1
9243.5 -1.71429
9244.5 0
9245.5 0
9246.5 0
9247.5 0
9248.5 0
9249.5 -1.71429
9250.5 0
9251.5 0
9252.5 0
9253.5 0
9254.5 -1.71429
9255.5 0
9256.5 1
9257.5 1
9258.5 0
9259.5 -1.71429
9260.5 0
9261.5 0
9262.5 0
9263.5 0
9264.5 0
9265.5 0
9266.5 0
9267.5 0
9268.5 0
9269.5 0
9270.5 0
9271.5 0
9272.5 -1.71429
9273.5 0
9274.5 -0.714286
9275.5 0
9276.5 0
9277.5 0
9278.5 0
9279.5 0
9280.5 0
9281.5 0
9282.5 0
9283.5 1
9284.5 0
9285.5 0
9286.5 0
9287.5 0
9288.5 0
9289.5 1
9290.5 0
9291.5 0
9292.5 0
9293.5 0
9294.5 0
9295.5 1
9296.5 0
9297.5 0
9298.5 0
9299.5 0
9300.5 0
9301.5 0
9302.5 0
9303.5 0
9304.5 1
9305.5 0
9306.5 1
9307.5 0
9308.5 1
9309.5 0
9310.5 0
9311.5 0
9312.5 0
9313.5 0
9314.5 0
9315.5 0
9316.5 0
9317.5 0
9318.5 0
9319.5 0
9320.5 0
9321.5 0
9322.5 0
9323.5 0
9324.5 1
9325.5 0
9326.5 0
9327.5 0
9328.5 0
9329.5 0
9330.5 0
9331.5 0
9332.5 0
9333.5 1
9334.5 1
9335.5 0
9336.5 0
9337.5 0
9338.5 0
9339.5 0
9340.5 0
9341.5 0
9342.5 -1.71429
9343.5 0
9344.5 0
9345.5 0
9346.5 0
9347.5 0
9348.5 0
9349.5 -1.71429
9350.5 0
9351.5 0
9352.5 1
9353.5 0
9354.5 0
9355.5 0
9356.5 0
9357.5 1
9358.5 -1.71429
9359.5 -1.71429
9360.5 0
9361.5 0
9362.5 -1.71429
9363.5 0
9364.5 0
9365.5 0
9366.5 0
9367.5 0
9368.5 0
9369.5 0
9370.5 0
9371.5 0
9372.5 0
9373.5 1
9374.5 0
9375.5 0
9376.5 0
9377.5 0
9378.5 0
9379.5 0
9380.5 0
9381.5 0
9382.5 0
9383.5 0
9384.5 0
9385.5 0
9386.5 0
9387.5 0
9388.5 0
9389.5 0
9390.5 0
9391.5 0
9392.5 0
9393.5 0
9394.5 0
9395.5 0
9396.5 0
9397.5 0
9398.5 0
9399.5 0
9400.5 0
9401.5 0
9402.5 0
9403.5 0
9404.5 0
9405.5 0
9406.5 0
9407.5 0
9408.5 0
9409.5 0
9410.5 0
9411.5 0
9412.5 1
9413.5 0
9414.5 0
9415.5 0
9416.5 0
9417.5 0
9418.5 0
9419.5 -1.71429
9420.5 0
9421.5 0
9422.5 0
9423.5 0
9424.5 0
9425.5 0
9426.5 0
9427.5 0
9428.5 0
9429.5 0
9430.5 0
9431.5 0
9432.5 0
9433.5 0
9434.5 0
9435.5 1
9436.5 0
9437.5 0
9438.5 0
9439.5 0
9440.5 0
9441.5 0
9442.5 0
9443.5 0
9444.5 0
9445.5 0
9446.5 0
9447.5 -1.71429
9448.5 0
9449.5 -1.71429
9450.5 0
9451.5 1
9452.5 1
9453.5 0
9454.5 0
9455.5 0
9456.5 0
9457.5 1
9458.5 0
9459.5 0
9460.5 0
9461.5 0
9462.5 0
9463.5 0
9464.5 0
9465.5 0
9466.5 0
9467.5 -1.71429
9468.5 1
9469.5 0
9470.5 0
9471.5 0
9472.5 1
9473.5 0
9474.5 0
9475.5 0
9476.5 0
9477.5 0
9478.5 0
9479.5 0
9480.5 0
9481.5 0
9482.5 0
9483.5 0
9484.5 0
9485.5 1
9486.5 0
9487.5 0
9488.5 0
9489.5 0
9490.5 0
9491.5 0
9492.5 0
9493.5 0
9494.5 0
9495.5 0
9496.5 -1.71429
9497.5 0
9498.5 -1.71429
9499.5 0
9500.5 0
9501.5 0
9502.5 0
9503.5 0
9504.5 1
9505.5 0
9506.5 0
9507.5 0
9508.5 0
9509.5 0
9510.5 0
9511.5 0
9512.5 0
9513.5 0
9514.5 0
9515.5 0
9516.5 1
9517.5 0
9518.5 -3.42857
9519.5 0
9520.5 0
9521.5 0
9522.5 0
9523.5 0
9524.5 0
9525.5 0
9526.5 0
9527.5 0
9528.5 0
9529.5 1
9530.5 0
9531.5 0
9532.5 0
9533.5 0
9534.5 0
9535.5 0
9536.5 -1.71429
9537.5 0
9538.5 0
9539.5 0
9540.5 -1.71429
9541.5 0
9542.5 1
9543.5 0
9544.5 0
9545.5 0
9546.5 0
9547.5 -1.71429
9548.5 0
9549.5 0
9550.5 0
9551.5 0
9552.5 0
9553.5 0
9554.5 0
9555.5 0
9556.5 1
9557.5 0
9558.5 0
9559.5 0
9560.5 0
9561.5 0
9562.5 0
9563.5 0
9564.5 0
9565.5 0
9566.5 0
9567.5 0
9568.5 0
9569.5 0
9570.5 0
9571.5 0
9572.5 0
9573.5 0
9574.5 0
9575.5 0
9576.5 0
9577.5 0
9578.5 0
9579.5 0
9580.5 0
9581.5 0
9582.5 0
9583.5 0
9584.5 0
9585.5 0
9586.5 0
9587.5 0
9588.5 0
9589.5 0
9590.5 0
9591.5 0
9592.5 0
9593.5 0
9594.5 0
9595.5 1
9596.5 2
9597.5 0
9598.5 0
9599.5 0
9600.5 0
9601.5 0
9602.5 0
9603.5 1
9604.5 0
9605.5 0
9606.5 0
9607.5 0
9608.5 0
9609.5 0
9610.5 0
9611.5 0
9612.5 0
9613.5 0
9614.5 0
9615.5 0
9616.5 0
9617.5 0
9618.5 0
9619.5 0
9620.5 0
9621.5 0
9622.5 -1.71429
9623.5 0
9624.5 1
9625.5 0
9626.5 0
9627.5 0
9628.5 -1.71429
9629.5 0
9630.5 0
9631.5 0
9632.5 0
9633.5 0
9634.5 0
9635.5 0
9636.5 0
9637.5 0
9638.5 0
9639.5 0
9640.5 1
9641.5 0
9642.5 0
9643.5 0
9644.5 0
9645.5 0
9646.5 0
9647.5 1
9648.5 0
9649.5 0
9650.5 0
9651.5 0
9652.5 0
9653.5 0
9654.5 1
9655.5 0
9656.5 0
9657.5 0
9658.5 1
9659.5 0
9660.5 0
9661.5 0
9662.5 0
9663.5 -1.71429
9664.5 0
9665.5 1
9666.5 0
9667.5 0
9668.5 0
9669.5 0
9670.5 0
9671.5 0
9672.5 1
9673.5 0
9674.5 0
9675.5 0
9676.5 0
9677.5 0
9678.5 0
9679.5 0
9680.5 0
9681.5 0
9682.5 0
9683.5 0
9684.5 0
9685.5 0
9686.5 0
9687.5 0
9688.5 0
9689.5 0
9690.5 0
9691.5 0
9692.5 0
9693.5 0
9694.5 0
9695.5 0
9696.5 0
9697.5 0
9698.5 0
9699.5 0
9700.5 0
9701.5 0
9702.5 0
9703.5 0
9704.5 0
9705.5 0
9706.5 0
9707.5 0
9708.5 1
9709.5 0
9710.5 0
9711.5 0
9712.5 0
9713.5 0
9714.5 0
9715.5 0
9716.5 0
9717.5 0
9718.5 0
9719.5 0
9720.5 0
9721.5 0
9722.5 1
9723.5 0
9724.5 0
9725.5 0
9726.5 0
9727.5 0
9728.5 0
9729.5 0
9730.5 0
9731.5 1
9732.5 0
9733.5 0
9734.5 0
9735.5 0
9736.5 0
9737.5 0
9738.5 1
9739.5 0
9740.5 0
9741.5 0
9742.5 0
9743.5 0
9744.5 0
9745.5 0
9746.5 0
9747.5 0
9748.5 -0.714286
9749.5 0
9750.5 0
9751.5 0
9752.5 0
9753.5 0
9754.5 0
9755.5 0
9756.5 0
9757.5 0
9758.5 0
9759.5 0
9760.5 0
9761.5 0
9762.5 0
9763.5 0
9764.5 0
9765.5 0
9766.5 0
9767.5 0
9768.5 0
9769.5 0
9770.5 0
9771.5 0
9772.5 0
9773.5 0
9774.5 0
9775.5 -1.71429
9776.5 0
9777.5 0
9778.5 0
9779.5 0
9780.5 0
9781.5 0
9782.5 0
9783.5 0
9784.5 0
9785.5 1
9786.5 0
9787.5 0
9788.5 0
9789.5 0
9790.5 0
9791.5 0
9792.5 0
9793.5 0
9794.5 0
9795.5 0
9796.5 0
9797.5 0
9798.5 0
9799.5 0
9800.5 0
9801.5 0
9802.5 0
9803.5 0
9804.5 0
9805.5 0
9806.5 0
9807.5 0
9808.5 0
9809.5 0
9810.5 0
9811.5 0
9812.5 0
9813.5 0
9814.5 0
9815.5 0
9816.5 0
9817.5 0
9818.5 0
9819.5 0
9820.5 0
9821.5 0
9822.5 0
9823.5 0
9824.5 0
9825.5 0
9826.5 0
9827.5 0
9828.5 0
9829.5 0
9830.5 0
9831.5 0
9832.5 0
9833.5 0
9834.5 0
9835.5 0
9836.5 1
9837.5 0
9838.5 0
9839.5 -1.71429
9840.5 0
9841.5 0
9842.5 0
9843.5 0
9844.5 0
9845.5 0
9846.5 0
9847.5 0
9848.5 0
9849.5 0
9850.5 0
9851.5 0
9852.5 0
9853.5 0
9854.5 0
9855.5 0
9856.5 0
9857.5 0
9858.5 0
9859.5 0
9860.5 0
9861.5 0
9862.5 0
9863.5 0
9864.5 0
9865.5 0
9866.5 0
9867.5 0
9868.5 0
9869.5 0
9870.5 0
9871.5 0
9872.5 0
9873.5 0
9874.5 -3.42857
9875.5 0
9876.5 0
9877.5 0
9878.5 0
9879.5 0
9880.5 1
9881.5 0
9882.5 1
9883.5 -1.71429
9884.5 0
9885.5 0
9886.5 0
9887.5 0
9888.5 0
9889.5 0
9890.5 0
9891.5 0
9892.5 0
9893.5 0
9894.5 1
9895.5 1
9896.5 0
9897.5 0
9898.5 0
9899.5 0
9900.5 0
9901.5 0
9902.5 0
9903.5 0
9904.5 0
9905.5 0
9906.5 0
9907.5 0
9908.5 0
9909.5 0
9910.5 0
9911.5 0
9912.5 0
9913.5 0
9914.5 0
9915.5 0
9916.5 -1.71429
9917.5 0
9918.5 0
9919.5 0
9920.5 0
9921.5 0
9922.5 0
9923.5 0
9924.5 0
9925.5 -1.71429
9926.5 0
9927.5 0
9928.5 0
9929.5 0
9930.5 0
9931.5 0
9932.5 0
9933.5 0
9934.5 0
9935.5 0
9936.5 0
9937.5 0
9938.5 0
9939.5 0
9940.5 0
9941.5 0
9942.5 0
9943.5 0
9944.5 0
9945.5 0
9946.5 0
9947.5 0
9948.5 0
9949.5 0
9950.5 0
9951.5 0
9952.5 0
9953.5 0
9954.5 0
9955.5 0
9956.5 0
9957.5 0
9958.5 1
9959.5 0
9960.5 0
9961.5 0
9962.5 0
9963.5 0
9964.5 0
9965.5 0
9966.5 0
9967.5 0
9968.5 0
9969.5 0
9970.5 0
9971.5 0
9972.5 0
9973.5 0
9974.5 0
9975.5 0
9976.5 0
9977.5 0
9978.5 0
9979.5 0
9980.5 0
9981.5 0
9982.5 0
9983.5 0
9984.5 0
9985.5 0
9986.5 0
9987.5 0
9988.5 0
9989.5 0
9990.5 0
9991.5 0
9992.5 -1.71429
9993.5 0
9994.5 0
9995.5 0
9996.5 1
9997.5 0
9998.5 0
9999.5 0
10000.5 0
10001.5 0
10002.5 0
10003.5 0
10004.5 0
10005.5 0
10006.5 0
10007.5 0
10008.5 0
10009.5 0
10010.5 0
10011.5 0
10012.5 0
10013.5 0
10014.5 0
10015.5 0
10016.5 0
10017.5 0
10018.5 0
10019.5 0
10020.5 0
10021.5 0
10022.5 0
10023.5 0
10024.5 0
10025.5 0
10026.5 0
10027.5 0
10028.5 0
10029.5 0
10030.5 0
10031.5 0
10032.5 0
10033.5 0
10034.5 0
10035.5 0
10036.5 0
10037.5 0
10038.5 0
10039.5 0
10040.5 0
10041.5 0
10042.5 0
10043.5 0
10044.5 0
10045.5 0
10046.5 0
10047.5 0
10048.5 0
10049.5 1
10050.5 0
10051.5 0
10052.5 0
10053.5 0
10054.5 0
10055.5 0
10056.5 0
10057.5 0
10058.5 0
10059.5 1
10060.5 0
10061.5 0
10062.5 0
10063.5 0
10064.5 0
10065.5 0
10066.5 0
10067.5 0
10068.5 0
10069.5 0
10070.5 0
10071.5 0
10072.5 0
10073.5 0
10074.5 0
10075.5 0
10076.5 0
10077.5 0
10078.5 0
10079.5 0
10080.5 0
10081.5 0
10082.5 0
10083.5 0
10084.5 0
10085.5 0
10086.5 0
10087.5 0
10088.5 0
10089.5 -1.71429
10090.5 0
10091.5 0
10092.5 0
10093.5 0
10094.5 0
10095.5 0
10096.5 0
10097.5 0
10098.5 0
10099.5 0
10100.5 0
10101.5 0
10102.5 0
10103.5 0
10104.5 0
10105.5 0
10106.5 0
10107.5 0
10108.5 0
10109.5 0
10110.5 0
10111.5 1
10112.5 0
10113.5 0
10114.5 0
10115.5 0
10116.5 0
10117.5 0
10118.5 0
10119.5 0
10120.5 0
10121.5 0
10122.5 0
10123.5 0
10124.5 0
10125.5 0
10126.5 0
10127.5 0
10128.5 0
10129.5 0
10130.5 0
10131.5 0
10132.5 0
10133.5 0
10134.5 0
10135.5 0
10136.5 0
10137.5 0
10138.5 0
10139.5 0
10140.5 0
10141.5 0
10142.5 0
10143.5 0
10144.5 0
10145.5 0
10146.5 0
10147.5 0
10148.5 0
10149.5 0
10150.5 0
10151.5 0
10152.5 0
10153.5 -1.71429
10154.5 0
10155.5 0
10156.5 0
10157.5 0
10158.5 0
10159.5 0
10160.5 0
10161.5 0
10162.5 0
10163.5 0
10164.5 0
10165.5 0
10166.5 0
10167.5 0
10168.5 0
10169.5 0
10170.5 0
10171.5 0
10172.5 0
10173.5 0
10174.5 0
10175.5 0
10176.5 0
10177.5 0
10178.5 0
10179.5 0
10180.5 0
10181.5 0
10182.5 0
10183.5 0
10184.5 0
10185.5 0
10186.5 0
10187.5 0
10188.5 0
10189.5 0
10190.5 0
10191.5 0
10192.5 0
10193.5 0
10194.5 0
10195.5 0
10196.5 0
10197.5 0
10198.5 0
10199.5 0
10200.5 0
10201.5 0
10202.5 0
10203.5 0
10204.5 0
10205.5 0
10206.5 0
10207.5 0
10208.5 0
10209.5 0
10210.5 0
10211.5 0
10212.5 0
10213.5 0
10214.5 0
10215.5 0
10216.5 0
10217.5 0
10218.5 0
10219.5 0
10220.5 0
10221.5 0
10222.5 0
10223.5 0
10224.5 0
10225.5 0
10226.5 0
10227.5 0
10228.5 0
10229.5 0
10230.5 0
10231.5 0
10232.5 0
10233.5 0
10234.5 0
10235.5 0
10236.5 0
10237.5 0
10238.5 0
10239.5 0
10240.5 0
10241.5 0
10242.5 0
10243.5 0
10244.5 0
10245.5 0
10246.5 0
10247.5 0
10248.5 0
10249.5 0
10250.5 0
10251.5 0
10252.5 0
10253.5 0
10254.5 0
10255.5 0
10256.5 0
10257.5 0
10258.5 0
10259.5 0
10260.5 0
10261.5 0
10262.5 0
10263.5 0
10264.5 0
10265.5 0
10266.5 0
10267.5 0
10268.5 0
10269.5 0
10270.5 0
10271.5 0
10272.5 0
10273.5 0
10274.5 0
10275.5 0
10276.5 0
10277.5 0
10278.5 0
10279.5 0
10280.5 0
10281.5 0
10282.5 0
10283.5 0
10284.5 0
10285.5 0
10286.5 0
10287.5 0
10288.5 0
10289.5 0
10290.5 0
10291.5 0
10292.5 0
10293.5 0
10294.5 0
10295.5 0
10296.5 0
10297.5 0
10298.5 0
10299.5 0
10300.5 0
10301.5 0
10302.5 0
10303.5 0
10304.5 1
10305.5 1
10306.5 0
10307.5 0
10308.5 0
10309.5 0
10310.5 0
10311.5 0
10312.5 1
10313.5 0
10314.5 0
10315.5 0
10316.5 0
10317.5 0
10318.5 0
10319.5 0
10320.5 0
10321.5 0
10322.5 0
10323.5 0
10324.5 -1.71429
10325.5 0
10326.5 0
10327.5 0
10328.5 0
10329.5 0
10330.5 0
10331.5 0
10332.5 1
10333.5 0
10334.5 0
10335.5 0
10336.5 0
10337.5 0
10338.5 0
10339.5 0
10340.5 0
10341.5 0
10342.5 0
10343.5 0
10344.5 0
10345.5 0
10346.5 0
10347.5 0
10348.5 0
10349.5 0
10350.5 0
10351.5 0
10352.5 0
10353.5 0
10354.5 0
10355.5 0
10356.5 0
10357.5 0
10358.5 0
10359.5 0
10360.5 0
10361.5 0
10362.5 0
10363.5 0
10364.5 0
10365.5 0
10366.5 0
10367.5 0
10368.5 0
10369.5 0
10370.5 0
10371.5 0
10372.5 0
10373.5 0
10374.5 0
10375.5 0
10376.5 0
10377.5 0
10378.5 0
10379.5 0
10380.5 0
10381.5 0
10382.5 0
10383.5 0
10384.5 0
10385.5 0
10386.5 0
10387.5 0
10388.5 0
10389.5 0
10390.5 1
10391.5 0
10392.5 0
10393.5 0
10394.5 0
10395.5 0
10396.5 0
10397.5 0
10398.5 0
10399.5 0
10400.5 0
10401.5 0
10402.5 0
10403.5 0
10404.5 0
10405.5 0
10406.5 0
10407.5 0
10408.5 0
10409.5 0
10410.5 0
10411.5 0
10412.5 0
10413.5 0
10414.5 0
10415.5 0
10416.5 0
10417.5 0
10418.5 0
10419.5 0
10420.5 0
10421.5 0
10422.5 0
10423.5 0
10424.5 0
10425.5 0
10426.5 0
10427.5 0
10428.5 0
10429.5 0
10430.5 0
10431.5 0
10432.5 0
10433.5 0
10434.5 0
10435.5 0
10436.5 0
10437.5 0
10438.5 0
10439.5 0
10440.5 0
10441.5 0
10442.5 0
10443.5 0
10444.5 0
10445.5 0
10446.5 0
10447.5 0
10448.5 0
10449.5 0
10450.5 0
10451.5 0
10452.5 0
10453.5 0
10454.5 0
10455.5 0
10456.5 0
10457.5 0
10458.5 0
10459.5 0
10460.5 0
10461.5 0
10462.5 0
10463.5 0
10464.5 0
10465.5 1
10466.5 0
10467.5 0
10468.5 0
10469.5 0
10470.5 0
10471.5 0
10472.5 0
10473.5 0
10474.5 0
10475.5 0
10476.5 0
10477.5 0
10478.5 0
10479.5 0
10480.5 0
10481.5 0
10482.5 0
10483.5 0
10484.5 0
10485.5 0
10486.5 0
10487.5 0
10488.5 0
10489.5 0
10490.5 0
10491.5 0
10492.5 0
10493.5 0
10494.5 0
10495.5 0
10496.5 0
10497.5 0
10498.5 0
10499.5 0
10500.5 0
10501.5 0
10502.5 0
10503.5 0
10504.5 0
10505.5 0
10506.5 0
10507.5 0
10508.5 0
10509.5 0
10510.5 0
10511.5 0
10512.5 0
10513.5 0
10514.5 0
10515.5 0
10516.5 0
10517.5 0
10518.5 0
10519.5 0
10520.5 0
10521.5 0
10522.5 0
10523.5 0
10524.5 0
10525.5 0
10526.5 0
10527.5 0
10528.5 0
10529.5 0
10530.5 0
10531.5 0
10532.5 0
10533.5 0
10534.5 0
10535.5 0
10536.5 1
10537.5 0
10538.5 0
10539.5 0
10540.5 0
10541.5 0
10542.5 0
10543.5 0
10544.5 0
10545.5 0
10546.5 0
10547.5 0
10548.5 0
10549.5 0
10550.5 0
10551.5 0
10552.5 0
10553.5 0
10554.5 0
10555.5 0
10556.5 0
10557.5 0
10558.5 0
10559.5 0
10560.5 0
10561.5 0
10562.5 0
10563.5 0
10564.5 0
10565.5 0
10566.5 0
10567.5 0
10568.5 0
10569.5 0
10570.5 0
10571.5 0
10572.5 0
10573.5 0
10574.5 0
10575.5 0
10576.5 0
10577.5 0
10578.5 0
10579.5 0
10580.5 0
10581.5 0
10582.5 0
10583.5 0
10584.5 0
10585.5 0
10586.5 0
10587.5 0
10588.5 0
10589.5 0
10590.5 0
10591.5 0
10592.5 0
10593.5 0
10594.5 0
10595.5 0
10596.5 0
10597.5 0
10598.5 0
10599.5 0
10600.5 0
10601.5 0
10602.5 0
10603.5 0
10604.5 0
10605.5 0
10606.5 0
10607.5 0
10608.5 0
10609.5 0
10610.5 0
10611.5 0
10612.5 0
10613.5 0
10614.5 0
10615.5 0
10616.5 0
10617.5 0
10618.5 0
10619.5 0
10620.5 0
10621.5 0
10622.5 0
10623.5 0
10624.5 0
10625.5 0
10626.5 0
10627.5 0
10628.5 0
10629.5 0
10630.5 0
10631.5 0
10632.5 0
10633.5 0
10634.5 0
10635.5 0
10636.5 0
10637.5 0
10638.5 0
10639.5 0
10640.5 0
10641.5 0
10642.5 0
10643.5 0
10644.5 0
10645.5 0
10646.5 0
10647.5 0
10648.5 0
10649.5 0
10650.5 0
10651.5 0
10652.5 0
10653.5 0
10654.5 0
10655.5 0
10656.5 0
10657.5 0
10658.5 0
10659.5 0
10660.5 0
10661.5 0
10662.5 0
10663.5 0
10664.5 0
10665.5 0
10666.5 0
10667.5 0
10668.5 0
10669.5 0
10670.5 0
10671.5 0
10672.5 0
10673.5 0
10674.5 0
10675.5 0
10676.5 0
10677.5 0
10678.5 0
10679.5 0
10680.5 0
10681.5 0
10682.5 1
10683.5 0
10684.5 0
10685.5 0
10686.5 0
10687.5 0
10688.5 0
10689.5 0
10690.5 0
10691.5 0
10692.5 0
10693.5 0
10694.5 0
10695.5 0
10696.5 0
10697.5 0
10698.5 0
10699.5 0
10700.5 0
10701.5 0
10702.5 0
10703.5 0
10704.5 0
10705.5 0
10706.5 0
10707.5 0
10708.5 0
10709.5 0
10710.5 0
10711.5 0
10712.5 0
10713.5 0
10714.5 0
10715.5 0
10716.5 0
10717.5 0
10718.5 0
10719.5 0
10720.5 0
10721.5 0
10722.5 0
10723.5 0
10724.5 0
10725.5 0
10726.5 0
10727.5 0
10728.5 0
10729.5 0
10730.5 0
10731.5 0
10732.5 0
10733.5 0
10734.5 0
10735.5 0
10736.5 0
10737.5 0
10738.5 0
10739.5 0
10740.5 0
10741.5 0
10742.5 0
10743.5 0
10744.5 0
10745.5 0
10746.5 0
10747.5 0
10748.5 0
10749.5 0
10750.5 0
10751.5 0
10752.5 0
10753.5 0
10754.5 0
10755.5 0
10756.5 0
10757.5 0
10758.5 0
10759.5 0
10760.5 0
10761.5 0
10762.5 0
10763.5 0
10764.5 0
10765.5 0
10766.5 0
10767.5 0
10768.5 0
10769.5 0
10770.5 0
10771.5 0
10772.5 0
10773.5 0
10774.5 0
10775.5 0
10776.5 0
10777.5 0
10778.5 0
10779.5 0
10780.5 0
10781.5 0
10782.5 0
10783.5 0
10784.5 0
10785.5 0
10786.5 0
10787.5 0
10788.5 0
10789.5 0
10790.5 0
10791.5 0
10792.5 0
10793.5 0
10794.5 0
10795.5 0
10796.5 0
10797.5 0
10798.5 0
10799.5 0
10800.5 0
10801.5 0
10802.5 0
10803.5 0
10804.5 0
10805.5 0
10806.5 0
10807.5 0
10808.5 0
10809.5 0
10810.5 0
10811.5 0
10812.5 0
10813.5 0
10814.5 0
10815.5 1
10816.5 0
10817.5 0
10818.5 0
10819.5 0
10820.5 0
10821.5 0
10822.5 0
10823.5 0
10824.5 0
10825.5 0
10826.5 0
10827.5 0
10828.5 0
10829.5 0
10830.5 0
10831.5 0
10832.5 0
10833.5 0
10834.5 0
10835.5 0
10836.5 0
10837.5 0
10838.5 0
10839.5 0
10840.5 0
10841.5 0
10842.5 1
10843.5 0
10844.5 0
10845.5 0
10846.5 0
10847.5 0
10848.5 0
10849.5 0
10850.5 0
10851.5 0
10852.5 0
10853.5 0
10854.5 0
10855.5 0
10856.5 0
10857.5 0
10858.5 0
10859.5 0
10860.5 0
10861.5 0
10862.5 0
10863.5 0
10864.5 0
10865.5 0
10866.5 0
10867.5 0
10868.5 0
10869.5 0
10870.5 0
10871.5 0
10872.5 0
10873.5 0
10874.5 0
10875.5 0
10876.5 0
10877.5 0
10878.5 0
10879.5 0
10880.5 0
10881.5 0
10882.5 0
10883.5 -1.71429
10884.5 0
10885.5 0
10886.5 0
10887.5 0
10888.5 0
10889.5 0
10890.5 0
10891.5 0
10892.5 0
10893.5 0
10894.5 0
10895.5 0
10896.5 0
10897.5 0
10898.5 0
10899.5 0
10900.5 0
10901.5 0
10902.5 0
10903.5 0
10904.5 0
10905.5 0
10906.5 0
10907.5 0
10908.5 0
10909.5 0
10910.5 0
10911.5 0
10912.5 -1.71429
10913.5 0
10914.5 0
10915.5 0
10916.5 0
10917.5 0
10918.5 0
10919.5 0
10920.5 0
10921.5 0
10922.5 0
10923.5 0
10924.5 0
10925.5 0
10926.5 -1.71429
10927.5 0
10928.5 0
10929.5 0
10930.5 0
10931.5 0
10932.5 0
10933.5 0
10934.5 0
10935.5 0
10936.5 0
10937.5 0
10938.5 1
10939.5 0
10940.5 0
10941.5 0
10942.5 0
10943.5 0
10944.5 0
10945.5 0
10946.5 0
10947.5 0
10948.5 0
10949.5 0
10950.5 0
10951.5 0
10952.5 0
10953.5 0
10954.5 0
10955.5 0
10956.5 0
10957.5 0
10958.5 0
10959.5 0
10960.5 0
10961.5 0
10962.5 0
10963.5 0
10964.5 0
10965.5 0
10966.5 0
10967.5 0
10968.5 0
10969.5 0
10970.5 0
10971.5 0
10972.5 0
10973.5 0
10974.5 0
10975.5 0
10976.5 0
10977.5 0
10978.5 0
10979.5 0
10980.5 0
10981.5 0
10982.5 0
10983.5 0
10984.5 0
10985.5 0
10986.5 0
10987.5 0
10988.5 0
10989.5 0
10990.5 0
10991.5 0
10992.5 0
10993.5 0
10994.5 0
10995.5 0
10996.5 0
10997.5 0
10998.5 0
10999.5 0
11000.5 0
11001.5 0
11002.5 0
11003.5 0
11004.5 0
11005.5 0
11006.5 0
11007.5 0
11008.5 0
11009.5 0
11010.5 0
11011.5 0
11012.5 0
11013.5 0
11014.5 -1.71429
11015.5 0
11016.5 0
11017.5 0
11018.5 0
11019.5 0
11020.5 0
11021.5 0
11022.5 0
11023.5 0
11024.5 0
11025.5 0
11026.5 0
11027.5 0
11028.5 0
11029.5 0
11030.5 0
11031.5 0
11032.5 0
11033.5 0
11034.5 0
11035.5 0
11036.5 0
11037.5 0
11038.5 0
11039.5 0
11040.5 0
11041.5 0
11042.5 0
11043.5 0
11044.5 0
11045.5 0
11046.5 0
11047.5 0
11048.5 0
11049.5 0
11050.5 0
11051.5 0
11052.5 0
11053.5 0
11054.5 0
11055.5 0
11056.5 0
11057.5 0
11058.5 0
11059.5 0
11060.5 0
11061.5 0
11062.5 0
11063.5 0
11064.5 0
11065.5 0
11066.5 0
11067.5 0
11068.5 0
11069.5 0
11070.5 0
11071.5 0
11072.5 0
11073.5 0
11074.5 0
11075.5 0
11076.5 0
11077.5 0
11078.5 0
11079.5 0
11080.5 0
11081.5 0
11082.5 0
11083.5 0
11084.5 0
11085.5 0
11086.5 0
11087.5 0
11088.5 0
11089.5 0
11090.5 0
11091.5 0
11092.5 0
11093.5 0
11094.5 0
11095.5 0
11096.5 0
11097.5 0
11098.5 0
11099.5 0
11100.5 0
11101.5 0
11102.5 0
11103.5 0
11104.5 0
11105.5 0
11106.5 0
11107.5 0
11108.5 0
11109.5 0
11110.5 0
11111.5 0
11112.5 -1.71429
11113.5 0
11114.5 0
11115.5 0
11116.5 0
11117.5 0
11118.5 0
11119.5 0
11120.5 0
11121.5 0
11122.5 1
11123.5 0
11124.5 0
11125.5 0
11126.5 0
11127.5 1
11128.5 0
11129.5 0
11130.5 0
11131.5 0
11132.5 0
11133.5 0
11134.5 0
11135.5 0
11136.5 0
11137.5 0
11138.5 0
11139.5 0
11140.5 0
11141.5 0
11142.5 0
11143.5 0
11144.5 0
11145.5 -1.71429
11146.5 0
11147.5 0
11148.5 0
11149.5 0
11150.5 0
11151.5 0
11152.5 0
11153.5 0
11154.5 0
11155.5 0
11156.5 0
11157.5 0
11158.5 0
11159.5 1
11160.5 0
11161.5 0
11162.5 0
11163.5 0
11164.5 0
11165.5 0
11166.5 0
11167.5 0
11168.5 1
11169.5 0
11170.5 0
11171.5 0
11172.5 0
11173.5 0
11174.5 0
11175.5 0
11176.5 0
11177.5 0
11178.5 0
11179.5 0
11180.5 0
11181.5 0
11182.5 0
11183.5 0
11184.5 0
11185.5 0
11186.5 0
11187.5 0
11188.5 0
11189.5 0
11190.5 0
11191.5 0
11192.5 0
11193.5 0
11194.5 0
11195.5 0
11196.5 0
11197.5 0
11198.5 0
11199.5 0
11200.5 0
11201.5 0
11202.5 0
11203.5 0
11204.5 0
11205.5 0
11206.5 0
11207.5 0
11208.5 0
11209.5 0
11210.5 0
11211.5 0
11212.5 0
11213.5 0
11214.5 0
11215.5 0
11216.5 0
11217.5 0
11218.5 0
11219.5 0
11220.5 0
11221.5 0
11222.5 0
11223.5 0
11224.5 0
11225.5 0
11226.5 0
11227.5 0
11228.5 0
11229.5 0
11230.5 0
11231.5 0
11232.5 0
11233.5 0
11234.5 0
11235.5 0
11236.5 0
11237.5 0
11238.5 0
11239.5 0
11240.5 0
11241.5 0
11242.5 0
11243.5 0
11244.5 0
11245.5 0
11246.5 1
11247.5 0
11248.5 0
11249.5 0
11250.5 0
11251.5 0
11252.5 0
11253.5 0
11254.5 0
11255.5 0
11256.5 0
11257.5 0
11258.5 0
11259.5 0
11260.5 0
11261.5 0
11262.5 0
11263.5 0
11264.5 0
11265.5 0
11266.5 0
11267.5 0
11268.5 0
11269.5 0
11270.5 0
11271.5 0
11272.5 0
11273.5 0
11274.5 0
11275.5 0
11276.5 0
11277.5 0
11278.5 0
11279.5 0
11280.5 0
11281.5 0
11282.5 0
11283.5 0
11284.5 0
11285.5 0
11286.5 0
11287.5 0
11288.5 0
11289.5 0
11290.5 0
11291.5 0
11292.5 0
11293.5 0
11294.5 0
11295.5 0
11296.5 0
11297.5 0
11298.5 0
11299.5 0
11300.5 0
11301.5 0
11302.5 0
11303.5 0
11304.5 0
11305.5 0
11306.5 0
11307.5 0
11308.5 0
11309.5 0
11310.5 0
11311.5 0
11312.5 0
11313.5 0
11314.5 0
11315.5 0
11316.5 0
11317.5 0
11318.5 0
11319.5 0
11320.5 0
11321.5 0
11322.5 0
11323.5 0
11324.5 0
11325.5 0
11326.5 0
11327.5 0
11328.5 0
11329.5 0
11330.5 0
11331.5 0
11332.5 0
11333.5 0
11334.5 0
11335.5 0
11336.5 0
11337.5 0
11338.5 0
11339.5 0
11340.5 0
11341.5 0
11342.5 0
11343.5 0
11344.5 0
11345.5 0
11346.5 0
11347.5 0
11348.5 0
11349.5 0
11350.5 0
11351.5 0
11352.5 0
11353.5 0
11354.5 0
11355.5 0
11356.5 0
11357.5 0
11358.5 0
11359.5 0
11360.5 0
11361.5 0
11362.5 0
11363.5 0
11364.5 0
11365.5 0
11366.5 0
11367.5 0
11368.5 0
11369.5 0
11370.5 0
11371.5 0
11372.5 0
11373.5 0
11374.5 0
11375.5 0
11376.5 0
11377.5 0
11378.5 0
11379.5 0
11380.5 0
11381.5 0
11382.5 0
11383.5 0
11384.5 0
11385.5 0
11386.5 0
11387.5 0
11388.5 0
11389.5 0
11390.5 0
11391.5 0
11392.5 0
11393.5 0
11394.5 0
11395.5 0
11396.5 0
11397.5 0
11398.5 0
11399.5 0
11400.5 0
11401.5 0
11402.5 0
11403.5 0
11404.5 0
11405.5 0
11406.5 0
11407.5 0
11408.5 0
11409.5 0
11410.5 0
11411.5 0
11412.5 0
11413.5 0
11414.5 0
11415.5 0
11416.5 0
11417.5 0
11418.5 0
11419.5 0
11420.5 0
11421.5 0
11422.5 0
11423.5 0
11424.5 0
11425.5 0
11426.5 0
11427.5 0
11428.5 0
11429.5 0
11430.5 0
11431.5 0
11432.5 0
11433.5 0
11434.5 0
11435.5 0
11436.5 0
11437.5 0
11438.5 0
11439.5 0
11440.5 0
11441.5 0
11442.5 0
11443.5 1
11444.5 0
11445.5 0
11446.5 0
11447.5 0
11448.5 0
11449.5 0
11450.5 0
11451.5 0
11452.5 0
11453.5 0
11454.5 0
11455.5 0
11456.5 0
11457.5 0
11458.5 0
11459.5 0
11460.5 0
11461.5 0
11462.5 0
11463.5 0
11464.5 0
11465.5 0
11466.5 0
11467.5 0
11468.5 0
11469.5 0
11470.5 0
11471.5 0
11472.5 0
11473.5 0
11474.5 0
11475.5 0
11476.5 0
11477.5 0
11478.5 0
11479.5 0
11480.5 0
11481.5 0
11482.5 0
11483.5 0
11484.5 0
11485.5 0
11486.5 0
11487.5 0
11488.5 0
11489.5 0
11490.5 0
11491.5 0
11492.5 0
11493.5 0
11494.5 0
11495.5 0
11496.5 0
11497.5 0
11498.5 0
11499.5 0
11500.5 0
11501.5 0
11502.5 0
11503.5 0
11504.5 0
11505.5 0
11506.5 0
11507.5 0
11508.5 0
11509.5 0
11510.5 0
11511.5 0
11512.5 0
11513.5 0
11514.5 0
11515.5 0
11516.5 0
11517.5 1
11518.5 0
11519.5 0
11520.5 0
11521.5 0
11522.5 0
11523.5 0
11524.5 0
11525.5 0
11526.5 0
11527.5 0
11528.5 0
11529.5 0
11530.5 0
11531.5 0
11532.5 0
11533.5 0
11534.5 0
11535.5 0
11536.5 0
11537.5 0
11538.5 0
11539.5 0
11540.5 0
11541.5 1
11542.5 0
11543.5 0
11544.5 0
11545.5 0
11546.5 0
11547.5 0
11548.5 0
11549.5 0
11550.5 0
11551.5 0
11552.5 0
11553.5 0
11554.5 0
11555.5 0
11556.5 0
11557.5 0
11558.5 0
11559.5 0
11560.5 0
11561.5 0
11562.5 0
11563.5 0
11564.5 0
11565.5 0
11566.5 0
11567.5 0
11568.5 0
11569.5 0
11570.5 0
11571.5 0
11572.5 0
11573.5 0
11574.5 0
11575.5 0
11576.5 0
11577.5 0
11578.5 0
11579.5 0
11580.5 0
11581.5 0
11582.5 0
11583.5 0
11584.5 0
11585.5 0
11586.5 0
11587.5 0
11588.5 0
11589.5 0
11590.5 0
11591.5 0
11592.5 0
11593.5 0
11594.5 0
11595.5 0
11596.5 0
11597.5 0
11598.5 0
11599.5 0
11600.5 0
11601.5 0
11602.5 0
11603.5 0
11604.5 0
11605.5 0
11606.5 0
11607.5 0
11608.5 0
11609.5 0
11610.5 0
11611.5 0
11612.5 0
11613.5 0
11614.5 0
11615.5 0
11616.5 0
11617.5 0
11618.5 0
11619.5 0
11620.5 0
11621.5 0
11622.5 0
11623.5 0
11624.5 0
11625.5 0
11626.5 0
11627.5 0
11628.5 0
11629.5 0
11630.5 0
11631.5 0
11632.5 0
11633.5 0
11634.5 0
11635.5 0
11636.5 0
11637.5 0
11638.5 0
11639.5 0
11640.5 0
11641.5 0
11642.5 0
11643.5 0
11644.5 0
11645.5 0
11646.5 0
11647.5 0
11648.5 0
11649.5 0
11650.5 0
11651.5 0
11652.5 0
11653.5 0
11654.5 0
11655.5 0
11656.5 0
11657.5 0
11658.5 0
11659.5 0
11660.5 0
11661.5 0
11662.5 0
11663.5 0
11664.5 0
11665.5 0
11666.5 0
11667.5 0
11668.5 0
11669.5 1
11670.5 0
11671.5 0
11672.5 0
11673.5 0
11674.5 0
11675.5 0
11676.5 0
11677.5 0
11678.5 0
11679.5 0
11680.5 0
11681.5 0
11682.5 0
11683.5 0
11684.5 0
11685.5 0
11686.5 0
11687.5 0
11688.5 0
11689.5 0
11690.5 0
11691.5 0
11692.5 0
11693.5 0
11694.5 0
11695.5 0
11696.5 0
11697.5 0
11698.5 0
11699.5 0
11700.5 0
11701.5 0
11702.5 0
11703.5 0
11704.5 0
11705.5 0
11706.5 0
11707.5 0
11708.5 0
11709.5 0
11710.5 0
11711.5 0
11712.5 0
11713.5 0
11714.5 0
11715.5 0
11716.5 0
11717.5 0
11718.5 0
11719.5 0
11720.5 0
11721.5 0
11722.5 0
11723.5 0
11724.5 0
11725.5 0
11726.5 0
11727.5 0
11728.5 0
11729.5 0
11730.5 0
11731.5 0
11732.5 0
11733.5 -1.71429
11734.5 0
11735.5 0
11736.5 0
11737.5 0
11738.5 0
11739.5 0
11740.5 0
11741.5 0
11742.5 0
11743.5 0
11744.5 0
11745.5 0
11746.5 0
11747.5 0
11748.5 0
11749.5 0
11750.5 0
11751.5 0
11752.5 0
11753.5 0
11754.5 0
11755.5 0
11756.5 0
11757.5 0
11758.5 0
11759.5 0
11760.5 0
11761.5 0
11762.5 0
11763.5 0
11764.5 0
11765.5 0
11766.5 0
11767.5 0
11768.5 0
11769.5 0
11770.5 0
11771.5 0
11772.5 0
11773.5 0
11774.5 1
11775.5 0
11776.5 0
11777.5 0
11778.5 0
11779.5 0
11780.5 0
11781.5 0
11782.5 0
11783.5 0
11784.5 0
11785.5 0
11786.5 0
11787.5 0
11788.5 0
11789.5 0
11790.5 0
11791.5 0
11792.5 0
11793.5 0
11794.5 0
11795.5 0
11796.5 0
11797.5 0
11798.5 0
11799.5 0
11800.5 0
11801.5 0
11802.5 0
11803.5 0
11804.5 0
11805.5 0
11806.5 0
11807.5 0
11808.5 0
11809.5 0
11810.5 0
11811.5 0
11812.5 0
11813.5 0
11814.5 0
11815.5 0
11816.5 0
11817.5 0
11818.5 0
11819.5 0
11820.5 0
11821.5 -1.71429
11822.5 0
11823.5 0
11824.5 0
11825.5 0
11826.5 0
11827.5 0
11828.5 0
11829.5 0
11830.5 0
11831.5 0
11832.5 -1.71429
11833.5 0
11834.5 0
11835.5 0
11836.5 0
11837.5 0
11838.5 0
11839.5 0
11840.5 0
11841.5 0
11842.5 0
11843.5 0
11844.5 0
11845.5 0
11846.5 0
11847.5 0
11848.5 0
11849.5 0
11850.5 0
11851.5 0
11852.5 0
11853.5 0
11854.5 0
11855.5 0
11856.5 0
11857.5 0
11858.5 0
11859.5 0
11860.5 0
11861.5 0
11862.5 0
11863.5 0
11864.5 0
11865.5 0
11866.5 0
11867.5 0
11868.5 0
11869.5 0
11870.5 0
11871.5 0
11872.5 0
11873.5 0
11874.5 0
11875.5 0
11876.5 0
11877.5 0
11878.5 0
11879.5 0
11880.5 0
11881.5 0
11882.5 0
11883.5 0
11884.5 0
11885.5 0
11886.5 0
11887.5 0
11888.5 0
11889.5 0
11890.5 0
11891.5 0
11892.5 0
11893.5 0
11894.5 0
11895.5 0
11896.5 0
11897.5 0
11898.5 0
11899.5 0
11900.5 0
11901.5 0
11902.5 0
11903.5 0
11904.5 0
11905.5 0
11906.5 0
11907.5 0
11908.5 0
11909.5 0
11910.5 0
11911.5 0
11912.5 0
11913.5 0
11914.5 0
11915.5 0
11916.5 0
11917.5 0
11918.5 0
11919.5 0
11920.5 0
11921.5 0
11922.5 0
11923.5 0
11924.5 0
11925.5 0
11926.5 0
11927.5 0
11928.5 0
11929.5 0
11930.5 0
11931.5 0
11932.5 0
11933.5 0
11934.5 0
11935.5 0
11936.5 0
11937.5 0
11938.5 0
11939.5 0
11940.5 0
11941.5 0
11942.5 0
11943.5 0
11944.5 0
11945.5 0
11946.5 0
11947.5 0
11948.5 0
11949.5 0
11950.5 0
11951.5 0
11952.5 0
11953.5 0
11954.5 0
11955.5 0
11956.5 0
11957.5 0
11958.5 0
11959.5 0
11960.5 0
11961.5 0
11962.5 0
11963.5 0
11964.5 0
11965.5 0
11966.5 0
11967.5 0
11968.5 0
11969.5 0
11970.5 0
11971.5 0
11972.5 0
11973.5 0
11974.5 0
11975.5 0
11976.5 0
11977.5 0
11978.5 0
11979.5 0
11980.5 0
11981.5 0
11982.5 0
11983.5 0
11984.5 0
11985.5 0
11986.5 0
11987.5 0
11988.5 0
11989.5 0
11990.5 0
11991.5 0
11992.5 0
11993.5 0
11994.5 0
11995.5 0
11996.5 0
11997.5 0
11998.5 0
11999.5 0
