# EGG_ProjY_E5161.5(8.5)_B5149.5(3.5)
# X axis : Energy (keV) [Y axis]
# Y axis : Counts/1 keV
# N Bins : 12000
# X Min : 0
# X Max : 12000
# X value at the center of the bins
0.5 0
1.5 0
2.5 0
3.5 0
4.5 0
5.5 18.4286
6.5 69.4286
7.5 24.1429
8.5 -24.1429
9.5 17.8571
10.5 70.2857
11.5 46.4286
12.5 68.4286
13.5 26
14.5 54.8571
15.5 20.8571
16.5 9.85713
17.5 82
18.5 37.2857
19.5 99.1428
20.5 56.2857
21.5 165.571
22.5 202.143
23.5 133
24.5 83.1428
25.5 95.7143
26.5 246.714
27.5 165
28.5 124.286
29.5 300.429
30.5 360
31.5 403.857
32.5 293.286
33.5 338.714
34.5 421.143
35.5 364.143
36.5 354.571
37.5 158.429
38.5 403.714
39.5 507.857
40.5 307.857
41.5 345.143
42.5 438.429
43.5 532
44.5 295.286
45.5 320.429
46.5 382.857
47.5 257.143
48.5 534.714
49.5 361.429
50.5 145.571
51.5 375.571
52.5 425.857
53.5 451.429
54.5 329.286
55.5 391.571
56.5 630.857
57.5 523
58.5 918.714
59.5 717.714
60.5 672.571
61.5 534.857
62.5 493
63.5 550.286
64.5 539
65.5 658.143
66.5 630.143
67.5 621.286
68.5 654.571
69.5 728.714
70.5 606.286
71.5 439.286
72.5 536.571
73.5 675.286
74.5 873.714
75.5 797.571
76.5 1222.71
77.5 1389
78.5 697.857
79.5 530.286
80.5 498.143
81.5 508.143
82.5 500.714
83.5 689.714
84.5 570.714
85.5 384.286
86.5 579.286
87.5 705.143
88.5 564.714
89.5 618.857
90.5 579.714
91.5 791.429
92.5 405.857
93.5 397.429
94.5 283.714
95.5 495.286
96.5 551.286
97.5 472.571
98.5 399.857
99.5 761.571
100.5 478.857
101.5 790.571
102.5 648.286
103.5 771.571
104.5 702.857
105.5 670.143
106.5 900.286
107.5 795
108.5 851.143
109.5 575.857
110.5 669.857
111.5 660.714
112.5 585.143
113.5 454.571
114.5 919.286
115.5 635.857
116.5 807.857
117.5 599.143
118.5 663
119.5 781.714
120.5 442
121.5 689.143
122.5 665
123.5 538
124.5 592.571
125.5 500.286
126.5 454.857
127.5 697.143
128.5 538.571
129.5 714.429
130.5 618
131.5 628.286
132.5 624.143
133.5 663.143
134.5 647.714
135.5 708.857
136.5 741.857
137.5 646.429
138.5 730.286
139.5 459.429
140.5 836.143
141.5 973.143
142.5 671.286
143.5 533.286
144.5 773.714
145.5 830.143
146.5 912.857
147.5 980.571
148.5 843.571
149.5 654.286
150.5 867
151.5 1060.43
152.5 997
153.5 925.714
154.5 939.714
155.5 1048.71
156.5 1114.57
157.5 1133.43
158.5 1088.29
159.5 1153.71
160.5 1241.14
161.5 1224.86
162.5 1124.71
163.5 1043.86
164.5 1118.14
165.5 1052
166.5 900.857
167.5 657.571
168.5 855.571
169.5 967
170.5 1125.29
171.5 1408.86
172.5 3459
173.5 12813.7
174.5 24504.1
175.5 10529.3
176.5 1770.29
177.5 440.714
178.5 174.286
179.5 226.286
180.5 279.286
181.5 198.286
182.5 334
183.5 888.857
184.5 814
185.5 1084
186.5 981
187.5 1054.14
188.5 781.286
189.5 999.714
190.5 896.429
191.5 976.714
192.5 992.143
193.5 755.143
194.5 880.429
195.5 686.286
196.5 580.286
197.5 717.143
198.5 738.286
199.5 211.857
200.5 88.9999
201.5 24.7142
202.5 -248.143
203.5 -561.714
204.5 -720.714
205.5 -413.429
206.5 -336.714
207.5 -11.0001
208.5 129.714
209.5 618
210.5 386.429
211.5 454.429
212.5 632.286
213.5 547.857
214.5 748.714
215.5 883
216.5 1125.43
217.5 1350.14
218.5 1221.71
219.5 1230
220.5 1440.14
221.5 1600.14
222.5 1821.43
223.5 1770.86
224.5 1807.57
225.5 1800.43
226.5 2011
227.5 2158
228.5 2000.43
229.5 2247.71
230.5 1910.29
231.5 1893.57
232.5 1190.57
233.5 972.286
234.5 619
235.5 38.9999
236.5 -190.429
237.5 -443.143
238.5 -609.714
239.5 -633.429
240.5 -358
241.5 -612.572
242.5 -719.143
243.5 -894.714
244.5 -1012.71
245.5 -1236.86
246.5 -1426.57
247.5 -1452.86
248.5 -1084
249.5 -961.286
250.5 -341
251.5 -110.143
252.5 130.143
253.5 252.571
254.5 369.429
255.5 406.714
256.5 584.857
257.5 445.571
258.5 540.857
259.5 478.857
260.5 415.143
261.5 566
262.5 348.143
263.5 307.571
264.5 479.571
265.5 445.857
266.5 400.143
267.5 491.286
268.5 432.143
269.5 489
270.5 437.571
271.5 432.571
272.5 320.429
273.5 425.286
274.5 427
275.5 686
276.5 438
277.5 424.571
278.5 530.571
279.5 439.714
280.5 601.714
281.5 551.143
282.5 535.143
283.5 721.286
284.5 525.429
285.5 500.714
286.5 444.286
287.5 526.143
288.5 387.571
289.5 538.714
290.5 525.286
291.5 257.857
292.5 336
293.5 278.143
294.5 417.857
295.5 420.286
296.5 413
297.5 482.857
298.5 595
299.5 458
300.5 586.571
301.5 454.714
302.5 448.571
303.5 780
304.5 464
305.5 404.571
306.5 624.571
307.5 466.571
308.5 444.429
309.5 497.286
310.5 589.714
311.5 601
312.5 508
313.5 489.286
314.5 525.857
315.5 713.286
316.5 590.143
317.5 587.571
318.5 529.286
319.5 617.286
320.5 752
321.5 568.857
322.5 722.857
323.5 649.714
324.5 755.571
325.5 701.857
326.5 806.571
327.5 734.286
328.5 631.857
329.5 1010.14
330.5 548
331.5 702.857
332.5 510.571
333.5 185.143
334.5 221.714
335.5 -87.5715
336.5 -37.7143
337.5 -123.286
338.5 -161.714
339.5 92.8571
340.5 68.8571
341.5 179.857
342.5 151.429
343.5 356
344.5 752.857
345.5 689.714
346.5 671.286
347.5 1201.29
348.5 3693.86
349.5 5641.57
350.5 3014.57
351.5 916.571
352.5 741.571
353.5 608.429
354.5 670.857
355.5 547.857
356.5 629.429
357.5 614.143
358.5 420.429
359.5 429.714
360.5 137.857
361.5 166.857
362.5 117.429
363.5 -55.4286
364.5 -47.2858
365.5 -123.571
366.5 -43.1429
367.5 21.1428
368.5 93.8571
369.5 231
370.5 223.714
371.5 151.143
372.5 183.857
373.5 357.429
374.5 448.857
375.5 305.857
376.5 288.143
377.5 273.714
378.5 381.714
379.5 344.571
380.5 289.571
381.5 332.714
382.5 281.714
383.5 221.857
384.5 122.429
385.5 66.7143
386.5 74.2857
387.5 178.857
388.5 33
389.5 78.2857
390.5 177.429
391.5 207.429
392.5 249.286
393.5 47.4285
394.5 198
395.5 188.429
396.5 249.571
397.5 264.429
398.5 297.571
399.5 226.429
400.5 404.429
401.5 326.714
402.5 398.571
403.5 467.857
404.5 266.571
405.5 338.714
406.5 166.714
407.5 104.714
408.5 108.571
409.5 330
410.5 288.857
411.5 491.429
412.5 498.286
413.5 409.714
414.5 483.714
415.5 360
416.5 555.286
417.5 303.571
418.5 517
419.5 381.429
420.5 540.571
421.5 569.143
422.5 330.429
423.5 489.714
424.5 365.571
425.5 205.429
426.5 356.429
427.5 201.857
428.5 136.286
429.5 132.857
430.5 127.429
431.5 160.429
432.5 120.286
433.5 45.1428
434.5 311
435.5 160.714
436.5 354.714
437.5 238.857
438.5 236.143
439.5 198.714
440.5 252.429
441.5 369.571
442.5 478.857
443.5 276.571
444.5 324.571
445.5 442.857
446.5 344.143
447.5 215
448.5 372.714
449.5 341.429
450.5 401.571
451.5 226
452.5 301.429
453.5 309.143
454.5 379.571
455.5 338
456.5 316.429
457.5 177.143
458.5 107.429
459.5 61.2857
460.5 92.4285
461.5 -64.1429
462.5 -33.5715
463.5 -55.4286
464.5 252.286
465.5 400.286
466.5 165.143
467.5 150.571
468.5 266.143
469.5 201.143
470.5 133.429
471.5 277
472.5 415.429
473.5 226.286
474.5 229.429
475.5 175.429
476.5 364
477.5 277.571
478.5 224
479.5 373.429
480.5 267
481.5 396.857
482.5 182.714
483.5 36.1428
484.5 312.857
485.5 270
486.5 213.286
487.5 100.857
488.5 186.143
489.5 246.286
490.5 374.571
491.5 215
492.5 225.857
493.5 260.857
494.5 190.429
495.5 308.571
496.5 201.286
497.5 231.571
498.5 398.857
499.5 451.286
500.5 316.143
501.5 247.571
502.5 335.714
503.5 282.857
504.5 351.714
505.5 525.286
506.5 744.143
507.5 1512.14
508.5 1463.14
509.5 2319.57
510.5 3321.14
511.5 3159.29
512.5 1894.43
513.5 867.286
514.5 385.429
515.5 365.143
516.5 251.143
517.5 234.429
518.5 107
519.5 138.143
520.5 147.286
521.5 272.857
522.5 216.571
523.5 264.714
524.5 102.857
525.5 156.429
526.5 142.571
527.5 199.571
528.5 172.714
529.5 223.143
530.5 238.429
531.5 312.143
532.5 220.857
533.5 138
534.5 235.286
535.5 332.143
536.5 187.857
537.5 177.857
538.5 120.714
539.5 211
540.5 217.857
541.5 250.143
542.5 152.143
543.5 219
544.5 229.857
545.5 194
546.5 234.429
547.5 144.143
548.5 217.571
549.5 266.714
550.5 306
551.5 212.714
552.5 252.571
553.5 191.571
554.5 319.143
555.5 471.429
556.5 402.571
557.5 330.857
558.5 206.857
559.5 149.857
560.5 203.571
561.5 129.286
562.5 242.571
563.5 201.286
564.5 92.4286
565.5 172.143
566.5 83.8571
567.5 224.286
568.5 178.286
569.5 150.857
570.5 79.7143
571.5 237
572.5 297.429
573.5 289.857
574.5 148.571
575.5 243.143
576.5 177.429
577.5 286.429
578.5 255
579.5 346
580.5 117.143
581.5 279.714
582.5 407.857
583.5 331.143
584.5 157
585.5 92.4286
586.5 303
587.5 211.571
588.5 196.571
589.5 238.143
590.5 193
591.5 169.571
592.5 348.714
593.5 253.857
594.5 224.143
595.5 298.429
596.5 312.857
597.5 336.429
598.5 306.286
599.5 150.286
600.5 233.286
601.5 -1.57145
602.5 194
603.5 148
604.5 96.5714
605.5 178.571
606.5 55.4286
607.5 87.5714
608.5 165.857
609.5 163.571
610.5 150.857
611.5 263.714
612.5 217.143
613.5 254.143
614.5 214.857
615.5 208.143
616.5 254.571
617.5 110.286
618.5 180.429
619.5 188
620.5 180.143
621.5 251.857
622.5 147.857
623.5 158.429
624.5 185.857
625.5 259.143
626.5 208
627.5 227.857
628.5 280.429
629.5 238.143
630.5 131.429
631.5 220
632.5 220.571
633.5 222.286
634.5 191
635.5 37.1428
636.5 207
637.5 194.429
638.5 128
639.5 240.143
640.5 138.429
641.5 120.857
642.5 119.857
643.5 98.8571
644.5 214.714
645.5 259.143
646.5 194.571
647.5 205.571
648.5 128.857
649.5 274
650.5 229
651.5 335.857
652.5 329.714
653.5 179
654.5 298.143
655.5 237.143
656.5 89.7143
657.5 204.714
658.5 225.286
659.5 235.714
660.5 206.714
661.5 113.286
662.5 193.571
663.5 373.714
664.5 253.286
665.5 197.571
666.5 218.143
667.5 220.429
668.5 208.429
669.5 186.571
670.5 195.857
671.5 195.429
672.5 247
673.5 271.857
674.5 170.429
675.5 180.857
676.5 132.286
677.5 186.286
678.5 162.286
679.5 76.1428
680.5 80.7143
681.5 240
682.5 251.286
683.5 214.571
684.5 103.571
685.5 182.714
686.5 131.429
687.5 -20.4286
688.5 155.571
689.5 40.5714
690.5 127.857
691.5 139.286
692.5 87.2857
693.5 7.14284
694.5 236
695.5 91.1428
696.5 70.5714
697.5 132.286
698.5 66.5714
699.5 208.286
700.5 107.714
701.5 210.286
702.5 223.714
703.5 237
704.5 136.571
705.5 98.7143
706.5 104.714
707.5 133.714
708.5 160.571
709.5 88.1428
710.5 182.571
711.5 245.286
712.5 181.286
713.5 224
714.5 205.143
715.5 263.857
716.5 184.286
717.5 163
718.5 142
719.5 202.429
720.5 228.714
721.5 98.1428
722.5 144.857
723.5 107.429
724.5 244
725.5 204.286
726.5 253
727.5 273
728.5 245.571
729.5 272.143
730.5 255.571
731.5 394.143
732.5 415.429
733.5 437.286
734.5 330.429
735.5 370.429
736.5 344.286
737.5 377.714
738.5 415.571
739.5 262.714
740.5 408.143
741.5 344.429
742.5 337.143
743.5 162.143
744.5 129.429
745.5 -51.4286
746.5 -139.857
747.5 -167.714
748.5 -114.429
749.5 -201.429
750.5 -186.714
751.5 -127.143
752.5 -32.8572
753.5 -26.8572
754.5 68.5714
755.5 125.429
756.5 36.5714
757.5 164.714
758.5 203.571
759.5 374.857
760.5 470.286
761.5 382.429
762.5 157.429
763.5 254.571
764.5 141.143
765.5 105.714
766.5 198.429
767.5 168.571
768.5 198.429
769.5 77.4286
770.5 181.857
771.5 81
772.5 152.714
773.5 102.429
774.5 296.429
775.5 141
776.5 185.714
777.5 183.571
778.5 199.429
779.5 233.286
780.5 141.714
781.5 137.286
782.5 28.5714
783.5 131.286
784.5 162.857
785.5 257.286
786.5 317.571
787.5 75.7143
788.5 167.571
789.5 176.857
790.5 276.571
791.5 161.857
792.5 204.143
793.5 195.143
794.5 269.429
795.5 76
796.5 245.571
797.5 263.714
798.5 132
799.5 165.571
800.5 244.143
801.5 99.1428
802.5 105.429
803.5 156.143
804.5 101.714
805.5 69.5714
806.5 -7.57146
807.5 -29
808.5 205.857
809.5 163.857
810.5 168.571
811.5 312.857
812.5 987.286
813.5 2484.43
814.5 3199.43
815.5 1729.43
816.5 515.429
817.5 226.143
818.5 140.286
819.5 246.143
820.5 103.143
821.5 148.143
822.5 260.429
823.5 201.571
824.5 162.429
825.5 282.571
826.5 198
827.5 179.429
828.5 235
829.5 258.286
830.5 246.143
831.5 201
832.5 241.286
833.5 283.286
834.5 299.143
835.5 192
836.5 146.571
837.5 185.143
838.5 195.429
839.5 263.714
840.5 218.857
841.5 199
842.5 195.286
843.5 289.143
844.5 138.143
845.5 71.5714
846.5 87.5714
847.5 95.2857
848.5 73.7143
849.5 65.2857
850.5 97.1428
851.5 164.857
852.5 170.714
853.5 217.571
854.5 268.143
855.5 230.714
856.5 208.429
857.5 245.571
858.5 207.286
859.5 190.714
860.5 255.429
861.5 142.857
862.5 213.714
863.5 237
864.5 173.571
865.5 213.714
866.5 109.286
867.5 159.286
868.5 214.286
869.5 156.143
870.5 323
871.5 327
872.5 211.714
873.5 330.286
874.5 252.286
875.5 181.714
876.5 223.143
877.5 260.571
878.5 219.286
879.5 386.429
880.5 191
881.5 256.429
882.5 55.8571
883.5 236
884.5 228
885.5 199
886.5 154.571
887.5 244.714
888.5 159.429
889.5 229.429
890.5 306.857
891.5 112.143
892.5 75.1428
893.5 269.714
894.5 221.143
895.5 199.143
896.5 257.143
897.5 257.571
898.5 194.571
899.5 168.143
900.5 181
901.5 174
902.5 250.714
903.5 241.857
904.5 150
905.5 263.286
906.5 244.143
907.5 203.286
908.5 185.286
909.5 207.571
910.5 212.571
911.5 335.143
912.5 213.857
913.5 247.286
914.5 277.143
915.5 251.286
916.5 247
917.5 177.286
918.5 124
919.5 116.571
920.5 184.857
921.5 235.429
922.5 263
923.5 221.286
924.5 309.571
925.5 236.286
926.5 336.857
927.5 261.143
928.5 287.286
929.5 319.286
930.5 242.571
931.5 194.714
932.5 172.857
933.5 197.286
934.5 261.286
935.5 239.143
936.5 330.143
937.5 134
938.5 305.571
939.5 370.571
940.5 276.286
941.5 180
942.5 178.143
943.5 277.286
944.5 311.286
945.5 217.571
946.5 286.857
947.5 259.286
948.5 232.857
949.5 288.857
950.5 290.714
951.5 246.571
952.5 213.857
953.5 137.714
954.5 219
955.5 184
956.5 200.714
957.5 206.286
958.5 187
959.5 207.429
960.5 259.857
961.5 186
962.5 172.857
963.5 103.286
964.5 123.714
965.5 331.429
966.5 313.429
967.5 198
968.5 146.571
969.5 110
970.5 192.571
971.5 145.714
972.5 162.571
973.5 49.4286
974.5 165
975.5 138.429
976.5 149.143
977.5 165.429
978.5 190.429
979.5 221
980.5 184.143
981.5 193.286
982.5 254
983.5 123.571
984.5 128.571
985.5 120
986.5 173.714
987.5 166.286
988.5 101.429
989.5 136.143
990.5 111.143
991.5 157.429
992.5 191.429
993.5 146.571
994.5 141.857
995.5 144.571
996.5 159.429
997.5 146.714
998.5 192.571
999.5 179.429
1000.5 -7.00003
1001.5 -79.2858
1002.5 7.99996
1003.5 69.8571
1004.5 196.143
1005.5 182.429
1006.5 153.571
1007.5 83.1428
1008.5 161.286
1009.5 54.7143
1010.5 103.714
1011.5 147.857
1012.5 119.714
1013.5 76.1428
1014.5 171.286
1015.5 135.429
1016.5 221
1017.5 123
1018.5 197.714
1019.5 158.286
1020.5 110.571
1021.5 130.571
1022.5 221.571
1023.5 276.429
1024.5 394.571
1025.5 405.571
1026.5 313.571
1027.5 241.714
1028.5 247
1029.5 199.571
1030.5 199.571
1031.5 67.8571
1032.5 151.286
1033.5 189
1034.5 151.571
1035.5 177.571
1036.5 158.286
1037.5 93.1428
1038.5 193.143
1039.5 123.286
1040.5 182.714
1041.5 187.857
1042.5 72.2857
1043.5 248.571
1044.5 91.7143
1045.5 65.5714
1046.5 95.8571
1047.5 124.286
1048.5 78.8571
1049.5 132.143
1050.5 282.143
1051.5 270.429
1052.5 128.714
1053.5 112.143
1054.5 109.571
1055.5 89.2857
1056.5 116.286
1057.5 230.857
1058.5 103.286
1059.5 106.143
1060.5 117.571
1061.5 159.857
1062.5 133.286
1063.5 142.714
1064.5 146.714
1065.5 118
1066.5 157.143
1067.5 117.429
1068.5 113.286
1069.5 131.857
1070.5 157.143
1071.5 156.714
1072.5 584.143
1073.5 1269
1074.5 2014.43
1075.5 1091.71
1076.5 296.571
1077.5 162.429
1078.5 145.857
1079.5 150
1080.5 77
1081.5 104.429
1082.5 182
1083.5 117.143
1084.5 50.8571
1085.5 72.5714
1086.5 102.714
1087.5 58.1429
1088.5 137
1089.5 63.1429
1090.5 73
1091.5 203
1092.5 185.857
1093.5 88.8571
1094.5 41.2857
1095.5 107.857
1096.5 -11.1429
1097.5 120.571
1098.5 79.7143
1099.5 132.143
1100.5 67.4286
1101.5 134.286
1102.5 126.714
1103.5 124
1104.5 -21.7143
1105.5 74.5714
1106.5 132.714
1107.5 56.5714
1108.5 115.286
1109.5 160.143
1110.5 69.2857
1111.5 109.143
1112.5 120
1113.5 66.8571
1114.5 84.5714
1115.5 96.4286
1116.5 162.286
1117.5 69
1118.5 112.429
1119.5 157.143
1120.5 148.143
1121.5 169.429
1122.5 268.714
1123.5 558.429
1124.5 1269.43
1125.5 2992.29
1126.5 3411.43
1127.5 1594.14
1128.5 386.429
1129.5 153.857
1130.5 163.429
1131.5 78.7143
1132.5 91.4286
1133.5 116.714
1134.5 91.7143
1135.5 102.714
1136.5 61
1137.5 116
1138.5 31.7143
1139.5 63.4286
1140.5 115.286
1141.5 44.5714
1142.5 154.286
1143.5 83.2857
1144.5 21.8571
1145.5 97.8571
1146.5 137.143
1147.5 106.571
1148.5 104
1149.5 61.7143
1150.5 148.429
1151.5 65.2857
1152.5 201.429
1153.5 421.714
1154.5 1240.43
1155.5 4915.57
1156.5 10404.3
1157.5 10500.6
1158.5 4447.14
1159.5 960.286
1160.5 199.143
1161.5 113.714
1162.5 40.8571
1163.5 100.571
1164.5 114.429
1165.5 97
1166.5 82.1429
1167.5 -6.28572
1168.5 -16.4286
1169.5 93.5714
1170.5 51.4286
1171.5 24.5714
1172.5 73.8571
1173.5 68.1429
1174.5 45.4286
1175.5 16
1176.5 74.7143
1177.5 69.5714
1178.5 60.8571
1179.5 24.1429
1180.5 27.2857
1181.5 77
1182.5 92.8571
1183.5 -21
1184.5 99.5714
1185.5 113.571
1186.5 122.571
1187.5 81.7143
1188.5 27.8571
1189.5 42.1429
1190.5 68.5714
1191.5 112
1192.5 99.1429
1193.5 66.5714
1194.5 60.1429
1195.5 28.1429
1196.5 69.8571
1197.5 5.85714
1198.5 75.5714
1199.5 54.1429
1200.5 3.57142
1201.5 24.8571
1202.5 28.7143
1203.5 48.8571
1204.5 70
1205.5 78
1206.5 56.1429
1207.5 44.4286
1208.5 73
1209.5 43.4286
1210.5 67.4286
1211.5 89.5714
1212.5 47.5714
1213.5 136.429
1214.5 120.143
1215.5 29.7143
1216.5 32.5714
1217.5 64.4286
1218.5 76.1429
1219.5 57.8571
1220.5 36.1429
1221.5 62.8571
1222.5 136
1223.5 25.2857
1224.5 27.2857
1225.5 51
1226.5 17.2857
1227.5 55.7143
1228.5 110.714
1229.5 38.2857
1230.5 119.429
1231.5 38.7143
1232.5 79.4286
1233.5 21.4286
1234.5 107.571
1235.5 13.2857
1236.5 47.4286
1237.5 52.8571
1238.5 39.2857
1239.5 82.4286
1240.5 62
1241.5 61.7143
1242.5 51.2857
1243.5 67.8571
1244.5 -0.71429
1245.5 14.7143
1246.5 26
1247.5 26.4286
1248.5 53
1249.5 80.5714
1250.5 80.2857
1251.5 51.8571
1252.5 58.7143
1253.5 49.1429
1254.5 66.2857
1255.5 152.571
1256.5 40.1429
1257.5 187.857
1258.5 445.143
1259.5 1067.71
1260.5 1528
1261.5 1180.14
1262.5 409.429
1263.5 157.429
1264.5 77.7143
1265.5 105.429
1266.5 37.1429
1267.5 64.5714
1268.5 34.7143
1269.5 13.2857
1270.5 29.5714
1271.5 28.2857
1272.5 71.5714
1273.5 39
1274.5 76
1275.5 86.2857
1276.5 65
1277.5 47.5714
1278.5 25.7143
1279.5 88.4286
1280.5 68.8571
1281.5 26.4286
1282.5 60.4286
1283.5 16.8571
1284.5 70.5714
1285.5 60.4286
1286.5 71.7143
1287.5 56.5714
1288.5 21.4286
1289.5 145.429
1290.5 98
1291.5 60.8571
1292.5 -13.7143
1293.5 80
1294.5 9.71428
1295.5 73.8571
1296.5 33.5714
1297.5 70.5714
1298.5 69.1429
1299.5 85.5714
1300.5 69.7143
1301.5 82.7143
1302.5 4.57142
1303.5 89.5714
1304.5 33.8571
1305.5 59.5714
1306.5 40.7143
1307.5 68
1308.5 45.8571
1309.5 47.4286
1310.5 71.8571
1311.5 55.4286
1312.5 57.7143
1313.5 40
1314.5 42.7143
1315.5 107.857
1316.5 48
1317.5 58.5714
1318.5 36
1319.5 76
1320.5 67.4286
1321.5 35.1429
1322.5 31
1323.5 9
1324.5 46.8571
1325.5 34.1429
1326.5 53.4286
1327.5 -5.85715
1328.5 43.4286
1329.5 22.5714
1330.5 58
1331.5 23
1332.5 -37.2857
1333.5 18.8571
1334.5 63.8571
1335.5 25.7143
1336.5 50.7143
1337.5 42
1338.5 -15.5714
1339.5 70.8571
1340.5 71.2857
1341.5 66.8571
1342.5 56.4286
1343.5 87.2857
1344.5 6.14285
1345.5 49.4286
1346.5 49.4286
1347.5 57.8571
1348.5 0.142853
1349.5 63.1429
1350.5 62
1351.5 58.5714
1352.5 69.4286
1353.5 -42.1429
1354.5 37.1429
1355.5 20.5714
1356.5 60.8571
1357.5 14.1429
1358.5 27.5714
1359.5 68.5714
1360.5 41.2857
1361.5 3.57142
1362.5 38.8571
1363.5 43.5714
1364.5 26.4286
1365.5 77.4286
1366.5 13.2857
1367.5 65.1429
1368.5 48.5714
1369.5 42.7143
1370.5 10
1371.5 52.8571
1372.5 68.2857
1373.5 -19.5714
1374.5 8.71428
1375.5 64.8571
1376.5 65.1429
1377.5 32.4286
1378.5 33.8571
1379.5 41.5714
1380.5 99.5714
1381.5 151.143
1382.5 179.429
1383.5 158.714
1384.5 164.286
1385.5 109.143
1386.5 155.571
1387.5 104.143
1388.5 88
1389.5 88.1429
1390.5 111.714
1391.5 72.5714
1392.5 24.2857
1393.5 37.7143
1394.5 54.4286
1395.5 23.4286
1396.5 68.7143
1397.5 -24.8571
1398.5 82
1399.5 30.7143
1400.5 35.8571
1401.5 36
1402.5 21.7143
1403.5 83.8571
1404.5 93.2857
1405.5 46.4286
1406.5 63.1429
1407.5 41
1408.5 44.8571
1409.5 46.5714
1410.5 33.7143
1411.5 58.5714
1412.5 70.5714
1413.5 65.1429
1414.5 52.1429
1415.5 20.4286
1416.5 61
1417.5 40.5714
1418.5 91.1429
1419.5 34.2857
1420.5 48.8571
1421.5 50
1422.5 38.2857
1423.5 44.7143
1424.5 46.7143
1425.5 62.5714
1426.5 112
1427.5 40
1428.5 56.4286
1429.5 62.1428
1430.5 59.1429
1431.5 42.4286
1432.5 227.143
1433.5 475.857
1434.5 756.429
1435.5 556.429
1436.5 240.571
1437.5 63.4286
1438.5 7.57142
1439.5 59.7143
1440.5 38.4286
1441.5 38.7143
1442.5 41.2857
1443.5 26.1429
1444.5 61.1429
1445.5 68.1429
1446.5 16.8571
1447.5 47.7143
1448.5 31.4286
1449.5 32.8571
1450.5 51.5714
1451.5 48.1429
1452.5 44.4286
1453.5 57.7143
1454.5 30.7143
1455.5 49
1456.5 92.2857
1457.5 35
1458.5 44.7143
1459.5 80.2857
1460.5 68
1461.5 109.429
1462.5 40.8571
1463.5 50.4286
1464.5 31.2857
1465.5 52.2857
1466.5 -5.14286
1467.5 44.8571
1468.5 42.4286
1469.5 14.1429
1470.5 98.2857
1471.5 18
1472.5 86.8571
1473.5 3.14285
1474.5 34
1475.5 43.4286
1476.5 4.42857
1477.5 70
1478.5 26.7143
1479.5 55.1429
1480.5 17.4286
1481.5 28
1482.5 0.571425
1483.5 28.7143
1484.5 32.7143
1485.5 29
1486.5 41.2857
1487.5 75.7143
1488.5 70.1429
1489.5 55
1490.5 82.2857
1491.5 66.8571
1492.5 54.8571
1493.5 90.8571
1494.5 73.7143
1495.5 84.4286
1496.5 109.857
1497.5 275.857
1498.5 551.286
1499.5 835
1500.5 510.571
1501.5 203
1502.5 111.571
1503.5 58.1429
1504.5 28
1505.5 10.2857
1506.5 76.1429
1507.5 54
1508.5 59.2857
1509.5 51.4286
1510.5 94.8571
1511.5 91.5714
1512.5 8.28571
1513.5 21.1429
1514.5 60.1429
1515.5 44.2857
1516.5 88.8571
1517.5 52
1518.5 32.8571
1519.5 47.5714
1520.5 73.7143
1521.5 76.7143
1522.5 33.1429
1523.5 80.7143
1524.5 46.8571
1525.5 29.1429
1526.5 48.1429
1527.5 71.1429
1528.5 42.5714
1529.5 39.1429
1530.5 73.5714
1531.5 81.8571
1532.5 16.2857
1533.5 41.2857
1534.5 -19.7143
1535.5 88.1429
1536.5 55.2857
1537.5 75.1429
1538.5 154.714
1539.5 88.7143
1540.5 54.4286
1541.5 56.5714
1542.5 80
1543.5 82.8571
1544.5 37.4286
1545.5 45.4286
1546.5 69.2857
1547.5 66.5714
1548.5 18.4286
1549.5 84
1550.5 27.5714
1551.5 44.4286
1552.5 21.5714
1553.5 60.5714
1554.5 5.85714
1555.5 43.8571
1556.5 52.1429
1557.5 35.7143
1558.5 58
1559.5 20.8571
1560.5 56.8571
1561.5 50.1429
1562.5 75.4286
1563.5 77.2857
1564.5 69.2857
1565.5 78
1566.5 34.7143
1567.5 63
1568.5 59.5714
1569.5 49.8571
1570.5 75
1571.5 46.5714
1572.5 23.8571
1573.5 31.1429
1574.5 15.8571
1575.5 -17.5714
1576.5 58
1577.5 -6.71429
1578.5 17.8571
1579.5 32.4286
1580.5 26.1429
1581.5 5.28571
1582.5 58.4286
1583.5 17.1429
1584.5 -2.42857
1585.5 -0.14286
1586.5 73.8571
1587.5 78
1588.5 18.4286
1589.5 145.714
1590.5 81.5714
1591.5 14.4286
1592.5 69.7143
1593.5 37.4286
1594.5 68.8571
1595.5 48.7143
1596.5 68.4286
1597.5 49.5714
1598.5 34.4286
1599.5 -7.42857
1600.5 36.7143
1601.5 51.2857
1602.5 27.2857
1603.5 41.4286
1604.5 57
1605.5 50.1429
1606.5 57
1607.5 43
1608.5 36
1609.5 54.5714
1610.5 107.714
1611.5 76.4286
1612.5 46.8571
1613.5 78.8571
1614.5 59.2857
1615.5 53.5714
1616.5 66.1429
1617.5 23.8571
1618.5 53.7143
1619.5 63.5714
1620.5 8.42857
1621.5 -55.7143
1622.5 22.1429
1623.5 31.7143
1624.5 97.7143
1625.5 42.5714
1626.5 34.8571
1627.5 20.2857
1628.5 72.8571
1629.5 58
1630.5 25.8571
1631.5 -5.85715
1632.5 123.286
1633.5 17.4286
1634.5 22
1635.5 90.8571
1636.5 64.7143
1637.5 72.7143
1638.5 57.5714
1639.5 -58.7143
1640.5 -70.8572
1641.5 -23.2857
1642.5 37.5714
1643.5 -8.28572
1644.5 68.4286
1645.5 22
1646.5 1.28571
1647.5 -3.57144
1648.5 151.714
1649.5 59.2857
1650.5 20.1429
1651.5 70.1429
1652.5 20.8571
1653.5 64.1429
1654.5 63.7143
1655.5 32.2857
1656.5 26
1657.5 50.8571
1658.5 40.8571
1659.5 -32.8571
1660.5 40.1429
1661.5 38.1429
1662.5 22.1429
1663.5 28.5714
1664.5 92.8571
1665.5 109.143
1666.5 30.7143
1667.5 56.7143
1668.5 27
1669.5 45.5714
1670.5 33.5714
1671.5 51.7143
1672.5 49.1429
1673.5 43.4286
1674.5 37
1675.5 43
1676.5 32.1429
1677.5 61.5714
1678.5 31.8571
1679.5 61.7143
1680.5 113.857
1681.5 123.857
1682.5 89.8571
1683.5 72.7143
1684.5 45
1685.5 74.8571
1686.5 6.42857
1687.5 57.5714
1688.5 24.4286
1689.5 44.5714
1690.5 29.4286
1691.5 45.5714
1692.5 58.8571
1693.5 70.4286
1694.5 26.5714
1695.5 75.4286
1696.5 54.1429
1697.5 46.2857
1698.5 18.7143
1699.5 73.2857
1700.5 14.1429
1701.5 21.2857
1702.5 51.7143
1703.5 45.4286
1704.5 94.4286
1705.5 42.4286
1706.5 75
1707.5 63.5714
1708.5 27.5714
1709.5 48.4286
1710.5 47.7143
1711.5 30.8571
1712.5 46.4286
1713.5 38.7143
1714.5 25.5714
1715.5 48.5714
1716.5 41.8571
1717.5 36.2857
1718.5 10.8571
1719.5 -6.42857
1720.5 61.7143
1721.5 50.1429
1722.5 200.857
1723.5 376.143
1724.5 750.429
1725.5 938.714
1726.5 748.571
1727.5 345
1728.5 109.429
1729.5 27
1730.5 35.2857
1731.5 23.7143
1732.5 7.71428
1733.5 54.7143
1734.5 85.8571
1735.5 30.1429
1736.5 37
1737.5 64.8571
1738.5 44.4286
1739.5 -1.14286
1740.5 64.4286
1741.5 51.4286
1742.5 47.5714
1743.5 60.8571
1744.5 61.2857
1745.5 99
1746.5 75.2857
1747.5 32.8571
1748.5 94.1429
1749.5 11.2857
1750.5 72.7143
1751.5 48.4286
1752.5 40.4286
1753.5 110.571
1754.5 52.2857
1755.5 85.7143
1756.5 66
1757.5 55.5714
1758.5 45.1429
1759.5 19.7143
1760.5 38.1429
1761.5 29.8571
1762.5 40.2857
1763.5 84.2857
1764.5 35.2857
1765.5 79.8571
1766.5 37.8571
1767.5 -3
1768.5 44
1769.5 33.7143
1770.5 65.2857
1771.5 78.5714
1772.5 141.286
1773.5 313.857
1774.5 216.429
1775.5 200.857
1776.5 37.7143
1777.5 24.2857
1778.5 117.429
1779.5 23.2857
1780.5 77.1429
1781.5 44.2857
1782.5 61.8571
1783.5 39.8571
1784.5 49.1429
1785.5 -24.1429
1786.5 55.7143
1787.5 105.857
1788.5 36.7143
1789.5 36.4286
1790.5 33.4286
1791.5 39.2857
1792.5 65.1429
1793.5 52.4286
1794.5 31
1795.5 27.2857
1796.5 9.71428
1797.5 51.5714
1798.5 2.71428
1799.5 4.71428
1800.5 61.7143
1801.5 88.7143
1802.5 50.4286
1803.5 22
1804.5 96.2857
1805.5 56.8571
1806.5 -19.8571
1807.5 -19.2857
1808.5 42.8571
1809.5 49.7143
1810.5 -5.42858
1811.5 50.1429
1812.5 85.1429
1813.5 70.8571
1814.5 32.1429
1815.5 59.1429
1816.5 33
1817.5 17.7143
1818.5 4.14285
1819.5 -23.4286
1820.5 65.8571
1821.5 52.8571
1822.5 29.1429
1823.5 81.4286
1824.5 85.1429
1825.5 73.2857
1826.5 32.8571
1827.5 49.8571
1828.5 72
1829.5 43.4286
1830.5 85.4286
1831.5 2.14285
1832.5 56
1833.5 79.1429
1834.5 49.1429
1835.5 87
1836.5 55.5714
1837.5 90.1429
1838.5 80.8571
1839.5 66
1840.5 55
1841.5 91.4286
1842.5 79
1843.5 42.8571
1844.5 48.2857
1845.5 76.8571
1846.5 60.5714
1847.5 25.7143
1848.5 37.1429
1849.5 40.1429
1850.5 66.7143
1851.5 90.2857
1852.5 75.4286
1853.5 65.8571
1854.5 62.8571
1855.5 88.1429
1856.5 72
1857.5 38.7143
1858.5 51
1859.5 38.5714
1860.5 38.5714
1861.5 71.7143
1862.5 51.7143
1863.5 69.4286
1864.5 14.2857
1865.5 42.4286
1866.5 29.4286
1867.5 67
1868.5 65.7143
1869.5 -19.7143
1870.5 63.1428
1871.5 59.7143
1872.5 127.714
1873.5 -77.7143
1874.5 64.1428
1875.5 25.4286
1876.5 79.1429
1877.5 44.8571
1878.5 46
1879.5 12.8571
1880.5 78
1881.5 52.1429
1882.5 68.2857
1883.5 24.7143
1884.5 88.4286
1885.5 40
1886.5 26.8571
1887.5 -14.4286
1888.5 54.5714
1889.5 30.8571
1890.5 48.4286
1891.5 82.5714
1892.5 36.8571
1893.5 5.28571
1894.5 40
1895.5 76.8571
1896.5 57.7143
1897.5 146.571
1898.5 252.143
1899.5 277.286
1900.5 324.857
1901.5 176.286
1902.5 65.1429
1903.5 31.4286
1904.5 38.5714
1905.5 72.7143
1906.5 41.7143
1907.5 41.2857
1908.5 42.5714
1909.5 61.8571
1910.5 79.5714
1911.5 66.7143
1912.5 80.8571
1913.5 37.2857
1914.5 62.8571
1915.5 14.7143
1916.5 36
1917.5 27.7143
1918.5 74.4286
1919.5 29.7143
1920.5 68.7143
1921.5 45.8571
1922.5 44.2857
1923.5 42
1924.5 -18.2857
1925.5 41.5714
1926.5 56.8571
1927.5 26.5714
1928.5 53
1929.5 53.2857
1930.5 29.2857
1931.5 27.4286
1932.5 5.28571
1933.5 79.1429
1934.5 14.8571
1935.5 -2.85715
1936.5 62.5714
1937.5 28.1429
1938.5 16.8571
1939.5 45.4286
1940.5 -6.28572
1941.5 154.714
1942.5 39
1943.5 79.7143
1944.5 27.1429
1945.5 73.2857
1946.5 37
1947.5 88.4286
1948.5 21.4286
1949.5 57.4286
1950.5 60.5714
1951.5 1.42857
1952.5 76.8571
1953.5 42.2857
1954.5 38.1429
1955.5 64.7143
1956.5 69.2857
1957.5 104.571
1958.5 111.429
1959.5 79.8571
1960.5 93.4286
1961.5 69
1962.5 27
1963.5 35.7143
1964.5 37.8571
1965.5 6.85714
1966.5 -2.28572
1967.5 34.4286
1968.5 4.28571
1969.5 20.8571
1970.5 39.1429
1971.5 35
1972.5 76.8571
1973.5 27.4286
1974.5 45.8571
1975.5 72.2857
1976.5 -7.85714
1977.5 51.8571
1978.5 40.1429
1979.5 37
1980.5 37
1981.5 14.2857
1982.5 63.2857
1983.5 42.2857
1984.5 62.1429
1985.5 40.7143
1986.5 15
1987.5 19.2857
1988.5 22.4286
1989.5 71.7143
1990.5 32.1429
1991.5 44.5714
1992.5 44.4286
1993.5 111.857
1994.5 50.4286
1995.5 17.2857
1996.5 18
1997.5 50.2857
1998.5 75.8571
1999.5 45.4286
2000.5 34.1429
2001.5 29.2857
2002.5 39.2857
2003.5 48.1429
2004.5 66.4286
2005.5 33.2857
2006.5 16.1429
2007.5 21
2008.5 28.7143
2009.5 11.4286
2010.5 24.2857
2011.5 10.5714
2012.5 15.4286
2013.5 -13.4286
2014.5 -9.28572
2015.5 42.5714
2016.5 47.8571
2017.5 12.7143
2018.5 31.7143
2019.5 54.7143
2020.5 38.1429
2021.5 29.5714
2022.5 48.1429
2023.5 53.2857
2024.5 47.4286
2025.5 7.85714
2026.5 34
2027.5 34.2857
2028.5 3.57143
2029.5 40
2030.5 3.57143
2031.5 36.4286
2032.5 2.71428
2033.5 6.71428
2034.5 51
2035.5 23.4286
2036.5 9.57143
2037.5 57
2038.5 31.1429
2039.5 14.7143
2040.5 57.1429
2041.5 15.4286
2042.5 37.5714
2043.5 40.7143
2044.5 38
2045.5 43.1429
2046.5 14
2047.5 54.7143
2048.5 62
2049.5 61.2857
2050.5 47.7143
2051.5 68.1429
2052.5 93.8571
2053.5 62.7143
2054.5 55
2055.5 131.143
2056.5 79
2057.5 7.57143
2058.5 46.4286
2059.5 30.4286
2060.5 34
2061.5 37.4286
2062.5 -9.71429
2063.5 44.4286
2064.5 0.714283
2065.5 23.8571
2066.5 12.2857
2067.5 -18.2857
2068.5 37.2857
2069.5 24.2857
2070.5 38.2857
2071.5 196.571
2072.5 563.571
2073.5 1311.14
2074.5 1811.43
2075.5 1491.43
2076.5 702.571
2077.5 191.714
2078.5 79.7143
2079.5 41.8571
2080.5 30.1429
2081.5 50.5714
2082.5 25.2857
2083.5 54.8571
2084.5 44.1429
2085.5 27.7143
2086.5 13.5714
2087.5 3.71428
2088.5 -41.8571
2089.5 91
2090.5 28.2857
2091.5 24.5714
2092.5 59
2093.5 22.5714
2094.5 27.5714
2095.5 3.71428
2096.5 63.7143
2097.5 162.571
2098.5 199.286
2099.5 372.714
2100.5 562.571
2101.5 398.857
2102.5 162.429
2103.5 71.4286
2104.5 30.1429
2105.5 79.5714
2106.5 33
2107.5 -3.14286
2108.5 48.8571
2109.5 -4.57143
2110.5 3.28571
2111.5 -11
2112.5 -17.7143
2113.5 -1.85714
2114.5 35.2857
2115.5 55.7143
2116.5 32.5714
2117.5 52
2118.5 -6
2119.5 49.2857
2120.5 14.4286
2121.5 3.14286
2122.5 54.1429
2123.5 18
2124.5 -4.71429
2125.5 47.2857
2126.5 4.28571
2127.5 32.8571
2128.5 4.28571
2129.5 21.5714
2130.5 56.7143
2131.5 26.8571
2132.5 9.71428
2133.5 21.4286
2134.5 38.8571
2135.5 8.71428
2136.5 42
2137.5 -6
2138.5 21.8571
2139.5 32.8571
2140.5 21.4286
2141.5 33.2857
2142.5 12.4286
2143.5 129.286
2144.5 72.7143
2145.5 17.2857
2146.5 65.8571
2147.5 -17.7143
2148.5 71.1428
2149.5 306.571
2150.5 345.143
2151.5 351.429
2152.5 253.143
2153.5 50.1429
2154.5 43.1429
2155.5 15.2857
2156.5 23.1429
2157.5 53.5714
2158.5 -6.57143
2159.5 45.4286
2160.5 35.8571
2161.5 27.5714
2162.5 13.5714
2163.5 -28.4286
2164.5 17.1429
2165.5 -6.71429
2166.5 45.4286
2167.5 34.1429
2168.5 43.2857
2169.5 52.2857
2170.5 48.5714
2171.5 10.4286
2172.5 19.1429
2173.5 8.71428
2174.5 34.8571
2175.5 20.7143
2176.5 -8.42857
2177.5 -15.4286
2178.5 25.8571
2179.5 101.286
2180.5 54.5714
2181.5 25.5714
2182.5 10.7143
2183.5 64.4286
2184.5 71
2185.5 44.4286
2186.5 89.5714
2187.5 72.4286
2188.5 50.5714
2189.5 8
2190.5 34.2857
2191.5 45.2857
2192.5 -0.14286
2193.5 -1.71429
2194.5 -14.1429
2195.5 -48.7143
2196.5 -76.5714
2197.5 11
2198.5 149.857
2199.5 213.571
2200.5 180.571
2201.5 91.1429
2202.5 68
2203.5 21.8571
2204.5 30.4286
2205.5 38.2857
2206.5 58
2207.5 13
2208.5 -5.85714
2209.5 26.1429
2210.5 -14.4286
2211.5 34.7143
2212.5 -10.2857
2213.5 41.5714
2214.5 4.14286
2215.5 8.57143
2216.5 2.42857
2217.5 31.7143
2218.5 5.28571
2219.5 28.8571
2220.5 20.2857
2221.5 46.2857
2222.5 42.4286
2223.5 39.4286
2224.5 15
2225.5 14
2226.5 14
2227.5 4
2228.5 -18.5714
2229.5 17.5714
2230.5 22.5714
2231.5 -5.85714
2232.5 23
2233.5 29.2857
2234.5 36.4286
2235.5 28
2236.5 48.5714
2237.5 69.4286
2238.5 35
2239.5 48.1429
2240.5 39.7143
2241.5 48.8571
2242.5 17.2857
2243.5 28
2244.5 57.4286
2245.5 19.7143
2246.5 49.4286
2247.5 65.1429
2248.5 39.2857
2249.5 77.8571
2250.5 80
2251.5 40.7143
2252.5 44.1429
2253.5 52.2857
2254.5 97.2857
2255.5 86.1429
2256.5 57.1429
2257.5 103.429
2258.5 67.8571
2259.5 42.1429
2260.5 21.4286
2261.5 23.5714
2262.5 39.2857
2263.5 19
2264.5 -1.85714
2265.5 16
2266.5 28.5714
2267.5 26.2857
2268.5 9.71428
2269.5 -12.5714
2270.5 7.85714
2271.5 32.2857
2272.5 38.1429
2273.5 17.1429
2274.5 16
2275.5 37
2276.5 18.7143
2277.5 55.1429
2278.5 10.2857
2279.5 50
2280.5 34.1429
2281.5 46.7143
2282.5 48.1429
2283.5 54
2284.5 19.1429
2285.5 -8
2286.5 47
2287.5 38.7143
2288.5 6.85714
2289.5 50.4286
2290.5 47.8571
2291.5 15.7143
2292.5 47.7143
2293.5 33.8571
2294.5 13.1429
2295.5 20.8571
2296.5 55.8571
2297.5 48.1429
2298.5 36.4286
2299.5 60.5714
2300.5 45.7143
2301.5 22
2302.5 3.85714
2303.5 9.57143
2304.5 13.2857
2305.5 20.5714
2306.5 62.7143
2307.5 21.4286
2308.5 38.4286
2309.5 7.85714
2310.5 33.7143
2311.5 21.5714
2312.5 17.4286
2313.5 32.8571
2314.5 -11.2857
2315.5 -3.85714
2316.5 36.4286
2317.5 16.7143
2318.5 30.7143
2319.5 57.4286
2320.5 40.7143
2321.5 32.1429
2322.5 31.7143
2323.5 47
2324.5 9.28571
2325.5 11.5714
2326.5 70.1429
2327.5 36
2328.5 52.4286
2329.5 19.2857
2330.5 10.2857
2331.5 6.85714
2332.5 21.2857
2333.5 19
2334.5 1.42857
2335.5 30.5714
2336.5 48.2857
2337.5 -1.57143
2338.5 19.8571
2339.5 10.5714
2340.5 51
2341.5 -13.8571
2342.5 13.1429
2343.5 15.1429
2344.5 33.5714
2345.5 5.42857
2346.5 14.2857
2347.5 6.71428
2348.5 26.8571
2349.5 38
2350.5 22.5714
2351.5 27.8571
2352.5 2.28571
2353.5 30.8571
2354.5 -6.42857
2355.5 6
2356.5 31.8571
2357.5 36.5714
2358.5 42.2857
2359.5 -16.8571
2360.5 52
2361.5 5.14286
2362.5 33.5714
2363.5 17.1429
2364.5 35
2365.5 -0.142859
2366.5 -13
2367.5 37.4286
2368.5 19.5714
2369.5 80.4286
2370.5 38.8571
2371.5 17.7143
2372.5 18.4286
2373.5 15.2857
2374.5 -34.2857
2375.5 -69.5714
2376.5 -34.1429
2377.5 27
2378.5 34.2857
2379.5 -27.4286
2380.5 5.71428
2381.5 -4
2382.5 27.4286
2383.5 25.1429
2384.5 8.42857
2385.5 35.1429
2386.5 -13.7143
2387.5 21.5714
2388.5 51.8571
2389.5 31
2390.5 15.8571
2391.5 27.1429
2392.5 33.1429
2393.5 50.8571
2394.5 56.1429
2395.5 25.4286
2396.5 35.8571
2397.5 48.7143
2398.5 70.7143
2399.5 47.7143
2400.5 60.1429
2401.5 29.5714
2402.5 12
2403.5 23.1429
2404.5 0.571427
2405.5 -6.71429
2406.5 27.2857
2407.5 14.2857
2408.5 24.2857
2409.5 10.2857
2410.5 32
2411.5 18.7143
2412.5 33.7143
2413.5 74.5714
2414.5 72.5714
2415.5 58.1429
2416.5 7.14286
2417.5 30.8571
2418.5 36
2419.5 12.7143
2420.5 1.71428
2421.5 7.57143
2422.5 -0.428573
2423.5 7.57143
2424.5 26.1429
2425.5 28.8571
2426.5 -37.2857
2427.5 -0.428573
2428.5 22.4286
2429.5 30.2857
2430.5 0.714284
2431.5 30.7143
2432.5 27.1429
2433.5 -1.42857
2434.5 -6.71429
2435.5 -4.71429
2436.5 35.2857
2437.5 23
2438.5 55.7143
2439.5 16
2440.5 30.5714
2441.5 37.8571
2442.5 29.2857
2443.5 -8.14286
2444.5 -18.5714
2445.5 -1.14286
2446.5 -2.42857
2447.5 0.571426
2448.5 -18.7143
2449.5 -26.5714
2450.5 12.4286
2451.5 -4.57143
2452.5 41
2453.5 30.1429
2454.5 21
2455.5 17.7143
2456.5 19.5714
2457.5 30.4286
2458.5 28.8571
2459.5 12.5714
2460.5 -21
2461.5 29.4286
2462.5 8.28571
2463.5 42.4286
2464.5 53.7143
2465.5 -15.7143
2466.5 -8.85714
2467.5 106.143
2468.5 14.7143
2469.5 14.2857
2470.5 7.28571
2471.5 61.7143
2472.5 11.1429
2473.5 49.2857
2474.5 24.7143
2475.5 60
2476.5 -0.285716
2477.5 20.1429
2478.5 27.4286
2479.5 2.71428
2480.5 4.85714
2481.5 26.4286
2482.5 18.5714
2483.5 9.14286
2484.5 44.7143
2485.5 -3.42857
2486.5 28.1429
2487.5 20.4286
2488.5 1.85714
2489.5 18.7143
2490.5 30.5714
2491.5 -22.8571
2492.5 32.2857
2493.5 -16
2494.5 19.1429
2495.5 22
2496.5 -15.2857
2497.5 -7
2498.5 2.28571
2499.5 13.5714
2500.5 32.2857
2501.5 -9.71429
2502.5 -15.7143
2503.5 13.2857
2504.5 34.8571
2505.5 38.4286
2506.5 22.5714
2507.5 -7.28572
2508.5 -15.4286
2509.5 44.2857
2510.5 15.1429
2511.5 27.2857
2512.5 38.1429
2513.5 36.4286
2514.5 18.7143
2515.5 8
2516.5 39.5714
2517.5 13.5714
2518.5 15.5714
2519.5 67
2520.5 -39.4286
2521.5 15.5714
2522.5 -1.57143
2523.5 30
2524.5 4.28571
2525.5 1.71428
2526.5 10.4286
2527.5 61.2857
2528.5 49.5714
2529.5 17.7143
2530.5 63.8571
2531.5 22
2532.5 38.5714
2533.5 19
2534.5 18
2535.5 31.5714
2536.5 10.1429
2537.5 27.2857
2538.5 30.7143
2539.5 14.2857
2540.5 19.4286
2541.5 -0.142859
2542.5 36.8571
2543.5 31.7143
2544.5 36.7143
2545.5 36.1429
2546.5 5.85714
2547.5 3
2548.5 -14.4286
2549.5 18.1429
2550.5 40.2857
2551.5 32.2857
2552.5 36.8571
2553.5 39
2554.5 44.8571
2555.5 13.2857
2556.5 3
2557.5 16.4286
2558.5 22.2857
2559.5 49.7143
2560.5 11.5714
2561.5 26.2857
2562.5 16.7143
2563.5 24.7143
2564.5 25.8571
2565.5 12.1429
2566.5 -7.28572
2567.5 10
2568.5 15.2857
2569.5 16
2570.5 25.5714
2571.5 11.8571
2572.5 -29.8571
2573.5 18.2857
2574.5 23.8571
2575.5 -1.42857
2576.5 34.2857
2577.5 -23.4286
2578.5 28.5714
2579.5 34.7143
2580.5 26.7143
2581.5 -11.7143
2582.5 23.2857
2583.5 14.1429
2584.5 -12.8571
2585.5 -24.8571
2586.5 -3
2587.5 0.571428
2588.5 0.571427
2589.5 -8.57143
2590.5 18.1429
2591.5 21
2592.5 26.1429
2593.5 -7.57143
2594.5 6
2595.5 23.1429
2596.5 5
2597.5 21.2857
2598.5 30.5714
2599.5 33.8571
2600.5 22.2857
2601.5 26.8571
2602.5 12.2857
2603.5 26.7143
2604.5 -11.4286
2605.5 37.8571
2606.5 22
2607.5 11.8571
2608.5 75.8571
2609.5 91.4286
2610.5 176
2611.5 352.571
2612.5 419.714
2613.5 317.857
2614.5 115.714
2615.5 57.4286
2616.5 53.5714
2617.5 31.4286
2618.5 112
2619.5 110.571
2620.5 22.7143
2621.5 19.5714
2622.5 41.4286
2623.5 3.57143
2624.5 19.1429
2625.5 -7.85714
2626.5 36.2857
2627.5 -8.28572
2628.5 33.1429
2629.5 -6.14286
2630.5 12.8571
2631.5 11.5714
2632.5 14.5714
2633.5 -3.57143
2634.5 39
2635.5 8.71428
2636.5 -10.2857
2637.5 -7.57143
2638.5 9.71428
2639.5 3.85714
2640.5 -4.71429
2641.5 10.1429
2642.5 11.4286
2643.5 20.7143
2644.5 16.7143
2645.5 11.4286
2646.5 7.28571
2647.5 31.7143
2648.5 24.1429
2649.5 15
2650.5 35
2651.5 40.8571
2652.5 37
2653.5 31.7143
2654.5 28.5714
2655.5 53
2656.5 79
2657.5 94.2857
2658.5 61
2659.5 115.714
2660.5 172.714
2661.5 284.286
2662.5 265.571
2663.5 185
2664.5 138.286
2665.5 97.1429
2666.5 35.1429
2667.5 48.1429
2668.5 9.71428
2669.5 35.2857
2670.5 -7.85714
2671.5 -18.1429
2672.5 35
2673.5 -43.5714
2674.5 -37.2857
2675.5 -49.2857
2676.5 -67.1429
2677.5 -10.4286
2678.5 -18.1429
2679.5 -13.7143
2680.5 14.4286
2681.5 -3.85714
2682.5 12.1429
2683.5 5.42857
2684.5 35.1429
2685.5 51
2686.5 -15.7143
2687.5 -18.7143
2688.5 14
2689.5 -48.1429
2690.5 49.2857
2691.5 -8.42857
2692.5 26.4286
2693.5 7.14286
2694.5 -8.28572
2695.5 21.8571
2696.5 43
2697.5 28.5714
2698.5 53.7143
2699.5 53.8571
2700.5 33.5714
2701.5 30.4286
2702.5 5.42857
2703.5 25.4286
2704.5 -8
2705.5 -10.8571
2706.5 21.1429
2707.5 15
2708.5 4.71428
2709.5 23.1429
2710.5 29.2857
2711.5 24.7143
2712.5 4.71428
2713.5 -15
2714.5 5.57143
2715.5 39.8571
2716.5 20.1429
2717.5 17.1429
2718.5 26.8571
2719.5 -6.85715
2720.5 2.14285
2721.5 29.2857
2722.5 151.286
2723.5 117.286
2724.5 28.7143
2725.5 -0.571431
2726.5 12.2857
2727.5 7
2728.5 40
2729.5 12.1429
2730.5 -53
2731.5 -13.7143
2732.5 -17.2857
2733.5 68.2857
2734.5 14.5714
2735.5 35
2736.5 49.7143
2737.5 6.85714
2738.5 49.1429
2739.5 12.7143
2740.5 8
2741.5 40.5714
2742.5 23.2857
2743.5 -7.57143
2744.5 42.5714
2745.5 42.5714
2746.5 17.5714
2747.5 53.1429
2748.5 25.5714
2749.5 11.5714
2750.5 1.85714
2751.5 4
2752.5 7.71428
2753.5 21.2857
2754.5 24.4286
2755.5 14
2756.5 58.1429
2757.5 32
2758.5 11.2857
2759.5 7.14286
2760.5 7.14286
2761.5 2
2762.5 33.7143
2763.5 17.7143
2764.5 18.1429
2765.5 -16.1429
2766.5 -5.28572
2767.5 12.2857
2768.5 3.57143
2769.5 1.57143
2770.5 30.4286
2771.5 14.2857
2772.5 -7.14286
2773.5 9.14286
2774.5 3
2775.5 27.7143
2776.5 18.1429
2777.5 1.28571
2778.5 28.1429
2779.5 20.8571
2780.5 7.14286
2781.5 45
2782.5 5.42857
2783.5 21.4286
2784.5 4.28571
2785.5 -3.71429
2786.5 4.85714
2787.5 2.28571
2788.5 14.5714
2789.5 13.4286
2790.5 31.1429
2791.5 -4.85714
2792.5 52.2857
2793.5 18
2794.5 32.8571
2795.5 52.5714
2796.5 15.8571
2797.5 16.5714
2798.5 42.1429
2799.5 96.8571
2800.5 104.429
2801.5 119.571
2802.5 159.714
2803.5 92.1429
2804.5 61.1429
2805.5 30.8571
2806.5 21.8571
2807.5 24.5714
2808.5 -16.5714
2809.5 -17.7143
2810.5 6.85714
2811.5 -26.2857
2812.5 11.4286
2813.5 16.5714
2814.5 37.5714
2815.5 18.8571
2816.5 8.71428
2817.5 -25.8571
2818.5 8.57143
2819.5 14.1429
2820.5 4.57143
2821.5 -10.5714
2822.5 16.7143
2823.5 28.7143
2824.5 -3.71429
2825.5 9.57143
2826.5 7.28571
2827.5 9
2828.5 42.5714
2829.5 38
2830.5 47.2857
2831.5 27.2857
2832.5 20.8571
2833.5 30.2857
2834.5 34.1429
2835.5 16.5714
2836.5 10.1429
2837.5 -0.142858
2838.5 0.571428
2839.5 10.7143
2840.5 24
2841.5 28.1429
2842.5 4.14286
2843.5 -20.8571
2844.5 14.5714
2845.5 31
2846.5 -17.5714
2847.5 13.5714
2848.5 24.8571
2849.5 5.71428
2850.5 -7.85714
2851.5 -7.71429
2852.5 3.42857
2853.5 -2.14286
2854.5 10
2855.5 23.1429
2856.5 32.2857
2857.5 7.28571
2858.5 5
2859.5 1.71428
2860.5 13.5714
2861.5 12.5714
2862.5 2.85714
2863.5 20.7143
2864.5 -11.4286
2865.5 8
2866.5 21
2867.5 -1.28572
2868.5 18
2869.5 -11.1429
2870.5 1.71428
2871.5 4.28571
2872.5 14.7143
2873.5 23.2857
2874.5 7
2875.5 -3.85714
2876.5 -0.857144
2877.5 2.85714
2878.5 0.428571
2879.5 30.7143
2880.5 15.1429
2881.5 0.714285
2882.5 31.8571
2883.5 31.8571
2884.5 12.7143
2885.5 22.8571
2886.5 12.4286
2887.5 10.7143
2888.5 8
2889.5 20.2857
2890.5 -15.5714
2891.5 30
2892.5 2.85714
2893.5 16.8571
2894.5 0.42857
2895.5 12.2857
2896.5 14.8571
2897.5 15.5714
2898.5 16.5714
2899.5 8.85714
2900.5 24.1429
2901.5 18.7143
2902.5 17.7143
2903.5 22
2904.5 15
2905.5 8.28571
2906.5 5.28571
2907.5 7.57143
2908.5 11.8571
2909.5 20.8571
2910.5 31.5714
2911.5 12
2912.5 -3.42857
2913.5 29
2914.5 18.7143
2915.5 19.5714
2916.5 4.71428
2917.5 -18
2918.5 5.42857
2919.5 13.1429
2920.5 30.8571
2921.5 2.28571
2922.5 19.4286
2923.5 28.8571
2924.5 26.7143
2925.5 48.2857
2926.5 30.8571
2927.5 -7
2928.5 -3.14286
2929.5 19.8571
2930.5 47.5714
2931.5 18.7143
2932.5 41.4286
2933.5 35.2857
2934.5 9.14286
2935.5 -15.7143
2936.5 46.5714
2937.5 23
2938.5 8.57143
2939.5 -46.8571
2940.5 -30.5714
2941.5 -21.8571
2942.5 36
2943.5 29
2944.5 3.85714
2945.5 -43.8572
2946.5 70.1428
2947.5 127
2948.5 -30.7143
2949.5 39.1429
2950.5 49.2857
2951.5 3.42857
2952.5 15.7143
2953.5 -5.14286
2954.5 17.8571
2955.5 39.5714
2956.5 -18.8571
2957.5 23.4286
2958.5 18
2959.5 23
2960.5 12.7143
2961.5 13
2962.5 9.42857
2963.5 16.4286
2964.5 13.7143
2965.5 25.1429
2966.5 31.1429
2967.5 -13.4286
2968.5 17.4286
2969.5 32.1429
2970.5 11.2857
2971.5 1.42857
2972.5 21
2973.5 26.7143
2974.5 10
2975.5 20.8571
2976.5 4.28571
2977.5 0.428571
2978.5 -7.42857
2979.5 -28
2980.5 32.8571
2981.5 -0.142859
2982.5 14.5714
2983.5 -0.285715
2984.5 19.2857
2985.5 6.71428
2986.5 10.2857
2987.5 -7
2988.5 19.1429
2989.5 25.1429
2990.5 -13.2857
2991.5 17
2992.5 0.999999
2993.5 0.571428
2994.5 9.57143
2995.5 -7.42857
2996.5 30.7143
2997.5 23
2998.5 -2.42857
2999.5 19.4286
3000.5 8.42857
3001.5 -1.43051e-06
3002.5 -16.8571
3003.5 -11.4286
3004.5 6
3005.5 -6
3006.5 -49
3007.5 19.4286
3008.5 4.71428
3009.5 29.2857
3010.5 34.2857
3011.5 -3.28572
3012.5 7.57143
3013.5 30.4286
3014.5 -3
3015.5 30.4286
3016.5 17.1429
3017.5 -3.85714
3018.5 23.7143
3019.5 17.5714
3020.5 31.1429
3021.5 15.5714
3022.5 -7
3023.5 3.57143
3024.5 32.8571
3025.5 33.5714
3026.5 1.42857
3027.5 27.8571
3028.5 24.1429
3029.5 4
3030.5 36.8571
3031.5 -8
3032.5 24
3033.5 -5.42857
3034.5 28
3035.5 32.7143
3036.5 61.5714
3037.5 145
3038.5 105.429
3039.5 74.4286
3040.5 81.8571
3041.5 30.8571
3042.5 26.1429
3043.5 5.14286
3044.5 3
3045.5 4.57143
3046.5 -9.14286
3047.5 18.1429
3048.5 2.57143
3049.5 -0.142858
3050.5 1.71428
3051.5 17.4286
3052.5 14
3053.5 24.1429
3054.5 6.57143
3055.5 28.4286
3056.5 15.2857
3057.5 -5.85714
3058.5 -5.14286
3059.5 31.2857
3060.5 3
3061.5 15.4286
3062.5 -10.8571
3063.5 31.2857
3064.5 21.7143
3065.5 18.1429
3066.5 18
3067.5 4.42857
3068.5 8.14286
3069.5 17.1429
3070.5 -3.28572
3071.5 -4.57143
3072.5 1.85714
3073.5 -4.57143
3074.5 0.285713
3075.5 19.5714
3076.5 -11.5714
3077.5 18.4286
3078.5 -30
3079.5 -0.714287
3080.5 38.4286
3081.5 2.42857
3082.5 -1.71429
3083.5 9.28571
3084.5 19.2857
3085.5 10.8571
3086.5 10.2857
3087.5 15.8571
3088.5 10.7143
3089.5 29.8571
3090.5 21.1429
3091.5 22.4286
3092.5 5.71428
3093.5 21.1429
3094.5 29.8571
3095.5 13.8571
3096.5 4.85714
3097.5 18.5714
3098.5 2.14286
3099.5 2
3100.5 11.4286
3101.5 7.85714
3102.5 1.28571
3103.5 36.2857
3104.5 3.14286
3105.5 24.8571
3106.5 16.4286
3107.5 10.5714
3108.5 14
3109.5 18.5714
3110.5 12.4286
3111.5 -10.2857
3112.5 10.1429
3113.5 22.5714
3114.5 16.7143
3115.5 21.2857
3116.5 -1.71429
3117.5 5.85714
3118.5 -0.714288
3119.5 18.7143
3120.5 4.85714
3121.5 -2.85714
3122.5 -10.1429
3123.5 -7.15256e-07
3124.5 16.5714
3125.5 -5.28572
3126.5 21.8571
3127.5 19.7143
3128.5 17.5714
3129.5 15.1429
3130.5 -2.14286
3131.5 7.57143
3132.5 1.14286
3133.5 10.5714
3134.5 25
3135.5 16.2857
3136.5 46.4286
3137.5 20.2857
3138.5 27.2857
3139.5 2.28571
3140.5 24.5714
3141.5 11.8571
3142.5 1.71428
3143.5 18.2857
3144.5 3.85714
3145.5 -5
3146.5 18.7143
3147.5 27.4286
3148.5 -0.142858
3149.5 9.28571
3150.5 31.1429
3151.5 18.1429
3152.5 11.1429
3153.5 21.4286
3154.5 -0.285715
3155.5 15.8571
3156.5 10
3157.5 12.1429
3158.5 59
3159.5 11.4286
3160.5 40
3161.5 9.71428
3162.5 3.71428
3163.5 24.8571
3164.5 24.5714
3165.5 28.1429
3166.5 5.28571
3167.5 17
3168.5 23.8571
3169.5 22.8571
3170.5 63.4286
3171.5 73.1429
3172.5 135.857
3173.5 235
3174.5 331.143
3175.5 367.286
3176.5 280.286
3177.5 140.857
3178.5 55.2857
3179.5 18.8571
3180.5 2.71428
3181.5 -29.5714
3182.5 -7.71429
3183.5 -90.5714
3184.5 -94.4286
3185.5 -60.2857
3186.5 -169
3187.5 -153.857
3188.5 -137
3189.5 -52.2857
3190.5 7.71428
3191.5 -2
3192.5 16.4286
3193.5 0.142856
3194.5 -7.42857
3195.5 37.7143
3196.5 -6.42857
3197.5 -4.85714
3198.5 10.1429
3199.5 20.7143
3200.5 7.28571
3201.5 0.285712
3202.5 39.8571
3203.5 6.28571
3204.5 13.1429
3205.5 21.2857
3206.5 10.5714
3207.5 11.8571
3208.5 19.7143
3209.5 26.5714
3210.5 17.1429
3211.5 6.14286
3212.5 16.8571
3213.5 9.71429
3214.5 20.7143
3215.5 31.1429
3216.5 -5.42857
3217.5 10
3218.5 21.4286
3219.5 -33.8571
3220.5 22.2857
3221.5 24.4286
3222.5 6
3223.5 3.71429
3224.5 11.1429
3225.5 31.2857
3226.5 21.1429
3227.5 24.5714
3228.5 19.5714
3229.5 34.2857
3230.5 17.5714
3231.5 14.4286
3232.5 16.1429
3233.5 32.1429
3234.5 16.8571
3235.5 17.7143
3236.5 -30.1429
3237.5 -9.71429
3238.5 5.57143
3239.5 3
3240.5 19.5714
3241.5 26.1429
3242.5 22.5714
3243.5 10.4286
3244.5 -4.14286
3245.5 21.5714
3246.5 23.2857
3247.5 28.1429
3248.5 27.8571
3249.5 3.14286
3250.5 15.5714
3251.5 8
3252.5 21.5714
3253.5 3.85714
3254.5 11.2857
3255.5 18
3256.5 21.2857
3257.5 -4.85714
3258.5 13.4286
3259.5 34.1429
3260.5 -2.14286
3261.5 10.4286
3262.5 -0.714287
3263.5 -1.57143
3264.5 33.2857
3265.5 -1.57143
3266.5 -3.57143
3267.5 -17
3268.5 26.4286
3269.5 9.28571
3270.5 -0.714286
3271.5 -3.85714
3272.5 -12
3273.5 7
3274.5 16.5714
3275.5 20.1429
3276.5 12.1429
3277.5 26.8571
3278.5 22.5714
3279.5 31.4286
3280.5 36.2857
3281.5 29.2857
3282.5 16.7143
3283.5 22.5714
3284.5 -4.71429
3285.5 1.85714
3286.5 2.57143
3287.5 23.8571
3288.5 -13.4286
3289.5 14.8571
3290.5 0.571428
3291.5 -3.71429
3292.5 5.28571
3293.5 9.28571
3294.5 22.8571
3295.5 7
3296.5 48.1429
3297.5 24.8571
3298.5 15
3299.5 20
3300.5 35.5714
3301.5 -14.5714
3302.5 36.1429
3303.5 -12.8571
3304.5 13.7143
3305.5 37.7143
3306.5 18.7143
3307.5 22.2857
3308.5 4.14286
3309.5 38.5714
3310.5 65.5714
3311.5 94.7143
3312.5 177.571
3313.5 201.571
3314.5 124.571
3315.5 54.5714
3316.5 24.1429
3317.5 8.85714
3318.5 -9.28572
3319.5 22
3320.5 13.4286
3321.5 25
3322.5 20
3323.5 28.4286
3324.5 -15.4286
3325.5 -21.8571
3326.5 -5.85714
3327.5 -8
3328.5 -2.42857
3329.5 0.428571
3330.5 -2.14286
3331.5 10
3332.5 1.28571
3333.5 -7.57143
3334.5 -0.428572
3335.5 8.71429
3336.5 35.7143
3337.5 -7.42857
3338.5 16.2857
3339.5 6
3340.5 20.2857
3341.5 3.28571
3342.5 9.42857
3343.5 -3
3344.5 11.1429
3345.5 21.8571
3346.5 17.5714
3347.5 9
3348.5 32.2857
3349.5 4.42857
3350.5 18.2857
3351.5 21.1429
3352.5 7
3353.5 28
3354.5 11.5714
3355.5 36.7143
3356.5 38.2857
3357.5 -0.571429
3358.5 5.14286
3359.5 8.28571
3360.5 17.1429
3361.5 -0.142858
3362.5 8.85714
3363.5 7.85714
3364.5 10.4286
3365.5 24.8571
3366.5 -15
3367.5 5.71429
3368.5 4.57143
3369.5 12.4286
3370.5 24
3371.5 1.28571
3372.5 9.85714
3373.5 12.1429
3374.5 -2.28572
3375.5 13.1429
3376.5 0.285713
3377.5 -1
3378.5 1.85714
3379.5 8.85714
3380.5 14.7143
3381.5 9.71429
3382.5 3
3383.5 -5.14286
3384.5 11.8571
3385.5 8
3386.5 -8.85714
3387.5 12.8571
3388.5 16.7143
3389.5 22.8571
3390.5 6.42857
3391.5 -10.8571
3392.5 4.71429
3393.5 15.8571
3394.5 20.5714
3395.5 16
3396.5 1.28571
3397.5 28.2857
3398.5 31
3399.5 12.7143
3400.5 -0.285715
3401.5 7.28571
3402.5 9.57143
3403.5 1.57143
3404.5 11.2857
3405.5 5.57143
3406.5 5.85714
3407.5 25.7143
3408.5 0.142857
3409.5 40.8571
3410.5 17.4286
3411.5 -16.2857
3412.5 18
3413.5 7.71429
3414.5 30.8571
3415.5 12.8571
3416.5 7.71429
3417.5 12.8571
3418.5 0.285714
3419.5 5
3420.5 35.5714
3421.5 11.2857
3422.5 11.4286
3423.5 40.8571
3424.5 -1.14286
3425.5 8.28571
3426.5 -47.5714
3427.5 -73.8571
3428.5 -108.286
3429.5 -111.429
3430.5 -58.5714
3431.5 -34.5714
3432.5 13.8571
3433.5 21.2857
3434.5 -3.85714
3435.5 9
3436.5 23.7143
3437.5 21.2857
3438.5 7.71429
3439.5 21.2857
3440.5 -15.5714
3441.5 28.2857
3442.5 25.5714
3443.5 8
3444.5 -3.14286
3445.5 -35.8571
3446.5 27.7143
3447.5 -13.8571
3448.5 -77.1429
3449.5 -6.14287
3450.5 -103.714
3451.5 -71.2857
3452.5 -22.2857
3453.5 12.2857
3454.5 10.2857
3455.5 3.85714
3456.5 11.5714
3457.5 28.1429
3458.5 1.14286
3459.5 -9.28572
3460.5 32
3461.5 4
3462.5 42.1429
3463.5 10
3464.5 21
3465.5 1.42857
3466.5 23.5714
3467.5 19.2857
3468.5 11.4286
3469.5 -1
3470.5 11.8571
3471.5 31.7143
3472.5 21.2857
3473.5 12
3474.5 31.5714
3475.5 16.7143
3476.5 6
3477.5 15.8571
3478.5 14.8571
3479.5 13.1429
3480.5 -12.2857
3481.5 29.1429
3482.5 0.857142
3483.5 14.5714
3484.5 -7.71429
3485.5 8.57143
3486.5 32
3487.5 22.7143
3488.5 40
3489.5 20.1429
3490.5 -22.2857
3491.5 19.1429
3492.5 20.2857
3493.5 41.7143
3494.5 17.5714
3495.5 2.42857
3496.5 6
3497.5 14.5714
3498.5 15.2857
3499.5 8.71429
3500.5 28.5714
3501.5 28
3502.5 17.7143
3503.5 19.4286
3504.5 10.8571
3505.5 14.1429
3506.5 30.7143
3507.5 5.28571
3508.5 21.8571
3509.5 -2.71429
3510.5 16.8571
3511.5 9.28571
3512.5 31
3513.5 18.7143
3514.5 10.7143
3515.5 17.5714
3516.5 30.1429
3517.5 19
3518.5 24.4286
3519.5 19.1429
3520.5 20.4286
3521.5 -17.2857
3522.5 30.4286
3523.5 24.1429
3524.5 21.5714
3525.5 3
3526.5 6.85714
3527.5 32.4286
3528.5 32.5714
3529.5 3.71429
3530.5 22.2857
3531.5 7
3532.5 15.2857
3533.5 -48.5714
3534.5 24.4286
3535.5 31
3536.5 -5.71429
3537.5 13.1429
3538.5 8.57143
3539.5 7.85714
3540.5 5.28571
3541.5 2.57143
3542.5 17.4286
3543.5 -9
3544.5 27.2857
3545.5 8.57143
3546.5 -0.285715
3547.5 23.5714
3548.5 10.2857
3549.5 17.4286
3550.5 -15.7143
3551.5 17.1429
3552.5 2
3553.5 12.8571
3554.5 6.14286
3555.5 20.1429
3556.5 11.8571
3557.5 0.428571
3558.5 0.428571
3559.5 17.5714
3560.5 7.71429
3561.5 -0.571429
3562.5 15.2857
3563.5 16.7143
3564.5 13
3565.5 -5.57143
3566.5 6.71429
3567.5 11
3568.5 9.85714
3569.5 9
3570.5 -2
3571.5 1.42857
3572.5 25.5714
3573.5 27.4286
3574.5 0.714285
3575.5 13.1429
3576.5 6.42857
3577.5 9.85714
3578.5 -7.15256e-07
3579.5 1.28571
3580.5 -5.28572
3581.5 34.7143
3582.5 7.42857
3583.5 15
3584.5 -6.85714
3585.5 5.57143
3586.5 8.57143
3587.5 9.28571
3588.5 -7.14286
3589.5 16.7143
3590.5 17.7143
3591.5 20.1429
3592.5 18.7143
3593.5 3.28571
3594.5 6.85714
3595.5 24.7143
3596.5 7.42857
3597.5 10
3598.5 -8.71429
3599.5 19.8571
3600.5 -7
3601.5 -7.57143
3602.5 10
3603.5 9.14286
3604.5 22.7143
3605.5 9.57143
3606.5 10.8571
3607.5 -2.14286
3608.5 7.28571
3609.5 24.2857
3610.5 8.85714
3611.5 24.8571
3612.5 -19.5714
3613.5 11.1429
3614.5 19.4286
3615.5 -16.4286
3616.5 11.8571
3617.5 28
3618.5 31.5714
3619.5 6.42857
3620.5 -0.857144
3621.5 6
3622.5 24.8571
3623.5 5.42857
3624.5 18.7143
3625.5 13.8571
3626.5 9.57143
3627.5 21.4286
3628.5 16.4286
3629.5 21.1429
3630.5 23.1429
3631.5 13
3632.5 8.28571
3633.5 7.85714
3634.5 14.1429
3635.5 15.1429
3636.5 6.42857
3637.5 22.4286
3638.5 23.2857
3639.5 14.2857
3640.5 13.8571
3641.5 -8.28571
3642.5 -10
3643.5 31.2857
3644.5 -13.8571
3645.5 13.8571
3646.5 20.1429
3647.5 19.4286
3648.5 24.7143
3649.5 10.8571
3650.5 11
3651.5 15.2857
3652.5 14.7143
3653.5 3.28571
3654.5 20.4286
3655.5 12.2857
3656.5 13.5714
3657.5 34
3658.5 12.4286
3659.5 22
3660.5 12.7143
3661.5 -7.28572
3662.5 2.57143
3663.5 19
3664.5 10.7143
3665.5 -8.42857
3666.5 14.5714
3667.5 22.5714
3668.5 19.4286
3669.5 17.5714
3670.5 32.2857
3671.5 41.1429
3672.5 47.8571
3673.5 32.5714
3674.5 56.2857
3675.5 59
3676.5 46.1429
3677.5 19.8571
3678.5 45.1429
3679.5 59
3680.5 83
3681.5 136
3682.5 171.571
3683.5 196.571
3684.5 171
3685.5 164.429
3686.5 110
3687.5 94.1429
3688.5 63.1429
3689.5 27.5714
3690.5 7.71429
3691.5 7.85714
3692.5 16.5714
3693.5 -1.71429
3694.5 12.8571
3695.5 9.57143
3696.5 -4.42857
3697.5 12.7143
3698.5 4.71429
3699.5 16.2857
3700.5 21
3701.5 14.5714
3702.5 -1
3703.5 -1.57143
3704.5 -0.285715
3705.5 2
3706.5 6.14286
3707.5 18.7143
3708.5 -0.142858
3709.5 26.7143
3710.5 -6.28571
3711.5 17
3712.5 -3.42857
3713.5 -9.71429
3714.5 5.57143
3715.5 22.8571
3716.5 8.28571
3717.5 4.57143
3718.5 9.71429
3719.5 3.85714
3720.5 14.5714
3721.5 27.1429
3722.5 12.2857
3723.5 15.2857
3724.5 9.71429
3725.5 4.85714
3726.5 24.4286
3727.5 -1.71429
3728.5 22.4286
3729.5 5.14286
3730.5 4.85714
3731.5 13.4286
3732.5 1
3733.5 23
3734.5 17.1429
3735.5 18.1429
3736.5 15.2857
3737.5 -18.1429
3738.5 0.714285
3739.5 2.57143
3740.5 -6.42857
3741.5 23
3742.5 40.1429
3743.5 35.8571
3744.5 22.1429
3745.5 34
3746.5 20.5714
3747.5 7.28571
3748.5 17
3749.5 5.28571
3750.5 28.2857
3751.5 19.7143
3752.5 15
3753.5 6.42857
3754.5 7.85714
3755.5 3.85714
3756.5 -5.85714
3757.5 11.5714
3758.5 1.71429
3759.5 11.5714
3760.5 11.4286
3761.5 7
3762.5 29.8571
3763.5 8.14286
3764.5 6.14286
3765.5 21.2857
3766.5 13.5714
3767.5 0.714285
3768.5 4.42857
3769.5 12.8571
3770.5 7.71429
3771.5 11.7143
3772.5 -1.57143
3773.5 -1.42857
3774.5 17.1429
3775.5 21.7143
3776.5 34.5714
3777.5 -0.142858
3778.5 22.2857
3779.5 15.5714
3780.5 19.8571
3781.5 16.1429
3782.5 31
3783.5 47.8571
3784.5 73
3785.5 89.5714
3786.5 103.714
3787.5 100.714
3788.5 79.8571
3789.5 79.1429
3790.5 53.2857
3791.5 66
3792.5 33.5714
3793.5 33.1429
3794.5 1.28571
3795.5 12.2857
3796.5 8.57143
3797.5 12
3798.5 13.8571
3799.5 26.5714
3800.5 -1.85714
3801.5 17.1429
3802.5 -1.85714
3803.5 16.5714
3804.5 8.57143
3805.5 -0.428572
3806.5 10.1429
3807.5 24.5714
3808.5 23.2857
3809.5 -1.71429
3810.5 6.28571
3811.5 7.28571
3812.5 -0.142858
3813.5 -10.2857
3814.5 19.5714
3815.5 26.7143
3816.5 22
3817.5 19.5714
3818.5 -0.142858
3819.5 15.4286
3820.5 -6.14286
3821.5 8.85714
3822.5 28.4286
3823.5 10.8571
3824.5 -11.2857
3825.5 39.4286
3826.5 5.57143
3827.5 12.2857
3828.5 20.1429
3829.5 9.14286
3830.5 -3.57143
3831.5 12.7143
3832.5 16
3833.5 13.2857
3834.5 3.42857
3835.5 14.4286
3836.5 4.71429
3837.5 6.71429
3838.5 2.71429
3839.5 10.8571
3840.5 8.71429
3841.5 14.1429
3842.5 6.71429
3843.5 -17.4286
3844.5 26.5714
3845.5 20.4286
3846.5 -5.42857
3847.5 25.8571
3848.5 3.42857
3849.5 40.5714
3850.5 2
3851.5 9.85714
3852.5 1.14286
3853.5 -4.71429
3854.5 4.28571
3855.5 12.7143
3856.5 12.5714
3857.5 16
3858.5 14
3859.5 12.1429
3860.5 10.8571
3861.5 13.7143
3862.5 30.8571
3863.5 8
3864.5 1.57143
3865.5 7
3866.5 22.4286
3867.5 35.2857
3868.5 7.85714
3869.5 10.1429
3870.5 20.2857
3871.5 2.85714
3872.5 22
3873.5 23.7143
3874.5 7.42857
3875.5 19
3876.5 1.28571
3877.5 18.1429
3878.5 14.4286
3879.5 23.7143
3880.5 25.7143
3881.5 12.2857
3882.5 -1.85714
3883.5 11.5714
3884.5 26.5714
3885.5 5
3886.5 24.2857
3887.5 34.7143
3888.5 8.14286
3889.5 14.5714
3890.5 22.1429
3891.5 9.57143
3892.5 27.1429
3893.5 11.4286
3894.5 6.57143
3895.5 6.14286
3896.5 16.8571
3897.5 14
3898.5 -2.14286
3899.5 18.7143
3900.5 24.8571
3901.5 1.28571
3902.5 26.2857
3903.5 3.57143
3904.5 28.4286
3905.5 -4
3906.5 -1
3907.5 6.57143
3908.5 14.5714
3909.5 7.14286
3910.5 21.7143
3911.5 11.4286
3912.5 12.5714
3913.5 6
3914.5 -5.85714
3915.5 39.2857
3916.5 12.2857
3917.5 13.1429
3918.5 5.57143
3919.5 9.85714
3920.5 0.571428
3921.5 3
3922.5 8.57143
3923.5 9.85714
3924.5 25.5714
3925.5 15
3926.5 5.57143
3927.5 7.57143
3928.5 9.42857
3929.5 -1.71429
3930.5 14.2857
3931.5 -5
3932.5 7.42857
3933.5 18.1429
3934.5 28.7143
3935.5 21.2857
3936.5 5
3937.5 19.5714
3938.5 16.2857
3939.5 9.14286
3940.5 20.4286
3941.5 11
3942.5 17
3943.5 11.1429
3944.5 25.7143
3945.5 2.14286
3946.5 19.5714
3947.5 27.2857
3948.5 15.4286
3949.5 7.14286
3950.5 8.71429
3951.5 19.5714
3952.5 7
3953.5 8.57143
3954.5 11
3955.5 12.8571
3956.5 0.285714
3957.5 15.1429
3958.5 -4.57143
3959.5 5.14286
3960.5 19.8571
3961.5 26.2857
3962.5 25.7143
3963.5 23.4286
3964.5 -3.14286
3965.5 26.5714
3966.5 -13.5714
3967.5 27.4286
3968.5 42.2857
3969.5 -4.42857
3970.5 49.8571
3971.5 15.8571
3972.5 -5.14286
3973.5 -3.33786e-06
3974.5 38.5714
3975.5 11.1429
3976.5 16.2857
3977.5 17.8571
3978.5 8.28571
3979.5 21
3980.5 1.42857
3981.5 6.28571
3982.5 -4
3983.5 8.71429
3984.5 -1.57143
3985.5 16.5714
3986.5 4.14286
3987.5 25.1429
3988.5 25.8571
3989.5 8.71429
3990.5 -2.57143
3991.5 8.85714
3992.5 27.7143
3993.5 4.57143
3994.5 1.14286
3995.5 28.2857
3996.5 17.4286
3997.5 9.57143
3998.5 9.71429
3999.5 18.4286
4000.5 8.14286
4001.5 12.8571
4002.5 16
4003.5 2.71429
4004.5 10.7143
4005.5 15.4286
4006.5 7.57143
4007.5 12.5714
4008.5 14.8571
4009.5 9.57143
4010.5 13
4011.5 10.5714
4012.5 14.5714
4013.5 19.8571
4014.5 9.42857
4015.5 -1.85714
4016.5 3.14286
4017.5 1.57143
4018.5 7.42857
4019.5 7.28571
4020.5 20.4286
4021.5 11.7143
4022.5 15.5714
4023.5 15.5714
4024.5 10.5714
4025.5 -1
4026.5 19.8571
4027.5 12
4028.5 1.42857
4029.5 18.4286
4030.5 -5.14286
4031.5 20
4032.5 14.5714
4033.5 15.4286
4034.5 20.2857
4035.5 25.5714
4036.5 41.8571
4037.5 4
4038.5 5.14286
4039.5 19.8571
4040.5 25.7143
4041.5 28.7143
4042.5 7.71429
4043.5 5.14286
4044.5 21
4045.5 15.5714
4046.5 9
4047.5 4.85714
4048.5 12
4049.5 13.4286
4050.5 8.14286
4051.5 19
4052.5 22
4053.5 21
4054.5 27.2857
4055.5 12
4056.5 4
4057.5 7.57143
4058.5 19
4059.5 12
4060.5 13.1429
4061.5 17.4286
4062.5 10.4286
4063.5 17.7143
4064.5 15.8571
4065.5 1.85714
4066.5 21.1429
4067.5 0.142857
4068.5 8.28571
4069.5 -1.14286
4070.5 21.1429
4071.5 29
4072.5 28.1429
4073.5 -0.857143
4074.5 20.5714
4075.5 38.7143
4076.5 18.2857
4077.5 27.8571
4078.5 17.8571
4079.5 9.28571
4080.5 15.2857
4081.5 14.7143
4082.5 8.85714
4083.5 -0.285715
4084.5 -1.71429
4085.5 15.4286
4086.5 12.1429
4087.5 8
4088.5 16.4286
4089.5 1.28571
4090.5 14.4286
4091.5 20.4286
4092.5 13.4286
4093.5 10
4094.5 11.5714
4095.5 30.1429
4096.5 15.2857
4097.5 13.8571
4098.5 23.2857
4099.5 6.85714
4100.5 14.4286
4101.5 15.5714
4102.5 0.571428
4103.5 30.1429
4104.5 12.2857
4105.5 18
4106.5 20.4286
4107.5 10
4108.5 -1.28571
4109.5 23.8571
4110.5 16.5714
4111.5 18.1429
4112.5 9.57143
4113.5 21.7143
4114.5 25.1429
4115.5 15.4286
4116.5 35.8571
4117.5 19.5714
4118.5 36.5714
4119.5 17.1429
4120.5 21.8571
4121.5 17
4122.5 -2.14286
4123.5 2.14286
4124.5 13.8571
4125.5 12
4126.5 24.7143
4127.5 7.71429
4128.5 4.85714
4129.5 6.71429
4130.5 12.8571
4131.5 5.71429
4132.5 2.42857
4133.5 5.14286
4134.5 4
4135.5 37.4286
4136.5 22.4286
4137.5 16.8571
4138.5 39.5714
4139.5 2
4140.5 23.8571
4141.5 13
4142.5 9.28571
4143.5 14
4144.5 5.71429
4145.5 20.8571
4146.5 26.7143
4147.5 12
4148.5 -3.14286
4149.5 15.5714
4150.5 1.71429
4151.5 25.7143
4152.5 8.14286
4153.5 0.571428
4154.5 10.8571
4155.5 9.42857
4156.5 11.4286
4157.5 11.5714
4158.5 23.2857
4159.5 10.8571
4160.5 10.2857
4161.5 18.4286
4162.5 20.4286
4163.5 0.857142
4164.5 -8.42857
4165.5 4.57143
4166.5 29.4286
4167.5 32.7143
4168.5 14.5714
4169.5 32.4286
4170.5 1.42857
4171.5 15.8571
4172.5 9.85714
4173.5 17
4174.5 13
4175.5 20.2857
4176.5 8.14286
4177.5 5.28571
4178.5 12.4286
4179.5 9.57143
4180.5 11
4181.5 10.5714
4182.5 7.14286
4183.5 12
4184.5 8.85714
4185.5 27
4186.5 -1.14286
4187.5 12.5714
4188.5 11.2857
4189.5 16.2857
4190.5 19
4191.5 16.5714
4192.5 5
4193.5 6.14286
4194.5 9.57143
4195.5 9
4196.5 -1.28571
4197.5 2.71429
4198.5 10.4286
4199.5 15.1429
4200.5 -2.38419e-07
4201.5 8.28571
4202.5 14.8571
4203.5 -3.85714
4204.5 14.4286
4205.5 14
4206.5 -12.7143
4207.5 16.5714
4208.5 2.14286
4209.5 18.8571
4210.5 -10.2857
4211.5 7
4212.5 -5.42857
4213.5 20.1429
4214.5 8.85714
4215.5 6.14286
4216.5 4.85714
4217.5 -44.2857
4218.5 11.7143
4219.5 7
4220.5 23.8571
4221.5 16.1429
4222.5 12.8571
4223.5 19.2857
4224.5 0.714285
4225.5 2.57143
4226.5 15.4286
4227.5 10
4228.5 2.57143
4229.5 11.2857
4230.5 8.42857
4231.5 6.42857
4232.5 -3.14286
4233.5 1.57143
4234.5 8.57143
4235.5 2.57143
4236.5 14.7143
4237.5 9.57143
4238.5 3.85714
4239.5 2.71429
4240.5 2.57143
4241.5 13.4286
4242.5 2.57143
4243.5 4.14286
4244.5 6.14286
4245.5 16.8571
4246.5 6.57143
4247.5 2.71429
4248.5 -2.38419e-07
4249.5 12.4286
4250.5 15.8571
4251.5 10.8571
4252.5 11
4253.5 6.42857
4254.5 11.7143
4255.5 5.42857
4256.5 -3.85714
4257.5 0.571428
4258.5 11.8571
4259.5 22.1429
4260.5 22.5714
4261.5 4.28571
4262.5 25.5714
4263.5 22.1429
4264.5 -4.42857
4265.5 36.1429
4266.5 15
4267.5 16.8571
4268.5 5.14286
4269.5 11
4270.5 -10.7143
4271.5 13.1429
4272.5 6.85714
4273.5 12.7143
4274.5 11.2857
4275.5 3.42857
4276.5 6.14286
4277.5 14.8571
4278.5 2.57143
4279.5 20.7143
4280.5 -3.14286
4281.5 15
4282.5 12.8571
4283.5 19.1429
4284.5 18.5714
4285.5 18.7143
4286.5 -5.71429
4287.5 17
4288.5 22.8571
4289.5 28.8571
4290.5 27.4286
4291.5 32
4292.5 48.7143
4293.5 92.7143
4294.5 147.571
4295.5 217.857
4296.5 226.714
4297.5 236.429
4298.5 220.714
4299.5 273.714
4300.5 254.857
4301.5 259.429
4302.5 212.857
4303.5 131.857
4304.5 82.4286
4305.5 33.5714
4306.5 16.4286
4307.5 12
4308.5 21.7143
4309.5 14.7143
4310.5 6.85714
4311.5 8.57143
4312.5 -3.85714
4313.5 11.5714
4314.5 12.4286
4315.5 -2.71429
4316.5 -24.8571
4317.5 -7.85714
4318.5 -13.7143
4319.5 -17.7143
4320.5 -3
4321.5 12.1429
4322.5 4
4323.5 24.1429
4324.5 10.2857
4325.5 12.2857
4326.5 21.1429
4327.5 7
4328.5 18.7143
4329.5 10.2857
4330.5 12.2857
4331.5 14.7143
4332.5 7
4333.5 11.2857
4334.5 6
4335.5 3.57143
4336.5 13.7143
4337.5 4.85714
4338.5 13.8571
4339.5 7.85714
4340.5 11.4286
4341.5 1
4342.5 13
4343.5 20
4344.5 22
4345.5 0.857142
4346.5 2.85714
4347.5 11.5714
4348.5 9.71429
4349.5 10.8571
4350.5 9.85714
4351.5 -1.85714
4352.5 12.2857
4353.5 8.14286
4354.5 21.5714
4355.5 0.428571
4356.5 0.571428
4357.5 16.8571
4358.5 14.7143
4359.5 20
4360.5 -2.85714
4361.5 19.5714
4362.5 15.2857
4363.5 15.7143
4364.5 1.42857
4365.5 12.7143
4366.5 12.7143
4367.5 16.4286
4368.5 17.2857
4369.5 8.85714
4370.5 9.28571
4371.5 8.85714
4372.5 2.14286
4373.5 14.4286
4374.5 -2.28571
4375.5 11.4286
4376.5 20.8571
4377.5 -6.28571
4378.5 11.4286
4379.5 11.4286
4380.5 22.4286
4381.5 18.8571
4382.5 -12.2857
4383.5 14.7143
4384.5 13.8571
4385.5 21.8571
4386.5 1.28571
4387.5 10.1429
4388.5 14.8571
4389.5 0.142857
4390.5 7.71429
4391.5 3.57143
4392.5 17.1429
4393.5 -0.857143
4394.5 24.7143
4395.5 22.4286
4396.5 13
4397.5 13.8571
4398.5 10.7143
4399.5 9.28571
4400.5 7.57143
4401.5 9.85714
4402.5 11.1429
4403.5 2.42857
4404.5 -4.28571
4405.5 8.85714
4406.5 13.4286
4407.5 1.85714
4408.5 9.28571
4409.5 10.4286
4410.5 6.71429
4411.5 16.7143
4412.5 11.1429
4413.5 11.2857
4414.5 9.42857
4415.5 13.7143
4416.5 16.7143
4417.5 13.2857
4418.5 10.7143
4419.5 11.4286
4420.5 20.1429
4421.5 8.71429
4422.5 10.8571
4423.5 9.14286
4424.5 4.85714
4425.5 9.14286
4426.5 15.2857
4427.5 22.7143
4428.5 12.2857
4429.5 2
4430.5 15.2857
4431.5 0.428571
4432.5 21.7143
4433.5 -28.7143
4434.5 -3.57143
4435.5 39
4436.5 10.4286
4437.5 25.8571
4438.5 47.1429
4439.5 31
4440.5 6.57143
4441.5 10.4286
4442.5 3
4443.5 8.85714
4444.5 14.2857
4445.5 -1.14286
4446.5 20.1429
4447.5 11.5714
4448.5 7.71429
4449.5 7.28571
4450.5 -5.28571
4451.5 4.42857
4452.5 11.2857
4453.5 9.85714
4454.5 17.8571
4455.5 21.7143
4456.5 6.85714
4457.5 26.2857
4458.5 23.8571
4459.5 25.7143
4460.5 8.42857
4461.5 9
4462.5 1.42857
4463.5 13.1429
4464.5 23.5714
4465.5 -1.42857
4466.5 4.14286
4467.5 10.8571
4468.5 9.28571
4469.5 3.71429
4470.5 12.1429
4471.5 4.85714
4472.5 18.1429
4473.5 5
4474.5 12.1429
4475.5 15.5714
4476.5 7.42857
4477.5 12.2857
4478.5 14.2857
4479.5 14.1429
4480.5 10.7143
4481.5 9.28571
4482.5 22.1429
4483.5 14.1429
4484.5 9.71429
4485.5 9.85714
4486.5 2.57143
4487.5 21.5714
4488.5 0.571428
4489.5 6.85714
4490.5 13.7143
4491.5 11.4286
4492.5 -3.85714
4493.5 10.1429
4494.5 7.85714
4495.5 6.28571
4496.5 24.4286
4497.5 15.5714
4498.5 18.8571
4499.5 21.8571
4500.5 13.1429
4501.5 -11
4502.5 2.28571
4503.5 17.1429
4504.5 0.857142
4505.5 10.8571
4506.5 0.571428
4507.5 8.71429
4508.5 15.7143
4509.5 12.2857
4510.5 12.1429
4511.5 10.7143
4512.5 13.1429
4513.5 -7.85714
4514.5 18.1429
4515.5 11.8571
4516.5 14.2857
4517.5 17.2857
4518.5 7.28571
4519.5 17.2857
4520.5 16.5714
4521.5 19.1429
4522.5 13.1429
4523.5 12.4286
4524.5 17.5714
4525.5 9.85714
4526.5 8.42857
4527.5 13.1429
4528.5 -0.571429
4529.5 18.1429
4530.5 11.5714
4531.5 12.1429
4532.5 21.5714
4533.5 16.1429
4534.5 16.5714
4535.5 12.7143
4536.5 13.8571
4537.5 6.71429
4538.5 2.57143
4539.5 8.85714
4540.5 21.1429
4541.5 18.5714
4542.5 15.1429
4543.5 14.1429
4544.5 17.5714
4545.5 24.5714
4546.5 13.7143
4547.5 10.1429
4548.5 22.5714
4549.5 12.8571
4550.5 1.85714
4551.5 15.1429
4552.5 20.7143
4553.5 22.4286
4554.5 9
4555.5 19.7143
4556.5 20.8571
4557.5 8.57143
4558.5 7
4559.5 8.71429
4560.5 17.7143
4561.5 23.5714
4562.5 16.1429
4563.5 -5.42857
4564.5 -1.57143
4565.5 16.5714
4566.5 9.85714
4567.5 23.7143
4568.5 12.2857
4569.5 10.8571
4570.5 22.7143
4571.5 23.1429
4572.5 -6.42857
4573.5 27.2857
4574.5 6.28571
4575.5 -21.2857
4576.5 37.1429
4577.5 -3.28572
4578.5 -18
4579.5 15.1429
4580.5 12
4581.5 4.57143
4582.5 23.1429
4583.5 15.7143
4584.5 23.2857
4585.5 38.5714
4586.5 25.7143
4587.5 44
4588.5 26.7143
4589.5 16.1429
4590.5 22
4591.5 21.5714
4592.5 12.7143
4593.5 7.14286
4594.5 11.1429
4595.5 6.71429
4596.5 7.14286
4597.5 9.85714
4598.5 12.2857
4599.5 9.85714
4600.5 14.1429
4601.5 7.14286
4602.5 10.5714
4603.5 16.5714
4604.5 3.85714
4605.5 14.1429
4606.5 12.5714
4607.5 6.71429
4608.5 11.2857
4609.5 1.42857
4610.5 12.7143
4611.5 9.71429
4612.5 20.2857
4613.5 10.4286
4614.5 0.285714
4615.5 35.1429
4616.5 -4.85714
4617.5 39.4286
4618.5 43
4619.5 30.7143
4620.5 5.57143
4621.5 10.5714
4622.5 -5.71429
4623.5 33.2857
4624.5 6.71428
4625.5 10.5714
4626.5 31.8571
4627.5 34
4628.5 17
4629.5 2.14286
4630.5 19
4631.5 7.71429
4632.5 13.5714
4633.5 8.14286
4634.5 9.71429
4635.5 2.28571
4636.5 17.5714
4637.5 9.28571
4638.5 20.1429
4639.5 11.2857
4640.5 7.42857
4641.5 10.8571
4642.5 13.7143
4643.5 10.1429
4644.5 9.28571
4645.5 9
4646.5 18.5714
4647.5 9.42857
4648.5 17.7143
4649.5 34.2857
4650.5 9.85714
4651.5 32.1429
4652.5 32.8571
4653.5 7.85714
4654.5 4
4655.5 -0.142857
4656.5 11.1429
4657.5 -2.57143
4658.5 8.14286
4659.5 14.7143
4660.5 7.14286
4661.5 8.57143
4662.5 3.57143
4663.5 8
4664.5 6.71429
4665.5 8.71429
4666.5 17
4667.5 5.57143
4668.5 8.14286
4669.5 13.5714
4670.5 0.714286
4671.5 7.14286
4672.5 6.14286
4673.5 8.71429
4674.5 10.1429
4675.5 4.85714
4676.5 9
4677.5 8.71429
4678.5 6.14286
4679.5 4.57143
4680.5 11
4681.5 4.85714
4682.5 0.857143
4683.5 1
4684.5 19.7143
4685.5 2.14286
4686.5 9.57143
4687.5 -2.28571
4688.5 0.142857
4689.5 4.28571
4690.5 14.1429
4691.5 6.14286
4692.5 9.14286
4693.5 8.14286
4694.5 8
4695.5 5.57143
4696.5 2.71429
4697.5 11
4698.5 4.71429
4699.5 6.57143
4700.5 15
4701.5 6.14286
4702.5 5.14286
4703.5 5.71429
4704.5 5
4705.5 3.14286
4706.5 1.14286
4707.5 7.57143
4708.5 4.57143
4709.5 8.14286
4710.5 -2.71429
4711.5 12
4712.5 -4.71429
4713.5 4.71429
4714.5 -6.14286
4715.5 6.14286
4716.5 1.57143
4717.5 3.14286
4718.5 10
4719.5 0.714286
4720.5 -0.428571
4721.5 7.57143
4722.5 5.57143
4723.5 8.57143
4724.5 11.5714
4725.5 -1.71429
4726.5 8.28571
4727.5 2.14286
4728.5 2.57143
4729.5 2.71429
4730.5 0.285714
4731.5 2.28571
4732.5 -1.71429
4733.5 -2.14286
4734.5 11.4286
4735.5 4.28571
4736.5 7.71429
4737.5 3.14286
4738.5 4.14286
4739.5 4.57143
4740.5 8.57143
4741.5 7
4742.5 -2.28571
4743.5 2.71429
4744.5 -0.714286
4745.5 -1.71429
4746.5 6.57143
4747.5 3.14286
4748.5 5.57143
4749.5 2.14286
4750.5 3.14286
4751.5 10.1429
4752.5 -0.285714
4753.5 14
4754.5 5.57143
4755.5 -0.857143
4756.5 1.71429
4757.5 8.57143
4758.5 10.5714
4759.5 0.714286
4760.5 -2.14286
4761.5 4.14286
4762.5 4.14286
4763.5 9
4764.5 4.57143
4765.5 7.57143
4766.5 4.57143
4767.5 6.57143
4768.5 2.57143
4769.5 4.71429
4770.5 0.285714
4771.5 4.14286
4772.5 0.285714
4773.5 -3.14286
4774.5 3.71429
4775.5 6.71429
4776.5 -8.42857
4777.5 4.42857
4778.5 1.85714
4779.5 3.28571
4780.5 6.14286
4781.5 -8.57143
4782.5 9.14286
4783.5 0.714286
4784.5 -1.28571
4785.5 -0.857143
4786.5 -1.71429
4787.5 -1.85714
4788.5 2.71429
4789.5 6
4790.5 0.714286
4791.5 9
4792.5 2.71429
4793.5 6.57143
4794.5 4.28571
4795.5 11.5714
4796.5 13
4797.5 12
4798.5 9.71429
4799.5 13.1429
4800.5 11.1429
4801.5 35.5714
4802.5 81.5714
4803.5 191.143
4804.5 248.286
4805.5 444
4806.5 571
4807.5 679.714
4808.5 547.143
4809.5 368.857
4810.5 165.714
4811.5 56.8571
4812.5 62.7143
4813.5 64.1429
4814.5 65.7143
4815.5 63.2857
4816.5 39
4817.5 32.7143
4818.5 0.285714
4819.5 1.71429
4820.5 8.57143
4821.5 8
4822.5 -0.857143
4823.5 -5.28571
4824.5 3
4825.5 -3.28571
4826.5 -1.85714
4827.5 -0.428571
4828.5 0.142857
4829.5 3
4830.5 2.57143
4831.5 0.571429
4832.5 -4.28571
4833.5 -2.28571
4834.5 6
4835.5 0.142857
4836.5 0.142857
4837.5 -0.285714
4838.5 0.142857
4839.5 5.57143
4840.5 -0.857143
4841.5 7.57143
4842.5 4.14286
4843.5 -3.71429
4844.5 2.71429
4845.5 -0.142857
4846.5 -0.857143
4847.5 5
4848.5 -7.71429
4849.5 -0.428571
4850.5 0.571429
4851.5 5.57143
4852.5 7
4853.5 -2.85714
4854.5 5.57143
4855.5 1.14286
4856.5 1.57143
4857.5 1.14286
4858.5 -2.85714
4859.5 -1.42857
4860.5 5
4861.5 3.57143
4862.5 -7.14286
4863.5 3.14286
4864.5 -2.85714
4865.5 3.57143
4866.5 2
4867.5 -2.85714
4868.5 7
4869.5 4
4870.5 6
4871.5 -2.85714
4872.5 -0.857143
4873.5 1.14286
4874.5 2.57143
4875.5 4.57143
4876.5 -2.85714
4877.5 -2.28571
4878.5 0.142857
4879.5 0.142857
4880.5 -1.85714
4881.5 5.57143
4882.5 7.14286
4883.5 -4.28571
4884.5 4.28571
4885.5 0.285714
4886.5 -3.14286
4887.5 -1.28571
4888.5 -3.28571
4889.5 -0.857143
4890.5 -2.28571
4891.5 4.57143
4892.5 1.14286
4893.5 4.57143
4894.5 6
4895.5 -6.28571
4896.5 -0.857143
4897.5 5.57143
4898.5 -5.71429
4899.5 -0.428571
4900.5 0.142857
4901.5 0.571429
4902.5 1.14286
4903.5 7.14286
4904.5 2.57143
4905.5 9
4906.5 0.142857
4907.5 1.57143
4908.5 6
4909.5 5
4910.5 4.57143
4911.5 1.57143
4912.5 8
4913.5 2.14286
4914.5 0.571429
4915.5 1.14286
4916.5 -4.71429
4917.5 -0.857143
4918.5 3
4919.5 -3.28571
4920.5 -1.28571
4921.5 2.14286
4922.5 6
4923.5 6
4924.5 5.57143
4925.5 0.571429
4926.5 1.57143
4927.5 3.57143
4928.5 -3.28571
4929.5 5.57143
4930.5 -0.285714
4931.5 -0.428571
4932.5 4
4933.5 9
4934.5 -0.857143
4935.5 5
4936.5 2
4937.5 2
4938.5 0.571429
4939.5 4
4940.5 5.14286
4941.5 -0.428571
4942.5 -4.71429
4943.5 1.57143
4944.5 4.57143
4945.5 9
4946.5 1.14286
4947.5 7
4948.5 2.14286
4949.5 2
4950.5 4.57143
4951.5 -0.428571
4952.5 2
4953.5 2.57143
4954.5 -2.71429
4955.5 2.57143
4956.5 1.57143
4957.5 0.142857
4958.5 -2.85714
4959.5 1.57143
4960.5 1.57143
4961.5 1.57143
4962.5 2
4963.5 4
4964.5 2.57143
4965.5 2.57143
4966.5 0.571429
4967.5 -1.85714
4968.5 -1.85714
4969.5 3
4970.5 6
4971.5 3.57143
4972.5 2
4973.5 3
4974.5 -2.85714
4975.5 -2.28571
4976.5 1.14286
4977.5 -4.85714
4978.5 3.57143
4979.5 1.14286
4980.5 8
4981.5 3
4982.5 -0.285714
4983.5 -12.5714
4984.5 1.57143
4985.5 -7.14286
4986.5 2.57143
4987.5 2.14286
4988.5 -6.28571
4989.5 -0.428571
4990.5 -0.857143
4991.5 1.57143
4992.5 0.571429
4993.5 1.57143
4994.5 -10.1429
4995.5 4.57143
4996.5 4
4997.5 1.57143
4998.5 4.57143
4999.5 -0.428571
5000.5 1.57143
5001.5 1.57143
5002.5 -3.28571
5003.5 -2.28571
5004.5 -0.857143
5005.5 -0.857143
5006.5 -2.71429
5007.5 4.57143
5008.5 -2.28571
5009.5 6
5010.5 3.14286
5011.5 3.57143
5012.5 -2.71429
5013.5 -0.857143
5014.5 6
5015.5 1.71429
5016.5 1.57143
5017.5 -1.85714
5018.5 8
5019.5 8
5020.5 -8.71429
5021.5 13
5022.5 5.14286
5023.5 7.14286
5024.5 2.14286
5025.5 6.14286
5026.5 4.14286
5027.5 1.14286
5028.5 13.1429
5029.5 -2.28571
5030.5 -2.28571
5031.5 14
5032.5 4.57143
5033.5 7.57143
5034.5 9.57143
5035.5 -0.285714
5036.5 0.571429
5037.5 2.14286
5038.5 -0.428571
5039.5 3.57143
5040.5 -2.42857
5041.5 2.57143
5042.5 4
5043.5 1.14286
5044.5 0.142857
5045.5 4.57143
5046.5 2
5047.5 -0.857143
5048.5 2
5049.5 -3.28571
5050.5 -6.71429
5051.5 -4.28571
5052.5 0.571429
5053.5 6
5054.5 1.57143
5055.5 6
5056.5 3
5057.5 5
5058.5 4.57143
5059.5 1.14286
5060.5 5
5061.5 3
5062.5 -4.28571
5063.5 -5.28571
5064.5 -0.857143
5065.5 -0.857143
5066.5 3.57143
5067.5 3.57143
5068.5 4.57143
5069.5 -1.28571
5070.5 1.57143
5071.5 4
5072.5 -2.85714
5073.5 1.57143
5074.5 0.571429
5075.5 -11.5714
5076.5 -1.42857
5077.5 -6.14286
5078.5 0.714286
5079.5 -2.28571
5080.5 -6.14286
5081.5 8
5082.5 -6.14286
5083.5 -2.71429
5084.5 2.57143
5085.5 1.14286
5086.5 2.14286
5087.5 5
5088.5 0.142857
5089.5 4.57143
5090.5 -1.28571
5091.5 4.57143
5092.5 -0.285714
5093.5 2.57143
5094.5 0.571429
5095.5 1.57143
5096.5 0.571429
5097.5 -0.285714
5098.5 -1.85714
5099.5 2.57143
5100.5 2.57143
5101.5 -0.285714
5102.5 1.57143
5103.5 0.571429
5104.5 1.71429
5105.5 1.14286
5106.5 8
5107.5 2.57143
5108.5 -0.857143
5109.5 0.571429
5110.5 -0.428571
5111.5 0.571429
5112.5 3
5113.5 3
5114.5 -0.857143
5115.5 4
5116.5 3.14286
5117.5 -3.71429
5118.5 3
5119.5 -0.857143
5120.5 -1.42857
5121.5 -0.857143
5122.5 4
5123.5 -7.28571
5124.5 2
5125.5 1.57143
5126.5 3.57143
5127.5 3
5128.5 1.57143
5129.5 0.571429
5130.5 -0.857143
5131.5 -0.857143
5132.5 3.57143
5133.5 -0.428571
5134.5 1.14286
5135.5 0.714286
5136.5 0.142857
5137.5 2
5138.5 1
5139.5 5
5140.5 -5.14286
5141.5 -2.85714
5142.5 -0.428571
5143.5 2.57143
5144.5 5
5145.5 -0.857143
5146.5 3
5147.5 -1.85714
5148.5 -3.28571
5149.5 -0.857143
5150.5 -8.57143
5151.5 5.57143
5152.5 -0.857143
5153.5 3
5154.5 -10.1429
5155.5 -3.85714
5156.5 3.57143
5157.5 -4.28571
5158.5 -2.85714
5159.5 1.57143
5160.5 2.57143
5161.5 -0.285714
5162.5 1.57143
5163.5 -0.714286
5164.5 4.14286
5165.5 1.57143
5166.5 -4.71429
5167.5 -1.42857
5168.5 5
5169.5 -0.428571
5170.5 -1.85714
5171.5 1.57143
5172.5 -6.71429
5173.5 3
5174.5 3
5175.5 4
5176.5 1.57143
5177.5 3.57143
5178.5 -1.85714
5179.5 -0.428571
5180.5 0.142857
5181.5 -3.85714
5182.5 1.57143
5183.5 -1.85714
5184.5 4.57143
5185.5 3.57143
5186.5 -1.85714
5187.5 -3.28571
5188.5 -0.428571
5189.5 0.571429
5190.5 7.57143
5191.5 1.57143
5192.5 4.57143
5193.5 5
5194.5 -1.71429
5195.5 2.57143
5196.5 7
5197.5 0.142857
5198.5 0.142857
5199.5 3.57143
5200.5 1.57143
5201.5 4
5202.5 -0.857143
5203.5 1
5204.5 -2.28571
5205.5 4
5206.5 1.57143
5207.5 -1.85714
5208.5 5
5209.5 3.57143
5210.5 -4.28571
5211.5 0.571429
5212.5 5.57143
5213.5 -1.42857
5214.5 3
5215.5 -1.85714
5216.5 4
5217.5 -0.857143
5218.5 2.14286
5219.5 -5.71429
5220.5 5
5221.5 3
5222.5 2.57143
5223.5 3.14286
5224.5 -2.28571
5225.5 6
5226.5 2.14286
5227.5 -2.85714
5228.5 -1.28571
5229.5 -6.71429
5230.5 -0.857143
5231.5 2.57143
5232.5 1.57143
5233.5 7
5234.5 0.571429
5235.5 4.57143
5236.5 3.57143
5237.5 -1.42857
5238.5 2.57143
5239.5 -8.71429
5240.5 0.142857
5241.5 0.571429
5242.5 1.57143
5243.5 1.28571
5244.5 0.714286
5245.5 -2.85714
5246.5 1.57143
5247.5 -3.28571
5248.5 -5.28571
5249.5 -2.85714
5250.5 -0.428571
5251.5 -7.71429
5252.5 3
5253.5 4
5254.5 -4.71429
5255.5 5.57143
5256.5 3.57143
5257.5 -4.85714
5258.5 5
5259.5 3.57143
5260.5 4.57143
5261.5 9
5262.5 0.142857
5263.5 -0.857143
5264.5 -0.428571
5265.5 -1.71429
5266.5 4.57143
5267.5 -6.14286
5268.5 2.14286
5269.5 4.57143
5270.5 2.14286
5271.5 -2.28571
5272.5 5
5273.5 1.57143
5274.5 -0.428571
5275.5 -4.85714
5276.5 -1.85714
5277.5 5
5278.5 1
5279.5 3.14286
5280.5 -2.85714
5281.5 -3.85714
5282.5 -1.42857
5283.5 -0.428571
5284.5 -0.857143
5285.5 2
5286.5 -0.857143
5287.5 0.571429
5288.5 0
5289.5 3.57143
5290.5 2.57143
5291.5 3
5292.5 -0.428571
5293.5 1.57143
5294.5 -2.85714
5295.5 -3.14286
5296.5 5.71429
5297.5 -0.714286
5298.5 -5.14286
5299.5 1.28571
5300.5 0.714286
5301.5 4.57143
5302.5 1.57143
5303.5 7.14286
5304.5 -1.85714
5305.5 8
5306.5 2.57143
5307.5 3
5308.5 -0.857143
5309.5 1.14286
5310.5 2.57143
5311.5 2
5312.5 -1.42857
5313.5 -3.28571
5314.5 -1.85714
5315.5 3
5316.5 3
5317.5 1.57143
5318.5 1.57143
5319.5 6.57143
5320.5 0.571429
5321.5 4
5322.5 3.57143
5323.5 11.5714
5324.5 2
5325.5 1.57143
5326.5 2.57143
5327.5 3.57143
5328.5 3
5329.5 -2.85714
5330.5 3.14286
5331.5 1.57143
5332.5 -1.28571
5333.5 1.57143
5334.5 3.57143
5335.5 2
5336.5 1.57143
5337.5 3
5338.5 -0.428571
5339.5 0.571429
5340.5 4
5341.5 6
5342.5 1.57143
5343.5 -3.85714
5344.5 4.57143
5345.5 -3.28571
5346.5 1.57143
5347.5 5
5348.5 7.57143
5349.5 -1.28571
5350.5 2
5351.5 -11
5352.5 3.57143
5353.5 2.71429
5354.5 2.14286
5355.5 2.85714
5356.5 -2.28571
5357.5 4.14286
5358.5 5
5359.5 4.57143
5360.5 3.57143
5361.5 -0.857143
5362.5 4
5363.5 0.571429
5364.5 1.57143
5365.5 -0.857143
5366.5 -0.428571
5367.5 2.57143
5368.5 0
5369.5 -2.85714
5370.5 -3.85714
5371.5 6.57143
5372.5 -0.857143
5373.5 8.57143
5374.5 2.57143
5375.5 -1.85714
5376.5 3
5377.5 0.571429
5378.5 0.571429
5379.5 1
5380.5 -0.428571
5381.5 1.57143
5382.5 -0.428571
5383.5 4
5384.5 6
5385.5 -5.28571
5386.5 -8.14286
5387.5 0.142857
5388.5 -0.714286
5389.5 4.14286
5390.5 0.857143
5391.5 -2.71429
5392.5 8
5393.5 -1.28571
5394.5 3.57143
5395.5 4.57143
5396.5 1.42857
5397.5 9.71429
5398.5 -1.14286
5399.5 4.14286
5400.5 10
5401.5 1.57143
5402.5 1.71429
5403.5 2.57143
5404.5 0.571429
5405.5 -1.42857
5406.5 1.57143
5407.5 -2.28571
5408.5 3
5409.5 -3.85714
5410.5 0.571429
5411.5 1.57143
5412.5 2
5413.5 1
5414.5 -4.85714
5415.5 -0.428571
5416.5 1
5417.5 -6.28571
5418.5 0.571429
5419.5 0.571429
5420.5 0.571429
5421.5 -0.428571
5422.5 2
5423.5 0.571429
5424.5 -0.428571
5425.5 2
5426.5 -2.71429
5427.5 -1.85714
5428.5 -1.42857
5429.5 -0.428571
5430.5 -3.28571
5431.5 3.57143
5432.5 2
5433.5 -0.857143
5434.5 1.57143
5435.5 -0.428571
5436.5 0.571429
5437.5 -1.85714
5438.5 -7.71429
5439.5 1.57143
5440.5 0.571429
5441.5 -3.85714
5442.5 4.57143
5443.5 5
5444.5 -2.42857
5445.5 -2.28571
5446.5 3
5447.5 -1.85714
5448.5 2.14286
5449.5 3
5450.5 4
5451.5 -1.42857
5452.5 1.57143
5453.5 3.57143
5454.5 -0.857143
5455.5 5.57143
5456.5 12
5457.5 7.14286
5458.5 6.57143
5459.5 -4.28571
5460.5 4.57143
5461.5 6
5462.5 0.571429
5463.5 -5.71429
5464.5 1.14286
5465.5 3.14286
5466.5 3
5467.5 2
5468.5 1.57143
5469.5 -1.42857
5470.5 -1.42857
5471.5 2
5472.5 -3.85714
5473.5 -1.28571
5474.5 -6.28571
5475.5 2
5476.5 -1.85714
5477.5 2.57143
5478.5 1.14286
5479.5 0
5480.5 5
5481.5 3
5482.5 -1.42857
5483.5 5
5484.5 5
5485.5 4
5486.5 5
5487.5 -8.71429
5488.5 3.57143
5489.5 4.14286
5490.5 2.57143
5491.5 -1.85714
5492.5 4
5493.5 4
5494.5 -0.428571
5495.5 0.571429
5496.5 2
5497.5 -1.42857
5498.5 0
5499.5 -2.85714
5500.5 0.571429
5501.5 -2.85714
5502.5 1.57143
5503.5 -3.85714
5504.5 1
5505.5 -2.28571
5506.5 0.142857
5507.5 -3.85714
5508.5 3.57143
5509.5 -3.85714
5510.5 -5.28571
5511.5 -1.85714
5512.5 -3.28571
5513.5 9
5514.5 7.57143
5515.5 0.285714
5516.5 2.57143
5517.5 2.57143
5518.5 6
5519.5 1.57143
5520.5 -2.42857
5521.5 4
5522.5 -6.71429
5523.5 3
5524.5 -4.71429
5525.5 1.57143
5526.5 1
5527.5 3.57143
5528.5 -2.85714
5529.5 2.57143
5530.5 -2.85714
5531.5 3.14286
5532.5 -3.71429
5533.5 0.285714
5534.5 5.14286
5535.5 1.85714
5536.5 10.1429
5537.5 6.28571
5538.5 -6
5539.5 -6.14286
5540.5 -1.28571
5541.5 2.57143
5542.5 6.57143
5543.5 1.14286
5544.5 3
5545.5 8
5546.5 1.57143
5547.5 -0.428571
5548.5 2.57143
5549.5 -3.85714
5550.5 -0.428571
5551.5 3
5552.5 1.57143
5553.5 1.57143
5554.5 -1.85714
5555.5 0
5556.5 -0.857143
5557.5 -1.85714
5558.5 -1.85714
5559.5 -0.428571
5560.5 5
5561.5 0.142857
5562.5 -10.1429
5563.5 -0.428571
5564.5 -4.71429
5565.5 -0.428571
5566.5 2
5567.5 3.57143
5568.5 3
5569.5 3
5570.5 2
5571.5 0.571429
5572.5 2
5573.5 -1.42857
5574.5 3
5575.5 0.571429
5576.5 -0.428571
5577.5 4
5578.5 -0.428571
5579.5 4.57143
5580.5 -7.57143
5581.5 4
5582.5 -0.857143
5583.5 -2.85714
5584.5 3.57143
5585.5 0.571429
5586.5 0.571429
5587.5 -6.14286
5588.5 3.57143
5589.5 -2.28571
5590.5 2.71429
5591.5 -3.14286
5592.5 4.85714
5593.5 -5.85714
5594.5 6.85714
5595.5 -1.28571
5596.5 6.14286
5597.5 5.57143
5598.5 3.57143
5599.5 3.14286
5600.5 -1.42857
5601.5 3
5602.5 2
5603.5 6
5604.5 5
5605.5 -0.857143
5606.5 -1.42857
5607.5 -2.85714
5608.5 2.57143
5609.5 6
5610.5 0.571429
5611.5 1.14286
5612.5 1.14286
5613.5 4.57143
5614.5 -1.28571
5615.5 6
5616.5 3.57143
5617.5 2
5618.5 3
5619.5 2.57143
5620.5 -3.85714
5621.5 1
5622.5 2.57143
5623.5 2.57143
5624.5 1.57143
5625.5 0.571429
5626.5 1.57143
5627.5 1
5628.5 1.14286
5629.5 -0.857143
5630.5 -3.85714
5631.5 0.571429
5632.5 4
5633.5 0.571429
5634.5 -0.428571
5635.5 -0.857143
5636.5 -2.42857
5637.5 2
5638.5 -5.28571
5639.5 -0.857143
5640.5 1.14286
5641.5 5
5642.5 -1.42857
5643.5 -1.42857
5644.5 2.57143
5645.5 6
5646.5 3
5647.5 6
5648.5 0.571429
5649.5 -0.857143
5650.5 -2.42857
5651.5 -1.85714
5652.5 2.57143
5653.5 -0.857143
5654.5 1
5655.5 -2.85714
5656.5 3
5657.5 4
5658.5 3
5659.5 -1.42857
5660.5 -0.857143
5661.5 0
5662.5 5
5663.5 1
5664.5 1
5665.5 1
5666.5 5
5667.5 5
5668.5 -1.85714
5669.5 1
5670.5 -7.28571
5671.5 0.142857
5672.5 -0.428571
5673.5 -2.85714
5674.5 2
5675.5 4
5676.5 2
5677.5 -1.42857
5678.5 -2.42857
5679.5 4
5680.5 1
5681.5 0
5682.5 2
5683.5 -5.28571
5684.5 1.57143
5685.5 -1.42857
5686.5 0
5687.5 4
5688.5 -1.42857
5689.5 0.571429
5690.5 4
5691.5 0.571429
5692.5 1.57143
5693.5 2
5694.5 4
5695.5 3.57143
5696.5 2
5697.5 5
5698.5 6
5699.5 -0.428571
5700.5 0.142857
5701.5 -1.42857
5702.5 0
5703.5 -2.42857
5704.5 3
5705.5 7
5706.5 0.142857
5707.5 -1.42857
5708.5 5
5709.5 -3.85714
5710.5 -0.857143
5711.5 -0.428571
5712.5 0
5713.5 -6.28571
5714.5 6
5715.5 0.714286
5716.5 2
5717.5 0.142857
5718.5 6
5719.5 -0.428571
5720.5 5
5721.5 0
5722.5 -3.85714
5723.5 4.57143
5724.5 3
5725.5 -0.428571
5726.5 -2.85714
5727.5 3.57143
5728.5 5
5729.5 -0.857143
5730.5 1
5731.5 -0.857143
5732.5 1
5733.5 1.57143
5734.5 1
5735.5 6
5736.5 1.57143
5737.5 -1.42857
5738.5 3
5739.5 -1.42857
5740.5 2
5741.5 -1.85714
5742.5 -2.85714
5743.5 -0.428571
5744.5 -0.428571
5745.5 2
5746.5 3
5747.5 3
5748.5 2
5749.5 1
5750.5 -0.428571
5751.5 3
5752.5 4.57143
5753.5 -1.42857
5754.5 2.28571
5755.5 4.71429
5756.5 1.57143
5757.5 2.57143
5758.5 -3.28571
5759.5 1.57143
5760.5 5
5761.5 -2.85714
5762.5 2
5763.5 4
5764.5 0
5765.5 -2.42857
5766.5 6
5767.5 -4.28571
5768.5 1
5769.5 1
5770.5 7
5771.5 0.571429
5772.5 4
5773.5 1
5774.5 -1.42857
5775.5 6
5776.5 -1.42857
5777.5 1
5778.5 3
5779.5 1
5780.5 -0.428571
5781.5 0.571429
5782.5 1
5783.5 3
5784.5 0.571429
5785.5 3.57143
5786.5 3
5787.5 -4.28571
5788.5 4
5789.5 3
5790.5 -2.42857
5791.5 5
5792.5 4
5793.5 2
5794.5 2
5795.5 1
5796.5 0
5797.5 -1.42857
5798.5 2
5799.5 -0.857143
5800.5 -0.428571
5801.5 1
5802.5 0
5803.5 2
5804.5 -0.428571
5805.5 -0.428571
5806.5 4
5807.5 1
5808.5 0.571429
5809.5 1
5810.5 -1.42857
5811.5 -0.428571
5812.5 -2.42857
5813.5 -0.857143
5814.5 -0.428571
5815.5 0.571429
5816.5 2
5817.5 0.571429
5818.5 2
5819.5 1
5820.5 -0.428571
5821.5 1
5822.5 -0.428571
5823.5 1
5824.5 4
5825.5 3
5826.5 5
5827.5 -0.857143
5828.5 1.57143
5829.5 -0.428571
5830.5 -1.28571
5831.5 -1.85714
5832.5 1.57143
5833.5 -3.85714
5834.5 -3.85714
5835.5 -3.85714
5836.5 -0.428571
5837.5 2.14286
5838.5 -0.428571
5839.5 -2.85714
5840.5 8
5841.5 7
5842.5 -2.85714
5843.5 0.571429
5844.5 -0.285714
5845.5 -1.42857
5846.5 2
5847.5 -1.42857
5848.5 3
5849.5 1.57143
5850.5 0.571429
5851.5 -1.42857
5852.5 0.142857
5853.5 3
5854.5 -3.28571
5855.5 2
5856.5 5
5857.5 -1.42857
5858.5 1
5859.5 -4.85714
5860.5 0
5861.5 3
5862.5 -0.857143
5863.5 -0.428571
5864.5 1
5865.5 5
5866.5 -1.42857
5867.5 0.571429
5868.5 -1.42857
5869.5 -3.85714
5870.5 2
5871.5 0
5872.5 3
5873.5 3
5874.5 2
5875.5 0.571429
5876.5 1
5877.5 -1.42857
5878.5 -2.85714
5879.5 0
5880.5 3
5881.5 4
5882.5 1
5883.5 -1.42857
5884.5 1.57143
5885.5 0
5886.5 -1.42857
5887.5 -2.85714
5888.5 -1.42857
5889.5 -0.428571
5890.5 -1.42857
5891.5 1
5892.5 4
5893.5 -0.428571
5894.5 -6.71429
5895.5 -3.28571
5896.5 -7.14286
5897.5 0.142857
5898.5 1.85714
5899.5 10.1429
5900.5 7.14286
5901.5 -0.714286
5902.5 2.71429
5903.5 1.14286
5904.5 1.71429
5905.5 1.57143
5906.5 -0.857143
5907.5 0.571429
5908.5 -1.42857
5909.5 5
5910.5 2.57143
5911.5 1
5912.5 -7.71429
5913.5 3
5914.5 -0.428571
5915.5 -1.42857
5916.5 0
5917.5 -6.28571
5918.5 -1.42857
5919.5 -1.42857
5920.5 2
5921.5 1.57143
5922.5 -0.428571
5923.5 3
5924.5 -1.42857
5925.5 1
5926.5 -0.428571
5927.5 1
5928.5 1
5929.5 2
5930.5 1
5931.5 1
5932.5 -0.428571
5933.5 1
5934.5 -1.42857
5935.5 -0.428571
5936.5 -1.42857
5937.5 -1.42857
5938.5 2
5939.5 2
5940.5 3
5941.5 -2.42857
5942.5 1
5943.5 4
5944.5 -1.42857
5945.5 1
5946.5 1.57143
5947.5 1.57143
5948.5 0
5949.5 2
5950.5 -2.42857
5951.5 3
5952.5 3
5953.5 2
5954.5 2
5955.5 -1.85714
5956.5 1
5957.5 2
5958.5 -4.85714
5959.5 -4.85714
5960.5 -4.85714
5961.5 2
5962.5 2.57143
5963.5 7
5964.5 1.57143
5965.5 3
5966.5 8.57143
5967.5 17
5968.5 10.5714
5969.5 16
5970.5 13.5714
5971.5 8.14286
5972.5 6.57143
5973.5 -0.428571
5974.5 6
5975.5 2
5976.5 1
5977.5 -1.42857
5978.5 -3.85714
5979.5 -1.85714
5980.5 -2.42857
5981.5 -1.42857
5982.5 -1.85714
5983.5 4
5984.5 3
5985.5 0
5986.5 1
5987.5 1.57143
5988.5 1
5989.5 0
5990.5 -1.85714
5991.5 2
5992.5 3
5993.5 2
5994.5 -2.42857
5995.5 -4.85714
5996.5 6
5997.5 0.142857
5998.5 -1.71429
5999.5 5.57143
6000.5 0.714286
6001.5 -2.85714
6002.5 1.14286
6003.5 1.57143
6004.5 4
6005.5 2
6006.5 1
6007.5 3
6008.5 1
6009.5 0
6010.5 -0.428571
6011.5 1
6012.5 1
6013.5 -3.85714
6014.5 -0.428571
6015.5 2
6016.5 1
6017.5 1
6018.5 -1.42857
6019.5 -0.428571
6020.5 1
6021.5 -2.42857
6022.5 2
6023.5 -2.42857
6024.5 -1.42857
6025.5 1
6026.5 -0.428571
6027.5 0
6028.5 4
6029.5 0
6030.5 1.57143
6031.5 0.571429
6032.5 -0.428571
6033.5 -0.857143
6034.5 0.571429
6035.5 2.57143
6036.5 -1.85714
6037.5 -1.42857
6038.5 2
6039.5 -1.42857
6040.5 -3.85714
6041.5 0.571429
6042.5 1
6043.5 1
6044.5 1
6045.5 -1.42857
6046.5 0
6047.5 2
6048.5 -2.42857
6049.5 1
6050.5 1
6051.5 -1.42857
6052.5 0
6053.5 2
6054.5 2
6055.5 0.571429
6056.5 3
6057.5 2
6058.5 2
6059.5 2
6060.5 1
6061.5 0
6062.5 1
6063.5 -2.42857
6064.5 -2.85714
6065.5 -2.42857
6066.5 2
6067.5 3
6068.5 1
6069.5 -2.42857
6070.5 1
6071.5 1
6072.5 -1.42857
6073.5 1
6074.5 1
6075.5 -1.42857
6076.5 -0.428571
6077.5 0
6078.5 -2.42857
6079.5 -2.42857
6080.5 -2.42857
6081.5 -7.28571
6082.5 1
6083.5 -2.42857
6084.5 1
6085.5 -0.428571
6086.5 2
6087.5 0
6088.5 2
6089.5 1
6090.5 0
6091.5 1
6092.5 2
6093.5 2
6094.5 1
6095.5 -2.42857
6096.5 -3.85714
6097.5 1
6098.5 2
6099.5 1
6100.5 3
6101.5 3
6102.5 0
6103.5 0.142857
6104.5 4
6105.5 -0.428571
6106.5 7
6107.5 -1.85714
6108.5 1
6109.5 2
6110.5 5
6111.5 3
6112.5 -7.71429
6113.5 -7.71429
6114.5 1
6115.5 -3.85714
6116.5 2
6117.5 3.57143
6118.5 -1.42857
6119.5 1
6120.5 4
6121.5 4
6122.5 5
6123.5 7
6124.5 2.14286
6125.5 4.14286
6126.5 1.71429
6127.5 7
6128.5 -0.428571
6129.5 3
6130.5 -1.42857
6131.5 1
6132.5 5
6133.5 -1.42857
6134.5 -0.428571
6135.5 1
6136.5 -0.428571
6137.5 0
6138.5 1
6139.5 0
6140.5 -2.85714
6141.5 0.571429
6142.5 1
6143.5 -2.42857
6144.5 -4.85714
6145.5 0
6146.5 -1.42857
6147.5 4
6148.5 1
6149.5 -4.85714
6150.5 1
6151.5 -2.42857
6152.5 1
6153.5 0
6154.5 2
6155.5 0
6156.5 0
6157.5 -1.42857
6158.5 1
6159.5 0
6160.5 0
6161.5 1
6162.5 2
6163.5 1
6164.5 1
6165.5 0
6166.5 2
6167.5 -1.42857
6168.5 4
6169.5 0
6170.5 0
6171.5 1
6172.5 -1.42857
6173.5 0
6174.5 0
6175.5 2
6176.5 -2.42857
6177.5 0.571429
6178.5 0
6179.5 -1.42857
6180.5 2
6181.5 -0.428571
6182.5 0
6183.5 1
6184.5 0
6185.5 3
6186.5 3
6187.5 -1.85714
6188.5 -1.42857
6189.5 1
6190.5 -1.85714
6191.5 -1.42857
6192.5 -2.42857
6193.5 0
6194.5 -0.428571
6195.5 1
6196.5 -0.428571
6197.5 0.571429
6198.5 5
6199.5 -0.428571
6200.5 3
6201.5 1
6202.5 1
6203.5 0
6204.5 4
6205.5 0
6206.5 0
6207.5 -0.428571
6208.5 1
6209.5 0
6210.5 0.571429
6211.5 1
6212.5 1
6213.5 -4.85714
6214.5 1
6215.5 -1.42857
6216.5 -2.42857
6217.5 -0.428571
6218.5 -1.42857
6219.5 -3.85714
6220.5 0
6221.5 -0.428571
6222.5 -1.42857
6223.5 -0.428571
6224.5 0.571429
6225.5 -0.428571
6226.5 2
6227.5 0
6228.5 0
6229.5 4
6230.5 -1.42857
6231.5 -1.42857
6232.5 0
6233.5 -2.42857
6234.5 1
6235.5 0
6236.5 0
6237.5 1
6238.5 2
6239.5 -0.428571
6240.5 -1.42857
6241.5 1
6242.5 -1.42857
6243.5 2
6244.5 3
6245.5 -2.42857
6246.5 -1.42857
6247.5 1
6248.5 2
6249.5 -2.42857
6250.5 2
6251.5 -0.428571
6252.5 1
6253.5 1.57143
6254.5 1
6255.5 -5.28571
6256.5 1
6257.5 1
6258.5 -6.71429
6259.5 -1.42857
6260.5 1
6261.5 -0.428571
6262.5 0
6263.5 2
6264.5 1
6265.5 3
6266.5 -1.42857
6267.5 1
6268.5 1
6269.5 1
6270.5 0
6271.5 1
6272.5 1
6273.5 -2.42857
6274.5 1
6275.5 -2.42857
6276.5 1
6277.5 1
6278.5 1
6279.5 1
6280.5 0
6281.5 0.571429
6282.5 2
6283.5 -1.42857
6284.5 0
6285.5 0
6286.5 1
6287.5 1
6288.5 -2.42857
6289.5 0
6290.5 -1.42857
6291.5 -0.428571
6292.5 -2.42857
6293.5 1
6294.5 0
6295.5 3
6296.5 0
6297.5 2
6298.5 1
6299.5 1
6300.5 1
6301.5 2
6302.5 0
6303.5 0
6304.5 0
6305.5 -2.42857
6306.5 -2.42857
6307.5 -2.42857
6308.5 0
6309.5 2
6310.5 -1.42857
6311.5 0
6312.5 -1.42857
6313.5 -2.42857
6314.5 3
6315.5 1
6316.5 0
6317.5 -1.42857
6318.5 1
6319.5 -3.85714
6320.5 3
6321.5 3
6322.5 0.571429
6323.5 1
6324.5 1
6325.5 -0.428571
6326.5 0
6327.5 -1.42857
6328.5 2
6329.5 1
6330.5 2
6331.5 -2.42857
6332.5 1
6333.5 0.571429
6334.5 -2.42857
6335.5 1
6336.5 -1.42857
6337.5 2
6338.5 -3.85714
6339.5 1
6340.5 0
6341.5 0
6342.5 0
6343.5 0
6344.5 5
6345.5 0.571429
6346.5 0
6347.5 0
6348.5 0
6349.5 0
6350.5 -3.85714
6351.5 -1.42857
6352.5 0.571429
6353.5 -6.28571
6354.5 0
6355.5 -0.428571
6356.5 -1.42857
6357.5 0
6358.5 0
6359.5 -2.42857
6360.5 0
6361.5 3
6362.5 -0.428571
6363.5 -2.42857
6364.5 0
6365.5 3
6366.5 1
6367.5 1
6368.5 2
6369.5 0
6370.5 1
6371.5 0
6372.5 1
6373.5 -2.42857
6374.5 2
6375.5 1
6376.5 1
6377.5 1
6378.5 0
6379.5 3
6380.5 0
6381.5 -1.42857
6382.5 1
6383.5 -2.85714
6384.5 0
6385.5 2
6386.5 1
6387.5 1
6388.5 -1.42857
6389.5 0
6390.5 -0.428571
6391.5 5
6392.5 4
6393.5 -0.428571
6394.5 0
6395.5 -1.42857
6396.5 2
6397.5 -1.42857
6398.5 3
6399.5 0.571429
6400.5 2
6401.5 1
6402.5 1
6403.5 0
6404.5 2
6405.5 -0.428571
6406.5 0
6407.5 0
6408.5 2
6409.5 0
6410.5 0
6411.5 0
6412.5 2
6413.5 1
6414.5 -1.42857
6415.5 2
6416.5 2
6417.5 1
6418.5 -4.85714
6419.5 3
6420.5 -1.85714
6421.5 6
6422.5 2
6423.5 0.571429
6424.5 -2.42857
6425.5 5
6426.5 4
6427.5 -1.42857
6428.5 0
6429.5 1
6430.5 -4.85714
6431.5 1
6432.5 2
6433.5 -1.42857
6434.5 1
6435.5 -2.42857
6436.5 0
6437.5 -1.42857
6438.5 0
6439.5 -1.42857
6440.5 1.57143
6441.5 -2.42857
6442.5 1
6443.5 1
6444.5 -5.28571
6445.5 0
6446.5 0
6447.5 2
6448.5 -2.42857
6449.5 0
6450.5 0
6451.5 -1.42857
6452.5 -2.85714
6453.5 2
6454.5 -1.42857
6455.5 0
6456.5 0
6457.5 1
6458.5 0
6459.5 3
6460.5 1.57143
6461.5 -0.428571
6462.5 0
6463.5 2
6464.5 0.571429
6465.5 -1.42857
6466.5 -1.42857
6467.5 -2.42857
6468.5 4
6469.5 0
6470.5 -0.428571
6471.5 -2.42857
6472.5 0
6473.5 2
6474.5 1
6475.5 4
6476.5 -1.85714
6477.5 2
6478.5 -4.71429
6479.5 1.57143
6480.5 1.14286
6481.5 -2.85714
6482.5 3
6483.5 3
6484.5 -3.85714
6485.5 0
6486.5 -2.42857
6487.5 0
6488.5 0
6489.5 1
6490.5 1
6491.5 0
6492.5 2
6493.5 1
6494.5 2
6495.5 -1.85714
6496.5 0
6497.5 0
6498.5 -2.42857
6499.5 -3.85714
6500.5 0
6501.5 3
6502.5 1
6503.5 -1.42857
6504.5 1
6505.5 2
6506.5 0
6507.5 -3.85714
6508.5 -0.428571
6509.5 0
6510.5 0
6511.5 1
6512.5 0
6513.5 0
6514.5 0
6515.5 1
6516.5 1
6517.5 -2.42857
6518.5 -0.428571
6519.5 1
6520.5 0.571429
6521.5 -0.428571
6522.5 0
6523.5 0
6524.5 1
6525.5 1
6526.5 0
6527.5 1
6528.5 1
6529.5 0
6530.5 1
6531.5 -4.85714
6532.5 2
6533.5 1
6534.5 0
6535.5 -1.42857
6536.5 0
6537.5 1
6538.5 -0.428571
6539.5 0
6540.5 1
6541.5 0.571429
6542.5 0
6543.5 2.57143
6544.5 1.57143
6545.5 3
6546.5 3
6547.5 5
6548.5 1
6549.5 -1.42857
6550.5 -3.85714
6551.5 1
6552.5 -6.28571
6553.5 1
6554.5 1
6555.5 1
6556.5 -2.42857
6557.5 -2.42857
6558.5 -0.428571
6559.5 1
6560.5 1
6561.5 1
6562.5 1
6563.5 2
6564.5 -1.85714
6565.5 1
6566.5 -2.85714
6567.5 1
6568.5 0
6569.5 -1.42857
6570.5 -2.85714
6571.5 -1.42857
6572.5 -2.42857
6573.5 1
6574.5 2
6575.5 1
6576.5 -2.42857
6577.5 -1.42857
6578.5 -0.428571
6579.5 0
6580.5 3
6581.5 0
6582.5 0
6583.5 0
6584.5 1
6585.5 0
6586.5 1
6587.5 -1.42857
6588.5 -2.42857
6589.5 -2.42857
6590.5 0
6591.5 0
6592.5 1
6593.5 2
6594.5 1
6595.5 -0.428571
6596.5 1
6597.5 1.57143
6598.5 -5.28571
6599.5 2
6600.5 2
6601.5 -2.42857
6602.5 -0.428571
6603.5 1
6604.5 -1.42857
6605.5 2
6606.5 -1.42857
6607.5 -0.428571
6608.5 -1.42857
6609.5 -1.42857
6610.5 2
6611.5 1
6612.5 1
6613.5 1
6614.5 0
6615.5 4
6616.5 -3.85714
6617.5 0
6618.5 0.571429
6619.5 0
6620.5 1
6621.5 -2.42857
6622.5 1
6623.5 -2.42857
6624.5 1
6625.5 0
6626.5 1
6627.5 0
6628.5 2
6629.5 0
6630.5 -1.42857
6631.5 -0.428571
6632.5 -1.42857
6633.5 0
6634.5 1
6635.5 1
6636.5 1
6637.5 1
6638.5 1
6639.5 2
6640.5 0
6641.5 -1.42857
6642.5 -0.428571
6643.5 0
6644.5 1
6645.5 1
6646.5 -2.42857
6647.5 2
6648.5 0
6649.5 -3.85714
6650.5 3
6651.5 1
6652.5 0
6653.5 0
6654.5 -1.42857
6655.5 -2.42857
6656.5 0
6657.5 0
6658.5 3
6659.5 0
6660.5 -1.42857
6661.5 -1.42857
6662.5 0
6663.5 0
6664.5 0
6665.5 2
6666.5 1
6667.5 0
6668.5 0
6669.5 0
6670.5 2
6671.5 0
6672.5 1
6673.5 2
6674.5 0
6675.5 1
6676.5 -0.428571
6677.5 0
6678.5 1
6679.5 -2.42857
6680.5 0
6681.5 1
6682.5 1
6683.5 0
6684.5 1
6685.5 -2.42857
6686.5 -3.85714
6687.5 2
6688.5 -4.85714
6689.5 3
6690.5 0
6691.5 0
6692.5 0
6693.5 3
6694.5 0
6695.5 -0.428571
6696.5 -3.85714
6697.5 -0.857143
6698.5 2
6699.5 0
6700.5 0
6701.5 0
6702.5 0
6703.5 1.57143
6704.5 -2.42857
6705.5 1
6706.5 1
6707.5 1
6708.5 0
6709.5 -2.42857
6710.5 0
6711.5 0
6712.5 -2.42857
6713.5 1
6714.5 0
6715.5 1
6716.5 1
6717.5 -1.42857
6718.5 0
6719.5 2
6720.5 -0.428571
6721.5 0
6722.5 1
6723.5 0
6724.5 2
6725.5 2
6726.5 0
6727.5 2
6728.5 2
6729.5 0
6730.5 -6.28571
6731.5 1
6732.5 -2.42857
6733.5 0
6734.5 1
6735.5 -2.42857
6736.5 1
6737.5 0.571429
6738.5 -2.42857
6739.5 -1.42857
6740.5 -1.42857
6741.5 -0.428571
6742.5 1
6743.5 1
6744.5 -1.42857
6745.5 2
6746.5 1
6747.5 -1.42857
6748.5 2
6749.5 -2.42857
6750.5 1
6751.5 -0.428571
6752.5 1
6753.5 -2.42857
6754.5 0
6755.5 0
6756.5 3
6757.5 1
6758.5 1
6759.5 1
6760.5 -0.428571
6761.5 0.571429
6762.5 1
6763.5 0
6764.5 -1.42857
6765.5 0
6766.5 -4.85714
6767.5 1
6768.5 2
6769.5 2
6770.5 0.571429
6771.5 2
6772.5 1
6773.5 -2.85714
6774.5 -2.42857
6775.5 1
6776.5 -1.42857
6777.5 2
6778.5 1
6779.5 -2.42857
6780.5 1
6781.5 -1.42857
6782.5 0
6783.5 1
6784.5 -0.428571
6785.5 2
6786.5 0
6787.5 2
6788.5 -2.42857
6789.5 -1.42857
6790.5 3
6791.5 0
6792.5 3
6793.5 0
6794.5 3
6795.5 0
6796.5 1
6797.5 0
6798.5 -1.42857
6799.5 0
6800.5 0
6801.5 0
6802.5 -2.42857
6803.5 -2.42857
6804.5 -2.42857
6805.5 1
6806.5 2
6807.5 0
6808.5 0
6809.5 4
6810.5 0
6811.5 1
6812.5 -2.42857
6813.5 0
6814.5 0
6815.5 1
6816.5 1
6817.5 0
6818.5 0
6819.5 -2.85714
6820.5 0
6821.5 1
6822.5 1
6823.5 0
6824.5 1
6825.5 1
6826.5 0
6827.5 -4.85714
6828.5 0
6829.5 0
6830.5 -2.42857
6831.5 0
6832.5 2
6833.5 0
6834.5 -1.42857
6835.5 1
6836.5 0
6837.5 0
6838.5 -2.42857
6839.5 -1.42857
6840.5 0
6841.5 0
6842.5 2
6843.5 0
6844.5 0
6845.5 2
6846.5 -1.42857
6847.5 1
6848.5 -1.42857
6849.5 0
6850.5 2
6851.5 0
6852.5 1
6853.5 -1.42857
6854.5 2
6855.5 0
6856.5 -4.85714
6857.5 3
6858.5 0.571429
6859.5 1
6860.5 0
6861.5 0
6862.5 -2.42857
6863.5 0
6864.5 1
6865.5 0
6866.5 0
6867.5 2
6868.5 0
6869.5 2
6870.5 0
6871.5 1
6872.5 -2.42857
6873.5 0
6874.5 0
6875.5 1
6876.5 1
6877.5 0
6878.5 0
6879.5 1
6880.5 2
6881.5 2
6882.5 1
6883.5 -1.42857
6884.5 0
6885.5 1
6886.5 0
6887.5 0
6888.5 3
6889.5 1
6890.5 1
6891.5 0
6892.5 -1.42857
6893.5 0
6894.5 1
6895.5 1
6896.5 1
6897.5 1
6898.5 -1.42857
6899.5 1
6900.5 1
6901.5 -2.42857
6902.5 -1.42857
6903.5 0.571429
6904.5 0.571429
6905.5 1
6906.5 -2.42857
6907.5 1
6908.5 0
6909.5 0
6910.5 1
6911.5 0
6912.5 0
6913.5 1
6914.5 -2.42857
6915.5 -2.42857
6916.5 0
6917.5 2
6918.5 -3.85714
6919.5 1
6920.5 1
6921.5 -1.42857
6922.5 0
6923.5 -3.85714
6924.5 0
6925.5 1
6926.5 2
6927.5 3
6928.5 0
6929.5 -1.42857
6930.5 2
6931.5 1
6932.5 2
6933.5 2
6934.5 1
6935.5 1
6936.5 1
6937.5 2
6938.5 2
6939.5 2
6940.5 -2.42857
6941.5 0
6942.5 -2.42857
6943.5 2
6944.5 0
6945.5 0
6946.5 0
6947.5 0
6948.5 0
6949.5 1
6950.5 1
6951.5 0
6952.5 -4.85714
6953.5 0
6954.5 0
6955.5 -1.42857
6956.5 1
6957.5 0
6958.5 3
6959.5 -2.42857
6960.5 0
6961.5 1
6962.5 -2.42857
6963.5 0
6964.5 2
6965.5 0
6966.5 1
6967.5 -2.85714
6968.5 1
6969.5 1
6970.5 0
6971.5 -1.42857
6972.5 0
6973.5 -2.42857
6974.5 0
6975.5 -0.428571
6976.5 -3.85714
6977.5 4
6978.5 0
6979.5 0
6980.5 0
6981.5 0
6982.5 1
6983.5 1
6984.5 1
6985.5 1
6986.5 0
6987.5 -3.85714
6988.5 1
6989.5 1
6990.5 0
6991.5 0
6992.5 0
6993.5 1
6994.5 2
6995.5 3
6996.5 0
6997.5 0
6998.5 2
6999.5 0
7000.5 0
7001.5 4
7002.5 0
7003.5 2
7004.5 1
7005.5 -0.428571
7006.5 1
7007.5 -2.42857
7008.5 1
7009.5 -2.42857
7010.5 1
7011.5 -4.85714
7012.5 1
7013.5 1
7014.5 3
7015.5 0
7016.5 1
7017.5 1
7018.5 0
7019.5 0
7020.5 0
7021.5 1
7022.5 1
7023.5 1
7024.5 0
7025.5 0
7026.5 1
7027.5 1
7028.5 -2.42857
7029.5 2
7030.5 0
7031.5 -2.42857
7032.5 0
7033.5 2
7034.5 0
7035.5 0
7036.5 -2.42857
7037.5 2
7038.5 -2.42857
7039.5 -2.42857
7040.5 0
7041.5 -2.42857
7042.5 1
7043.5 0
7044.5 0
7045.5 0
7046.5 2
7047.5 -0.428571
7048.5 1
7049.5 0
7050.5 0
7051.5 0
7052.5 1
7053.5 0
7054.5 1
7055.5 0
7056.5 0
7057.5 -2.85714
7058.5 0
7059.5 0
7060.5 1
7061.5 1
7062.5 1
7063.5 1
7064.5 -1.42857
7065.5 0
7066.5 -2.42857
7067.5 2
7068.5 0
7069.5 -2.42857
7070.5 1
7071.5 2
7072.5 -0.428571
7073.5 2
7074.5 0
7075.5 0
7076.5 0
7077.5 1
7078.5 0
7079.5 1
7080.5 2
7081.5 -1.42857
7082.5 -2.42857
7083.5 -1.42857
7084.5 1
7085.5 1
7086.5 1
7087.5 -3.85714
7088.5 0
7089.5 0
7090.5 0
7091.5 1
7092.5 0
7093.5 0
7094.5 0
7095.5 -1.42857
7096.5 1
7097.5 0
7098.5 1
7099.5 3
7100.5 -3.85714
7101.5 1
7102.5 0
7103.5 -1.42857
7104.5 1
7105.5 1
7106.5 1
7107.5 0
7108.5 -1.42857
7109.5 -2.42857
7110.5 0
7111.5 -2.42857
7112.5 1
7113.5 2
7114.5 0
7115.5 1
7116.5 0
7117.5 0
7118.5 0
7119.5 1
7120.5 -2.42857
7121.5 1
7122.5 3
7123.5 0
7124.5 1
7125.5 1
7126.5 0
7127.5 1
7128.5 -1.42857
7129.5 0
7130.5 1
7131.5 0
7132.5 1
7133.5 3
7134.5 3
7135.5 0
7136.5 1
7137.5 2
7138.5 1
7139.5 3
7140.5 1
7141.5 1
7142.5 1
7143.5 0
7144.5 1
7145.5 1
7146.5 0
7147.5 0
7148.5 0
7149.5 0
7150.5 -2.42857
7151.5 1
7152.5 -0.428571
7153.5 0
7154.5 0
7155.5 0
7156.5 0
7157.5 1
7158.5 1
7159.5 0
7160.5 0
7161.5 0
7162.5 1
7163.5 1
7164.5 3
7165.5 0
7166.5 0
7167.5 2
7168.5 1
7169.5 0
7170.5 2
7171.5 0
7172.5 0
7173.5 1
7174.5 1
7175.5 0
7176.5 -1.42857
7177.5 0
7178.5 1
7179.5 -2.42857
7180.5 0
7181.5 0
7182.5 -0.428571
7183.5 1
7184.5 0
7185.5 0
7186.5 -2.42857
7187.5 -0.428571
7188.5 0
7189.5 1
7190.5 1
7191.5 0
7192.5 -1.42857
7193.5 -2.42857
7194.5 0
7195.5 0
7196.5 0
7197.5 0
7198.5 0
7199.5 -1.42857
7200.5 -2.42857
7201.5 1
7202.5 0
7203.5 0
7204.5 1
7205.5 2
7206.5 -0.428571
7207.5 -2.42857
7208.5 1
7209.5 -2.85714
7210.5 1
7211.5 -0.428571
7212.5 2
7213.5 0
7214.5 -2.42857
7215.5 -2.42857
7216.5 3
7217.5 3
7218.5 2
7219.5 0
7220.5 3
7221.5 1
7222.5 0
7223.5 0
7224.5 1
7225.5 0
7226.5 1
7227.5 -2.42857
7228.5 0
7229.5 0
7230.5 0
7231.5 0
7232.5 1
7233.5 -1.42857
7234.5 0
7235.5 0
7236.5 1
7237.5 -2.42857
7238.5 1
7239.5 0
7240.5 0
7241.5 1
7242.5 3
7243.5 -2.42857
7244.5 0
7245.5 1
7246.5 2
7247.5 1
7248.5 -1.42857
7249.5 -2.42857
7250.5 0
7251.5 1
7252.5 1
7253.5 -0.428571
7254.5 1
7255.5 -2.42857
7256.5 0
7257.5 -2.42857
7258.5 3
7259.5 -1.42857
7260.5 0.571429
7261.5 0.571429
7262.5 1.57143
7263.5 1
7264.5 -4.85714
7265.5 1
7266.5 0
7267.5 4
7268.5 0
7269.5 -1.42857
7270.5 0
7271.5 1
7272.5 1
7273.5 -2.42857
7274.5 0
7275.5 0
7276.5 0
7277.5 0
7278.5 1
7279.5 2
7280.5 1
7281.5 0
7282.5 1
7283.5 0
7284.5 1
7285.5 0
7286.5 0
7287.5 0
7288.5 -2.42857
7289.5 0
7290.5 0
7291.5 0
7292.5 1
7293.5 -1.42857
7294.5 -1.42857
7295.5 1
7296.5 0
7297.5 1
7298.5 1
7299.5 0
7300.5 0
7301.5 0
7302.5 0
7303.5 0
7304.5 0
7305.5 -2.42857
7306.5 -0.428571
7307.5 0
7308.5 -2.42857
7309.5 1
7310.5 -3.85714
7311.5 0
7312.5 2
7313.5 0
7314.5 -1.42857
7315.5 0
7316.5 1
7317.5 -2.85714
7318.5 2
7319.5 -1.42857
7320.5 0
7321.5 -2.42857
7322.5 0
7323.5 0
7324.5 1
7325.5 0
7326.5 1
7327.5 1
7328.5 2
7329.5 0
7330.5 0
7331.5 0
7332.5 -1.42857
7333.5 1
7334.5 0
7335.5 2
7336.5 0
7337.5 -2.42857
7338.5 1
7339.5 0
7340.5 0
7341.5 0
7342.5 0
7343.5 0
7344.5 0
7345.5 -1.42857
7346.5 0
7347.5 0
7348.5 2
7349.5 3
7350.5 2
7351.5 -7.28571
7352.5 2
7353.5 0
7354.5 0
7355.5 3
7356.5 0
7357.5 0
7358.5 0
7359.5 0
7360.5 0
7361.5 0
7362.5 0
7363.5 0
7364.5 1
7365.5 -2.42857
7366.5 0
7367.5 1
7368.5 0
7369.5 -2.42857
7370.5 2
7371.5 1
7372.5 0
7373.5 1
7374.5 0
7375.5 -2.42857
7376.5 0
7377.5 0
7378.5 1
7379.5 1
7380.5 0
7381.5 0
7382.5 0
7383.5 1
7384.5 1
7385.5 2
7386.5 -4.85714
7387.5 0
7388.5 0
7389.5 0
7390.5 -1.42857
7391.5 1
7392.5 1
7393.5 0
7394.5 0
7395.5 0
7396.5 0
7397.5 0
7398.5 1
7399.5 0
7400.5 -0.428571
7401.5 0
7402.5 -1.42857
7403.5 0
7404.5 0
7405.5 0
7406.5 1
7407.5 0
7408.5 1
7409.5 0
7410.5 0
7411.5 1
7412.5 3
7413.5 1.57143
7414.5 -1.42857
7415.5 0
7416.5 1
7417.5 0.571429
7418.5 -2.42857
7419.5 -2.42857
7420.5 -4.85714
7421.5 -1.42857
7422.5 1
7423.5 2
7424.5 0
7425.5 0
7426.5 1
7427.5 0
7428.5 2
7429.5 0
7430.5 0
7431.5 1
7432.5 0
7433.5 1
7434.5 1
7435.5 0
7436.5 0
7437.5 0
7438.5 1
7439.5 0
7440.5 1
7441.5 -1.42857
7442.5 0
7443.5 0
7444.5 0
7445.5 0
7446.5 0
7447.5 0
7448.5 1
7449.5 0
7450.5 1
7451.5 0
7452.5 0
7453.5 0
7454.5 3
7455.5 1
7456.5 -1.42857
7457.5 0
7458.5 0
7459.5 1
7460.5 0
7461.5 0
7462.5 1
7463.5 2
7464.5 0
7465.5 0
7466.5 2
7467.5 -1.42857
7468.5 0
7469.5 1
7470.5 0
7471.5 -1.42857
7472.5 0
7473.5 1
7474.5 0
7475.5 1
7476.5 -2.42857
7477.5 0
7478.5 0
7479.5 0
7480.5 0
7481.5 0
7482.5 0
7483.5 0
7484.5 1
7485.5 1
7486.5 1
7487.5 1
7488.5 1
7489.5 0
7490.5 0
7491.5 0
7492.5 0
7493.5 1
7494.5 1
7495.5 1
7496.5 1
7497.5 0
7498.5 1
7499.5 1
7500.5 1
7501.5 1
7502.5 0
7503.5 1
7504.5 1
7505.5 0
7506.5 0
7507.5 -1.42857
7508.5 0
7509.5 0
7510.5 0
7511.5 0
7512.5 1
7513.5 -1.42857
7514.5 0
7515.5 0
7516.5 -2.42857
7517.5 0
7518.5 0
7519.5 0
7520.5 0
7521.5 -2.42857
7522.5 0
7523.5 0
7524.5 0
7525.5 1
7526.5 -1.42857
7527.5 1
7528.5 1
7529.5 -1.42857
7530.5 0
7531.5 0
7532.5 2
7533.5 1
7534.5 0
7535.5 1
7536.5 0
7537.5 -2.42857
7538.5 0
7539.5 0
7540.5 0
7541.5 0
7542.5 0
7543.5 0
7544.5 0
7545.5 1
7546.5 -2.42857
7547.5 0
7548.5 0
7549.5 -2.42857
7550.5 1
7551.5 0
7552.5 2
7553.5 0
7554.5 0
7555.5 0
7556.5 0
7557.5 0
7558.5 1
7559.5 0
7560.5 0
7561.5 0
7562.5 0
7563.5 2
7564.5 0
7565.5 1
7566.5 3
7567.5 0
7568.5 0
7569.5 -1.42857
7570.5 -3.85714
7571.5 1
7572.5 0
7573.5 -1.42857
7574.5 1
7575.5 -2.42857
7576.5 0
7577.5 2
7578.5 0
7579.5 -1.42857
7580.5 0
7581.5 1
7582.5 1
7583.5 2
7584.5 0
7585.5 0
7586.5 1
7587.5 0
7588.5 1
7589.5 0
7590.5 0
7591.5 0
7592.5 0
7593.5 0
7594.5 0
7595.5 2
7596.5 -1.42857
7597.5 0
7598.5 -1.42857
7599.5 0
7600.5 -2.42857
7601.5 0
7602.5 0
7603.5 0
7604.5 2
7605.5 1
7606.5 0
7607.5 0
7608.5 0
7609.5 0
7610.5 0
7611.5 1
7612.5 1
7613.5 1
7614.5 -2.42857
7615.5 -2.42857
7616.5 0.571429
7617.5 1
7618.5 1
7619.5 0
7620.5 0
7621.5 1
7622.5 1
7623.5 1
7624.5 0
7625.5 0
7626.5 0
7627.5 0
7628.5 0
7629.5 2
7630.5 0
7631.5 1
7632.5 0
7633.5 0
7634.5 1
7635.5 0
7636.5 0
7637.5 2
7638.5 2
7639.5 -2.42857
7640.5 -1.42857
7641.5 2
7642.5 -2.42857
7643.5 1
7644.5 0
7645.5 1
7646.5 1
7647.5 0
7648.5 1
7649.5 0
7650.5 2
7651.5 0
7652.5 0
7653.5 -2.42857
7654.5 0
7655.5 0
7656.5 1
7657.5 1
7658.5 1
7659.5 0
7660.5 0
7661.5 2
7662.5 0
7663.5 0
7664.5 -1.42857
7665.5 1
7666.5 0
7667.5 0
7668.5 0
7669.5 -2.42857
7670.5 0
7671.5 0
7672.5 2
7673.5 0
7674.5 0
7675.5 0
7676.5 1
7677.5 0
7678.5 0
7679.5 0
7680.5 -2.42857
7681.5 0
7682.5 0
7683.5 -2.42857
7684.5 0
7685.5 1
7686.5 0
7687.5 0
7688.5 1
7689.5 0
7690.5 0
7691.5 0
7692.5 0
7693.5 1
7694.5 0
7695.5 0
7696.5 0
7697.5 0
7698.5 1
7699.5 0
7700.5 0
7701.5 0
7702.5 0
7703.5 1
7704.5 0
7705.5 -1.42857
7706.5 1
7707.5 1
7708.5 0
7709.5 0
7710.5 0
7711.5 0
7712.5 -2.42857
7713.5 0
7714.5 0
7715.5 1
7716.5 1
7717.5 0
7718.5 0
7719.5 -2.42857
7720.5 -1.42857
7721.5 0
7722.5 -4.85714
7723.5 0
7724.5 -1.42857
7725.5 -1.42857
7726.5 -2.42857
7727.5 0
7728.5 0
7729.5 -2.42857
7730.5 2
7731.5 0
7732.5 0
7733.5 0
7734.5 1
7735.5 0
7736.5 0
7737.5 0
7738.5 -1.42857
7739.5 0
7740.5 0
7741.5 1
7742.5 0.571429
7743.5 0
7744.5 0
7745.5 1
7746.5 0
7747.5 1
7748.5 0
7749.5 0
7750.5 1
7751.5 0
7752.5 0
7753.5 0
7754.5 0
7755.5 1
7756.5 -2.42857
7757.5 -2.42857
7758.5 -1.42857
7759.5 1
7760.5 1
7761.5 0
7762.5 1
7763.5 0
7764.5 1
7765.5 1
7766.5 1
7767.5 -2.42857
7768.5 -1.42857
7769.5 -0.428571
7770.5 0
7771.5 -4.85714
7772.5 6
7773.5 0.571429
7774.5 2
7775.5 -0.428571
7776.5 0
7777.5 -4.85714
7778.5 0
7779.5 1
7780.5 0
7781.5 0
7782.5 0
7783.5 1
7784.5 0
7785.5 0
7786.5 -2.42857
7787.5 0
7788.5 -1.42857
7789.5 0
7790.5 2
7791.5 0
7792.5 0
7793.5 0
7794.5 0
7795.5 0
7796.5 0
7797.5 0
7798.5 0
7799.5 0
7800.5 0
7801.5 1
7802.5 0
7803.5 1
7804.5 0
7805.5 0
7806.5 0
7807.5 0
7808.5 1
7809.5 0
7810.5 0
7811.5 0
7812.5 1
7813.5 0
7814.5 0
7815.5 1
7816.5 0
7817.5 1
7818.5 0
7819.5 0
7820.5 0
7821.5 0
7822.5 0
7823.5 0
7824.5 1
7825.5 1
7826.5 1
7827.5 1
7828.5 1
7829.5 0
7830.5 -2.42857
7831.5 1
7832.5 0
7833.5 0
7834.5 0
7835.5 0
7836.5 1
7837.5 -2.42857
7838.5 0
7839.5 0
7840.5 0
7841.5 0
7842.5 0
7843.5 1
7844.5 0
7845.5 1
7846.5 0
7847.5 0
7848.5 0
7849.5 1
7850.5 0
7851.5 0
7852.5 2
7853.5 0
7854.5 0
7855.5 -1.42857
7856.5 0
7857.5 0
7858.5 0
7859.5 0
7860.5 0
7861.5 0
7862.5 0
7863.5 0
7864.5 0
7865.5 -2.42857
7866.5 0
7867.5 -2.42857
7868.5 0
7869.5 0
7870.5 0
7871.5 0
7872.5 0
7873.5 0
7874.5 1
7875.5 0
7876.5 0
7877.5 0
7878.5 1
7879.5 1
7880.5 0
7881.5 0
7882.5 0
7883.5 2
7884.5 0
7885.5 1
7886.5 1
7887.5 0
7888.5 0
7889.5 1
7890.5 0
7891.5 0
7892.5 0
7893.5 0
7894.5 0
7895.5 0
7896.5 0
7897.5 0
7898.5 0
7899.5 0
7900.5 0
7901.5 -2.42857
7902.5 0
7903.5 0
7904.5 1
7905.5 1
7906.5 0
7907.5 1
7908.5 0
7909.5 0
7910.5 0
7911.5 1
7912.5 1
7913.5 0
7914.5 0
7915.5 0
7916.5 1
7917.5 1
7918.5 0
7919.5 1
7920.5 0
7921.5 0
7922.5 0
7923.5 0
7924.5 0
7925.5 0
7926.5 0
7927.5 0
7928.5 1
7929.5 0
7930.5 0
7931.5 0
7932.5 0
7933.5 0
7934.5 1
7935.5 0
7936.5 0
7937.5 1
7938.5 0
7939.5 0
7940.5 0
7941.5 0
7942.5 2
7943.5 0
7944.5 0
7945.5 0
7946.5 0
7947.5 0
7948.5 0
7949.5 0
7950.5 0
7951.5 0
7952.5 1
7953.5 1
7954.5 0
7955.5 0
7956.5 0
7957.5 0
7958.5 0
7959.5 0
7960.5 -2.42857
7961.5 -2.42857
7962.5 0
7963.5 0
7964.5 0
7965.5 1
7966.5 2
7967.5 1
7968.5 0
7969.5 0
7970.5 0
7971.5 0
7972.5 0
7973.5 -2.42857
7974.5 -1.42857
7975.5 0
7976.5 3
7977.5 0
7978.5 -1.42857
7979.5 0
7980.5 0
7981.5 1
7982.5 0
7983.5 0
7984.5 1
7985.5 -2.42857
7986.5 0
7987.5 0
7988.5 -1.42857
7989.5 3
7990.5 0
7991.5 1
7992.5 0
7993.5 1
7994.5 0
7995.5 0
7996.5 0
7997.5 0
7998.5 -2.42857
7999.5 0
8000.5 0
8001.5 -2.42857
8002.5 -1.42857
8003.5 -1.42857
8004.5 0
8005.5 0
8006.5 1
8007.5 0
8008.5 1
8009.5 0
8010.5 0
8011.5 0
8012.5 0
8013.5 0
8014.5 0
8015.5 0
8016.5 -2.42857
8017.5 0
8018.5 0
8019.5 1
8020.5 1
8021.5 0
8022.5 0
8023.5 2
8024.5 0
8025.5 0
8026.5 0
8027.5 0
8028.5 0
8029.5 0
8030.5 0
8031.5 0
8032.5 0
8033.5 0
8034.5 0
8035.5 -2.42857
8036.5 1
8037.5 0
8038.5 0
8039.5 0
8040.5 0
8041.5 0
8042.5 0
8043.5 0
8044.5 1
8045.5 0
8046.5 0
8047.5 0
8048.5 1
8049.5 0
8050.5 0
8051.5 -1.42857
8052.5 -2.42857
8053.5 0
8054.5 0
8055.5 -1.42857
8056.5 0
8057.5 0
8058.5 -1.42857
8059.5 0
8060.5 0
8061.5 1
8062.5 0
8063.5 -2.42857
8064.5 1
8065.5 1
8066.5 0
8067.5 0
8068.5 1
8069.5 0
8070.5 0
8071.5 0
8072.5 0
8073.5 0
8074.5 0
8075.5 -2.42857
8076.5 1
8077.5 0
8078.5 -2.42857
8079.5 1
8080.5 -2.42857
8081.5 -4.85714
8082.5 0
8083.5 1
8084.5 1
8085.5 1
8086.5 0
8087.5 -2.42857
8088.5 1
8089.5 0
8090.5 1
8091.5 0
8092.5 0
8093.5 0
8094.5 -1.42857
8095.5 0
8096.5 0
8097.5 0
8098.5 1
8099.5 0
8100.5 0
8101.5 1
8102.5 0
8103.5 0
8104.5 1
8105.5 0
8106.5 0
8107.5 0
8108.5 0
8109.5 -2.42857
8110.5 0
8111.5 1
8112.5 0
8113.5 0
8114.5 2
8115.5 0
8116.5 0
8117.5 0
8118.5 -2.42857
8119.5 0
8120.5 0
8121.5 0
8122.5 0
8123.5 -2.42857
8124.5 0
8125.5 0
8126.5 1
8127.5 0
8128.5 0
8129.5 0
8130.5 -2.42857
8131.5 0
8132.5 0
8133.5 0
8134.5 0
8135.5 0
8136.5 -2.42857
8137.5 0
8138.5 1
8139.5 0
8140.5 0
8141.5 0
8142.5 0
8143.5 0
8144.5 1
8145.5 0
8146.5 0
8147.5 0
8148.5 0
8149.5 1
8150.5 0
8151.5 -2.42857
8152.5 0
8153.5 1
8154.5 1
8155.5 0
8156.5 0
8157.5 0
8158.5 1
8159.5 0
8160.5 0
8161.5 0
8162.5 0
8163.5 0
8164.5 0
8165.5 0
8166.5 0
8167.5 0
8168.5 0
8169.5 -2.42857
8170.5 0
8171.5 0
8172.5 0
8173.5 0
8174.5 0
8175.5 0
8176.5 0
8177.5 1
8178.5 0
8179.5 0
8180.5 1
8181.5 0
8182.5 0
8183.5 0
8184.5 0
8185.5 0
8186.5 0
8187.5 1
8188.5 0
8189.5 0
8190.5 0
8191.5 0
8192.5 0
8193.5 1
8194.5 1
8195.5 0
8196.5 0
8197.5 0
8198.5 0
8199.5 0
8200.5 1
8201.5 0
8202.5 0
8203.5 0
8204.5 0
8205.5 0
8206.5 1
8207.5 1
8208.5 0
8209.5 0
8210.5 0
8211.5 0
8212.5 0
8213.5 0
8214.5 0
8215.5 0
8216.5 0
8217.5 0
8218.5 0
8219.5 1
8220.5 0
8221.5 -2.42857
8222.5 0
8223.5 0
8224.5 1
8225.5 0
8226.5 0
8227.5 0
8228.5 1
8229.5 1
8230.5 0
8231.5 -2.42857
8232.5 -2.42857
8233.5 0
8234.5 0
8235.5 -1.42857
8236.5 1
8237.5 0
8238.5 0
8239.5 0
8240.5 0
8241.5 1
8242.5 0
8243.5 0
8244.5 0
8245.5 0
8246.5 0
8247.5 0
8248.5 0
8249.5 1
8250.5 0
8251.5 0
8252.5 0
8253.5 1
8254.5 0
8255.5 0
8256.5 0
8257.5 0
8258.5 3
8259.5 0
8260.5 0
8261.5 0
8262.5 0
8263.5 0
8264.5 1
8265.5 1
8266.5 0
8267.5 0
8268.5 0
8269.5 0
8270.5 -4.85714
8271.5 0
8272.5 0
8273.5 0
8274.5 0
8275.5 0
8276.5 1
8277.5 0
8278.5 0
8279.5 0
8280.5 0
8281.5 -2.42857
8282.5 0
8283.5 0
8284.5 0
8285.5 0
8286.5 0
8287.5 0
8288.5 1
8289.5 0
8290.5 1
8291.5 -2.42857
8292.5 1
8293.5 0
8294.5 0
8295.5 0
8296.5 1
8297.5 1
8298.5 1
8299.5 0
8300.5 0
8301.5 0
8302.5 0
8303.5 0
8304.5 0
8305.5 0
8306.5 0
8307.5 0
8308.5 1
8309.5 0
8310.5 0
8311.5 0
8312.5 2
8313.5 0
8314.5 0
8315.5 0
8316.5 1
8317.5 0
8318.5 1
8319.5 0
8320.5 0
8321.5 0
8322.5 1
8323.5 1
8324.5 0
8325.5 0
8326.5 0
8327.5 0
8328.5 0
8329.5 1
8330.5 0
8331.5 0
8332.5 0
8333.5 0
8334.5 0
8335.5 1
8336.5 0
8337.5 0
8338.5 0
8339.5 0
8340.5 0
8341.5 0
8342.5 0
8343.5 0
8344.5 1
8345.5 0
8346.5 0
8347.5 1
8348.5 0
8349.5 1
8350.5 0
8351.5 0
8352.5 0
8353.5 0
8354.5 0
8355.5 0
8356.5 0
8357.5 0
8358.5 -2.42857
8359.5 -2.42857
8360.5 0
8361.5 1
8362.5 0
8363.5 0
8364.5 -1.42857
8365.5 0
8366.5 0
8367.5 0
8368.5 1
8369.5 0
8370.5 0
8371.5 0
8372.5 0
8373.5 0
8374.5 1
8375.5 0
8376.5 2
8377.5 -2.42857
8378.5 0
8379.5 -2.42857
8380.5 1
8381.5 0
8382.5 1
8383.5 1
8384.5 0
8385.5 0
8386.5 0
8387.5 0
8388.5 0
8389.5 1
8390.5 0
8391.5 0
8392.5 0
8393.5 1
8394.5 0
8395.5 0
8396.5 0
8397.5 0
8398.5 1
8399.5 1
8400.5 0
8401.5 0
8402.5 0
8403.5 0
8404.5 0
8405.5 -2.42857
8406.5 0
8407.5 0
8408.5 0
8409.5 0
8410.5 0
8411.5 1
8412.5 -2.42857
8413.5 1
8414.5 -2.42857
8415.5 0
8416.5 0
8417.5 0
8418.5 0
8419.5 -1.42857
8420.5 -2.42857
8421.5 0
8422.5 0
8423.5 0
8424.5 0
8425.5 0
8426.5 0
8427.5 0
8428.5 0
8429.5 1
8430.5 1
8431.5 0
8432.5 0
8433.5 0
8434.5 0
8435.5 0
8436.5 0
8437.5 0
8438.5 0
8439.5 0
8440.5 0
8441.5 0
8442.5 1
8443.5 0
8444.5 0
8445.5 0
8446.5 0
8447.5 0
8448.5 0
8449.5 2
8450.5 0
8451.5 1
8452.5 0
8453.5 0
8454.5 1
8455.5 0
8456.5 0
8457.5 0
8458.5 0
8459.5 0
8460.5 1
8461.5 0
8462.5 -2.42857
8463.5 0
8464.5 0
8465.5 0
8466.5 1
8467.5 0
8468.5 2
8469.5 0
8470.5 0
8471.5 0
8472.5 1
8473.5 0
8474.5 0
8475.5 0
8476.5 0
8477.5 0
8478.5 0
8479.5 0
8480.5 0
8481.5 0
8482.5 0
8483.5 0
8484.5 0
8485.5 0
8486.5 0
8487.5 0
8488.5 0
8489.5 0
8490.5 1
8491.5 0
8492.5 0
8493.5 1
8494.5 0
8495.5 0
8496.5 1
8497.5 2
8498.5 1
8499.5 0
8500.5 0
8501.5 -1.42857
8502.5 0
8503.5 0
8504.5 0
8505.5 0
8506.5 0
8507.5 1
8508.5 0
8509.5 1
8510.5 0
8511.5 0
8512.5 0
8513.5 0
8514.5 0
8515.5 0
8516.5 2
8517.5 0
8518.5 0
8519.5 0
8520.5 0
8521.5 0
8522.5 1
8523.5 0
8524.5 0
8525.5 0
8526.5 1
8527.5 0
8528.5 0
8529.5 0
8530.5 0
8531.5 0
8532.5 0
8533.5 1
8534.5 0
8535.5 1
8536.5 0
8537.5 0
8538.5 -2.42857
8539.5 0
8540.5 -2.42857
8541.5 1
8542.5 -2.42857
8543.5 -2.42857
8544.5 0
8545.5 0
8546.5 0
8547.5 1
8548.5 -2.42857
8549.5 1
8550.5 0
8551.5 0
8552.5 1
8553.5 1
8554.5 1
8555.5 0
8556.5 -2.42857
8557.5 0
8558.5 1
8559.5 0
8560.5 0
8561.5 0
8562.5 1
8563.5 0
8564.5 0
8565.5 0
8566.5 0
8567.5 0
8568.5 0
8569.5 1
8570.5 1
8571.5 1
8572.5 1
8573.5 0
8574.5 -2.42857
8575.5 1
8576.5 0
8577.5 0
8578.5 0
8579.5 0
8580.5 0
8581.5 0
8582.5 0
8583.5 1
8584.5 0
8585.5 1
8586.5 0
8587.5 0
8588.5 0
8589.5 0
8590.5 0
8591.5 0
8592.5 0
8593.5 0
8594.5 -3.85714
8595.5 0
8596.5 0
8597.5 0
8598.5 0
8599.5 0
8600.5 0
8601.5 0
8602.5 0
8603.5 0
8604.5 0
8605.5 0
8606.5 1
8607.5 0
8608.5 0
8609.5 0
8610.5 0
8611.5 0
8612.5 0
8613.5 0
8614.5 0
8615.5 0
8616.5 1
8617.5 0
8618.5 0
8619.5 0
8620.5 0
8621.5 0
8622.5 0
8623.5 0
8624.5 -2.42857
8625.5 0
8626.5 0
8627.5 0
8628.5 0
8629.5 2
8630.5 2
8631.5 1
8632.5 0
8633.5 0
8634.5 0
8635.5 0
8636.5 0
8637.5 0
8638.5 0
8639.5 0
8640.5 0
8641.5 1
8642.5 0
8643.5 0
8644.5 0
8645.5 0
8646.5 0
8647.5 0
8648.5 0
8649.5 0
8650.5 1
8651.5 0
8652.5 0
8653.5 0
8654.5 1
8655.5 2
8656.5 0
8657.5 -2.42857
8658.5 0
8659.5 0
8660.5 0
8661.5 -2.42857
8662.5 0
8663.5 0
8664.5 0
8665.5 0
8666.5 0
8667.5 0
8668.5 0
8669.5 0
8670.5 0
8671.5 1
8672.5 0
8673.5 -2.42857
8674.5 1
8675.5 1
8676.5 0
8677.5 0
8678.5 0
8679.5 1
8680.5 -2.42857
8681.5 0
8682.5 0
8683.5 0
8684.5 1
8685.5 -2.42857
8686.5 0
8687.5 1
8688.5 -2.42857
8689.5 0
8690.5 0
8691.5 -2.42857
8692.5 0
8693.5 0
8694.5 1
8695.5 0
8696.5 -2.42857
8697.5 0
8698.5 0
8699.5 0
8700.5 -2.42857
8701.5 0
8702.5 1
8703.5 0
8704.5 1
8705.5 0
8706.5 0
8707.5 0
8708.5 0
8709.5 0
8710.5 0
8711.5 0
8712.5 1
8713.5 0
8714.5 0
8715.5 1
8716.5 1
8717.5 1
8718.5 0
8719.5 0
8720.5 0
8721.5 0
8722.5 0
8723.5 -2.42857
8724.5 0
8725.5 0
8726.5 1
8727.5 0
8728.5 0
8729.5 0
8730.5 0
8731.5 0
8732.5 1
8733.5 -4.85714
8734.5 0
8735.5 0
8736.5 0
8737.5 0
8738.5 0
8739.5 0
8740.5 0
8741.5 1
8742.5 1
8743.5 0
8744.5 0
8745.5 0
8746.5 0
8747.5 0
8748.5 0
8749.5 -2.42857
8750.5 0
8751.5 0
8752.5 0
8753.5 0
8754.5 1
8755.5 0
8756.5 0
8757.5 0
8758.5 0
8759.5 1
8760.5 0
8761.5 0
8762.5 0
8763.5 0
8764.5 0
8765.5 0
8766.5 0
8767.5 2
8768.5 0
8769.5 0
8770.5 -2.42857
8771.5 0
8772.5 0
8773.5 0
8774.5 0
8775.5 0
8776.5 0
8777.5 0
8778.5 0
8779.5 0
8780.5 0
8781.5 0
8782.5 0
8783.5 0
8784.5 0
8785.5 0
8786.5 -1.42857
8787.5 0
8788.5 0
8789.5 0
8790.5 0
8791.5 0
8792.5 0
8793.5 0
8794.5 1
8795.5 -1.42857
8796.5 0
8797.5 0
8798.5 0
8799.5 0
8800.5 0.571429
8801.5 1
8802.5 0
8803.5 0
8804.5 0
8805.5 0
8806.5 0
8807.5 1
8808.5 0
8809.5 0
8810.5 1
8811.5 -2.42857
8812.5 0
8813.5 0
8814.5 0
8815.5 0
8816.5 0
8817.5 0
8818.5 0
8819.5 0
8820.5 0
8821.5 0
8822.5 0
8823.5 0
8824.5 0
8825.5 0
8826.5 0
8827.5 0
8828.5 0
8829.5 1
8830.5 0
8831.5 0
8832.5 0
8833.5 0
8834.5 0
8835.5 0
8836.5 0
8837.5 0
8838.5 0
8839.5 0
8840.5 -2.42857
8841.5 0
8842.5 0
8843.5 0
8844.5 0
8845.5 -0.428571
8846.5 0
8847.5 0
8848.5 0
8849.5 1
8850.5 0
8851.5 0
8852.5 1
8853.5 1
8854.5 1
8855.5 0
8856.5 0
8857.5 0
8858.5 0
8859.5 0
8860.5 0
8861.5 0
8862.5 0
8863.5 0
8864.5 0
8865.5 0
8866.5 0
8867.5 1
8868.5 0
8869.5 0
8870.5 0
8871.5 0
8872.5 0
8873.5 0
8874.5 0
8875.5 0
8876.5 0
8877.5 0
8878.5 0
8879.5 1
8880.5 -2.42857
8881.5 1
8882.5 -2.42857
8883.5 0
8884.5 0
8885.5 0
8886.5 0
8887.5 0
8888.5 0
8889.5 1
8890.5 0
8891.5 0
8892.5 0
8893.5 0
8894.5 1
8895.5 0
8896.5 -2.42857
8897.5 0
8898.5 0
8899.5 0
8900.5 0
8901.5 0
8902.5 0
8903.5 0
8904.5 0
8905.5 1
8906.5 0
8907.5 1
8908.5 1
8909.5 0
8910.5 0
8911.5 0
8912.5 0
8913.5 0
8914.5 0
8915.5 0
8916.5 0
8917.5 1
8918.5 0
8919.5 1
8920.5 1
8921.5 0
8922.5 0
8923.5 0
8924.5 0
8925.5 1
8926.5 0
8927.5 0
8928.5 -2.42857
8929.5 0
8930.5 0
8931.5 0
8932.5 1
8933.5 1
8934.5 0
8935.5 0
8936.5 0
8937.5 0
8938.5 0
8939.5 0
8940.5 0
8941.5 0
8942.5 0
8943.5 0
8944.5 0
8945.5 0
8946.5 0
8947.5 -2.42857
8948.5 0
8949.5 0
8950.5 0
8951.5 0
8952.5 0
8953.5 0
8954.5 0
8955.5 0
8956.5 0
8957.5 0
8958.5 0
8959.5 0
8960.5 0
8961.5 0
8962.5 0
8963.5 0
8964.5 0
8965.5 -2.42857
8966.5 -2.42857
8967.5 0
8968.5 1
8969.5 0
8970.5 0
8971.5 0
8972.5 0
8973.5 0
8974.5 0
8975.5 1
8976.5 0
8977.5 1
8978.5 0
8979.5 0
8980.5 0
8981.5 0
8982.5 0
8983.5 0
8984.5 0
8985.5 0
8986.5 0
8987.5 1
8988.5 0
8989.5 0
8990.5 0
8991.5 0
8992.5 0
8993.5 1
8994.5 0
8995.5 2
8996.5 0
8997.5 1
8998.5 0
8999.5 0
9000.5 0
9001.5 0
9002.5 1
9003.5 0
9004.5 1
9005.5 0
9006.5 0
9007.5 0
9008.5 0
9009.5 0
9010.5 0
9011.5 0
9012.5 0
9013.5 1
9014.5 0
9015.5 1
9016.5 0
9017.5 0
9018.5 0
9019.5 1
9020.5 0
9021.5 0
9022.5 0
9023.5 -2.42857
9024.5 -2.42857
9025.5 0
9026.5 -2.42857
9027.5 0
9028.5 0
9029.5 0
9030.5 0
9031.5 0
9032.5 0
9033.5 0
9034.5 0
9035.5 0
9036.5 0
9037.5 0
9038.5 1
9039.5 0
9040.5 0
9041.5 0
9042.5 0
9043.5 1
9044.5 1
9045.5 0
9046.5 0
9047.5 1
9048.5 -0.428571
9049.5 0
9050.5 0
9051.5 1
9052.5 1
9053.5 0
9054.5 0
9055.5 1
9056.5 0
9057.5 0
9058.5 0
9059.5 0
9060.5 0
9061.5 0
9062.5 0
9063.5 1
9064.5 -2.42857
9065.5 0
9066.5 0
9067.5 -2.42857
9068.5 0
9069.5 0
9070.5 0
9071.5 0
9072.5 0
9073.5 0
9074.5 0
9075.5 0
9076.5 0
9077.5 0
9078.5 0
9079.5 0
9080.5 0
9081.5 0
9082.5 0
9083.5 0
9084.5 0
9085.5 0
9086.5 0
9087.5 0
9088.5 1
9089.5 0
9090.5 -2.42857
9091.5 0
9092.5 0
9093.5 0
9094.5 0
9095.5 1
9096.5 0
9097.5 0
9098.5 0
9099.5 0
9100.5 0
9101.5 0
9102.5 0
9103.5 0
9104.5 0
9105.5 0
9106.5 0
9107.5 0
9108.5 0
9109.5 0
9110.5 0
9111.5 -2.42857
9112.5 0
9113.5 0
9114.5 1
9115.5 1
9116.5 0
9117.5 0
9118.5 0
9119.5 1
9120.5 0
9121.5 0
9122.5 0
9123.5 0
9124.5 0
9125.5 0
9126.5 0
9127.5 -2.42857
9128.5 0
9129.5 0
9130.5 0
9131.5 0
9132.5 0
9133.5 0
9134.5 0
9135.5 0
9136.5 1
9137.5 1
9138.5 0
9139.5 0
9140.5 0
9141.5 1
9142.5 1
9143.5 0
9144.5 0
9145.5 1
9146.5 0
9147.5 0
9148.5 0
9149.5 0
9150.5 0
9151.5 0
9152.5 0
9153.5 0
9154.5 2
9155.5 0
9156.5 0
9157.5 0
9158.5 0
9159.5 1
9160.5 0
9161.5 0
9162.5 0
9163.5 0
9164.5 0
9165.5 0
9166.5 0
9167.5 1
9168.5 0
9169.5 0
9170.5 0
9171.5 0
9172.5 1
9173.5 0
9174.5 0
9175.5 0
9176.5 0
9177.5 0
9178.5 0
9179.5 0
9180.5 0
9181.5 0
9182.5 -2.42857
9183.5 -2.42857
9184.5 0
9185.5 0
9186.5 0
9187.5 0
9188.5 0
9189.5 0
9190.5 0
9191.5 1
9192.5 0
9193.5 0
9194.5 0
9195.5 0
9196.5 0
9197.5 0
9198.5 0
9199.5 0
9200.5 1
9201.5 0
9202.5 0
9203.5 1
9204.5 0
9205.5 0
9206.5 0
9207.5 0
9208.5 0
9209.5 0
9210.5 0
9211.5 0
9212.5 0
9213.5 0
9214.5 -2.42857
9215.5 0
9216.5 0
9217.5 0
9218.5 0
9219.5 0
9220.5 0
9221.5 0
9222.5 0
9223.5 0
9224.5 0
9225.5 0
9226.5 0
9227.5 1
9228.5 -2.42857
9229.5 0
9230.5 2
9231.5 1
9232.5 0
9233.5 1
9234.5 0
9235.5 0
9236.5 0
9237.5 0
9238.5 0
9239.5 1
9240.5 0
9241.5 0
9242.5 0
9243.5 0
9244.5 0
9245.5 0
9246.5 1
9247.5 0
9248.5 0
9249.5 0
9250.5 -2.42857
9251.5 -2.42857
9252.5 0
9253.5 0
9254.5 0
9255.5 0
9256.5 0
9257.5 -2.42857
9258.5 1
9259.5 0
9260.5 0
9261.5 1
9262.5 0
9263.5 0
9264.5 0
9265.5 0
9266.5 0
9267.5 1
9268.5 0
9269.5 0
9270.5 -2.42857
9271.5 0
9272.5 0
9273.5 0
9274.5 1
9275.5 1
9276.5 0
9277.5 0
9278.5 0
9279.5 0
9280.5 0
9281.5 0
9282.5 0
9283.5 0
9284.5 0
9285.5 0
9286.5 -2.42857
9287.5 0
9288.5 0
9289.5 0
9290.5 0
9291.5 0
9292.5 0
9293.5 1
9294.5 0
9295.5 1
9296.5 0
9297.5 0
9298.5 0
9299.5 0
9300.5 -2.42857
9301.5 0
9302.5 1
9303.5 0
9304.5 -2.42857
9305.5 0
9306.5 0
9307.5 0
9308.5 0
9309.5 0
9310.5 2
9311.5 0
9312.5 0
9313.5 0
9314.5 0
9315.5 0
9316.5 0
9317.5 0
9318.5 0
9319.5 0
9320.5 0
9321.5 0
9322.5 0
9323.5 1
9324.5 0
9325.5 -2.42857
9326.5 0
9327.5 0
9328.5 0
9329.5 0
9330.5 0
9331.5 0
9332.5 0
9333.5 -1.42857
9334.5 0
9335.5 0
9336.5 1
9337.5 0
9338.5 1
9339.5 0
9340.5 0
9341.5 -2.42857
9342.5 0
9343.5 0
9344.5 0
9345.5 0
9346.5 0
9347.5 1
9348.5 0
9349.5 0
9350.5 0
9351.5 0
9352.5 -2.42857
9353.5 0
9354.5 0
9355.5 0
9356.5 -2.42857
9357.5 0
9358.5 0
9359.5 0
9360.5 0
9361.5 0
9362.5 0
9363.5 0
9364.5 1
9365.5 -2.42857
9366.5 0
9367.5 0
9368.5 0
9369.5 0
9370.5 0
9371.5 1
9372.5 0
9373.5 0
9374.5 0
9375.5 0
9376.5 0
9377.5 0
9378.5 0
9379.5 0
9380.5 0
9381.5 0
9382.5 0
9383.5 0
9384.5 0
9385.5 0
9386.5 0
9387.5 0
9388.5 0
9389.5 0
9390.5 0
9391.5 0
9392.5 0
9393.5 0
9394.5 0
9395.5 0
9396.5 0
9397.5 0
9398.5 0
9399.5 1
9400.5 0
9401.5 0
9402.5 0
9403.5 -2.42857
9404.5 0
9405.5 0
9406.5 0
9407.5 1
9408.5 0
9409.5 0
9410.5 0
9411.5 0
9412.5 0
9413.5 0
9414.5 0
9415.5 0
9416.5 0
9417.5 0
9418.5 0
9419.5 1
9420.5 0
9421.5 0
9422.5 0
9423.5 1
9424.5 0
9425.5 0
9426.5 0
9427.5 0
9428.5 0
9429.5 1
9430.5 0
9431.5 0
9432.5 0
9433.5 1
9434.5 1
9435.5 2
9436.5 0
9437.5 0
9438.5 0
9439.5 0
9440.5 0
9441.5 0
9442.5 0
9443.5 0
9444.5 0
9445.5 0
9446.5 0
9447.5 0
9448.5 0
9449.5 0
9450.5 0
9451.5 0
9452.5 0
9453.5 0
9454.5 0
9455.5 0
9456.5 0
9457.5 0
9458.5 2
9459.5 0
9460.5 0
9461.5 0
9462.5 0
9463.5 1
9464.5 0
9465.5 1
9466.5 0
9467.5 0
9468.5 0
9469.5 0
9470.5 -2.42857
9471.5 0
9472.5 0
9473.5 2
9474.5 0
9475.5 0
9476.5 0
9477.5 0
9478.5 0
9479.5 0
9480.5 1
9481.5 0
9482.5 0
9483.5 0
9484.5 0
9485.5 0
9486.5 0
9487.5 1
9488.5 0
9489.5 0
9490.5 0
9491.5 0
9492.5 -2.42857
9493.5 0
9494.5 0
9495.5 0
9496.5 0
9497.5 0
9498.5 0
9499.5 0
9500.5 0
9501.5 0
9502.5 0
9503.5 0
9504.5 0
9505.5 0
9506.5 0
9507.5 0
9508.5 0
9509.5 0
9510.5 -2.42857
9511.5 -2.42857
9512.5 0
9513.5 0
9514.5 1
9515.5 0
9516.5 0
9517.5 0
9518.5 -2.42857
9519.5 0
9520.5 0
9521.5 2
9522.5 0
9523.5 0
9524.5 0
9525.5 0
9526.5 0
9527.5 0
9528.5 0
9529.5 0
9530.5 0
9531.5 1
9532.5 0
9533.5 0
9534.5 0
9535.5 0
9536.5 1
9537.5 0
9538.5 0
9539.5 0
9540.5 0
9541.5 0
9542.5 0
9543.5 0
9544.5 0
9545.5 0
9546.5 0
9547.5 0
9548.5 0
9549.5 0
9550.5 0
9551.5 0
9552.5 0
9553.5 0
9554.5 0
9555.5 0
9556.5 0
9557.5 0
9558.5 0
9559.5 0
9560.5 0
9561.5 0
9562.5 0
9563.5 0
9564.5 0
9565.5 0
9566.5 0
9567.5 0
9568.5 0
9569.5 0
9570.5 0
9571.5 1
9572.5 0
9573.5 0
9574.5 0
9575.5 0
9576.5 0
9577.5 0
9578.5 0
9579.5 0
9580.5 0
9581.5 0
9582.5 0
9583.5 -2.42857
9584.5 0
9585.5 0
9586.5 0
9587.5 0
9588.5 0
9589.5 0
9590.5 0
9591.5 1
9592.5 0
9593.5 0
9594.5 0
9595.5 0
9596.5 0
9597.5 0
9598.5 0
9599.5 0
9600.5 0
9601.5 1
9602.5 0
9603.5 -2.42857
9604.5 0
9605.5 0
9606.5 0
9607.5 0
9608.5 0
9609.5 0
9610.5 1
9611.5 0
9612.5 0
9613.5 0
9614.5 0
9615.5 0
9616.5 0
9617.5 0
9618.5 0
9619.5 0
9620.5 0
9621.5 0
9622.5 0
9623.5 1
9624.5 0
9625.5 0
9626.5 0
9627.5 0
9628.5 0
9629.5 0
9630.5 0
9631.5 0
9632.5 0
9633.5 0
9634.5 0
9635.5 0
9636.5 0
9637.5 0
9638.5 0
9639.5 0
9640.5 0
9641.5 0
9642.5 0
9643.5 0
9644.5 0
9645.5 -2.42857
9646.5 0
9647.5 0
9648.5 0
9649.5 0
9650.5 0
9651.5 0
9652.5 0
9653.5 0
9654.5 1
9655.5 0
9656.5 0
9657.5 0
9658.5 0
9659.5 0
9660.5 0
9661.5 0
9662.5 0
9663.5 0
9664.5 0
9665.5 0
9666.5 0
9667.5 0
9668.5 -2.42857
9669.5 1
9670.5 0
9671.5 0
9672.5 0
9673.5 0
9674.5 0
9675.5 0
9676.5 0
9677.5 0
9678.5 0
9679.5 0
9680.5 1
9681.5 0
9682.5 0
9683.5 0
9684.5 0
9685.5 0
9686.5 0
9687.5 0
9688.5 0
9689.5 0
9690.5 0
9691.5 0
9692.5 0
9693.5 0
9694.5 0
9695.5 0
9696.5 0
9697.5 0
9698.5 0
9699.5 0
9700.5 0
9701.5 0
9702.5 0
9703.5 0
9704.5 0
9705.5 0
9706.5 0
9707.5 0
9708.5 0
9709.5 0
9710.5 0
9711.5 0
9712.5 -2.42857
9713.5 0
9714.5 0
9715.5 0
9716.5 0
9717.5 0
9718.5 0
9719.5 0
9720.5 0
9721.5 0
9722.5 1
9723.5 0
9724.5 0
9725.5 0
9726.5 0
9727.5 0
9728.5 0
9729.5 0
9730.5 0
9731.5 0
9732.5 0
9733.5 0
9734.5 0
9735.5 0
9736.5 0
9737.5 0
9738.5 0
9739.5 0
9740.5 0
9741.5 0
9742.5 0
9743.5 0
9744.5 0
9745.5 0
9746.5 0
9747.5 0
9748.5 0
9749.5 0
9750.5 0
9751.5 0
9752.5 0
9753.5 0
9754.5 0
9755.5 0
9756.5 0
9757.5 0
9758.5 0
9759.5 1
9760.5 0
9761.5 0
9762.5 0
9763.5 0
9764.5 0
9765.5 0
9766.5 0
9767.5 0
9768.5 0
9769.5 0
9770.5 0
9771.5 -2.42857
9772.5 0
9773.5 0
9774.5 0
9775.5 0
9776.5 0
9777.5 0
9778.5 0
9779.5 0
9780.5 0
9781.5 0
9782.5 0
9783.5 0
9784.5 0
9785.5 0
9786.5 0
9787.5 0
9788.5 0
9789.5 -2.42857
9790.5 0
9791.5 0
9792.5 0
9793.5 0
9794.5 0
9795.5 0
9796.5 0
9797.5 0
9798.5 0
9799.5 0
9800.5 0
9801.5 0
9802.5 -2.42857
9803.5 0
9804.5 0
9805.5 0
9806.5 0
9807.5 0
9808.5 0
9809.5 0
9810.5 0
9811.5 0
9812.5 0
9813.5 0
9814.5 0
9815.5 0
9816.5 -2.42857
9817.5 0
9818.5 0
9819.5 0
9820.5 1
9821.5 0
9822.5 0
9823.5 0
9824.5 0
9825.5 0
9826.5 0
9827.5 0
9828.5 0
9829.5 0
9830.5 0
9831.5 0
9832.5 0
9833.5 0
9834.5 0
9835.5 0
9836.5 1
9837.5 0
9838.5 0
9839.5 0
9840.5 0
9841.5 0
9842.5 0
9843.5 0
9844.5 -2.42857
9845.5 0
9846.5 0
9847.5 0
9848.5 0
9849.5 0
9850.5 0
9851.5 0
9852.5 0
9853.5 0
9854.5 0
9855.5 0
9856.5 0
9857.5 0
9858.5 0
9859.5 0
9860.5 0
9861.5 0
9862.5 0
9863.5 -2.42857
9864.5 0
9865.5 0
9866.5 0
9867.5 0
9868.5 0
9869.5 0
9870.5 0
9871.5 0
9872.5 0
9873.5 0
9874.5 0
9875.5 0
9876.5 0
9877.5 0
9878.5 0
9879.5 0
9880.5 0
9881.5 0
9882.5 0
9883.5 0
9884.5 0
9885.5 0
9886.5 0
9887.5 0
9888.5 0
9889.5 0
9890.5 0
9891.5 0
9892.5 0
9893.5 0
9894.5 0
9895.5 0
9896.5 0
9897.5 0
9898.5 0
9899.5 1
9900.5 0
9901.5 0
9902.5 0
9903.5 0
9904.5 0
9905.5 0
9906.5 0
9907.5 0
9908.5 0
9909.5 1
9910.5 0
9911.5 0
9912.5 0
9913.5 0
9914.5 0
9915.5 0
9916.5 0
9917.5 0
9918.5 0
9919.5 0
9920.5 0
9921.5 0
9922.5 0
9923.5 0
9924.5 1
9925.5 0
9926.5 0
9927.5 0
9928.5 0
9929.5 0
9930.5 0
9931.5 0
9932.5 0
9933.5 0
9934.5 0
9935.5 0
9936.5 0
9937.5 0
9938.5 0
9939.5 0
9940.5 0
9941.5 0
9942.5 0
9943.5 0
9944.5 0
9945.5 0
9946.5 0
9947.5 0
9948.5 1
9949.5 0
9950.5 0
9951.5 0
9952.5 0
9953.5 0
9954.5 0
9955.5 0
9956.5 0
9957.5 0
9958.5 0
9959.5 -2.42857
9960.5 0
9961.5 0
9962.5 0
9963.5 0
9964.5 0
9965.5 0
9966.5 0
9967.5 1
9968.5 0
9969.5 0
9970.5 0
9971.5 0
9972.5 0
9973.5 0
9974.5 0
9975.5 0
9976.5 0
9977.5 0
9978.5 0
9979.5 0
9980.5 0
9981.5 0
9982.5 0
9983.5 0
9984.5 0
9985.5 0
9986.5 0
9987.5 0
9988.5 0
9989.5 0
9990.5 0
9991.5 0
9992.5 0
9993.5 0
9994.5 0
9995.5 0
9996.5 0
9997.5 0
9998.5 0
9999.5 0
10000.5 0
10001.5 0
10002.5 0
10003.5 0
10004.5 0
10005.5 0
10006.5 0
10007.5 0
10008.5 0
10009.5 0
10010.5 0
10011.5 0
10012.5 0
10013.5 0
10014.5 0
10015.5 0
10016.5 0
10017.5 0
10018.5 0
10019.5 0
10020.5 0
10021.5 0
10022.5 0
10023.5 0
10024.5 0
10025.5 0
10026.5 0
10027.5 0
10028.5 0
10029.5 0
10030.5 0
10031.5 0
10032.5 0
10033.5 0
10034.5 0
10035.5 0
10036.5 0
10037.5 0
10038.5 0
10039.5 0
10040.5 0
10041.5 0
10042.5 0
10043.5 0
10044.5 0
10045.5 0
10046.5 0
10047.5 0
10048.5 0
10049.5 0
10050.5 0
10051.5 0
10052.5 0
10053.5 0
10054.5 0
10055.5 0
10056.5 0
10057.5 0
10058.5 0
10059.5 0
10060.5 0
10061.5 0
10062.5 0
10063.5 0
10064.5 0
10065.5 0
10066.5 0
10067.5 0
10068.5 0
10069.5 0
10070.5 0
10071.5 0
10072.5 0
10073.5 0
10074.5 0
10075.5 0
10076.5 0
10077.5 0
10078.5 0
10079.5 0
10080.5 0
10081.5 0
10082.5 0
10083.5 0
10084.5 0
10085.5 0
10086.5 0
10087.5 0
10088.5 0
10089.5 0
10090.5 0
10091.5 0
10092.5 0
10093.5 0
10094.5 0
10095.5 0
10096.5 0
10097.5 0
10098.5 0
10099.5 0
10100.5 0
10101.5 0
10102.5 0
10103.5 0
10104.5 1
10105.5 0
10106.5 0
10107.5 0
10108.5 0
10109.5 0
10110.5 0
10111.5 0
10112.5 0
10113.5 0
10114.5 0
10115.5 0
10116.5 0
10117.5 0
10118.5 0
10119.5 0
10120.5 0
10121.5 0
10122.5 0
10123.5 0
10124.5 0
10125.5 0
10126.5 0
10127.5 0
10128.5 0
10129.5 0
10130.5 0
10131.5 0
10132.5 0
10133.5 0
10134.5 0
10135.5 0
10136.5 0
10137.5 0
10138.5 0
10139.5 0
10140.5 0
10141.5 0
10142.5 0
10143.5 0
10144.5 0
10145.5 0
10146.5 1
10147.5 0
10148.5 0
10149.5 0
10150.5 0
10151.5 0
10152.5 0
10153.5 1
10154.5 0
10155.5 0
10156.5 0
10157.5 0
10158.5 0
10159.5 0
10160.5 0
10161.5 0
10162.5 0
10163.5 0
10164.5 0
10165.5 0
10166.5 0
10167.5 0
10168.5 0
10169.5 0
10170.5 0
10171.5 0
10172.5 0
10173.5 0
10174.5 0
10175.5 0
10176.5 0
10177.5 0
10178.5 1
10179.5 0
10180.5 0
10181.5 0
10182.5 0
10183.5 0
10184.5 0
10185.5 0
10186.5 0
10187.5 0
10188.5 0
10189.5 0
10190.5 0
10191.5 0
10192.5 0
10193.5 0
10194.5 0
10195.5 0
10196.5 0
10197.5 0
10198.5 0
10199.5 0
10200.5 0
10201.5 0
10202.5 0
10203.5 0
10204.5 0
10205.5 0
10206.5 0
10207.5 0
10208.5 0
10209.5 0
10210.5 0
10211.5 0
10212.5 0
10213.5 0
10214.5 0
10215.5 0
10216.5 0
10217.5 0
10218.5 0
10219.5 0
10220.5 0
10221.5 0
10222.5 0
10223.5 0
10224.5 0
10225.5 0
10226.5 0
10227.5 0
10228.5 0
10229.5 0
10230.5 0
10231.5 0
10232.5 0
10233.5 0
10234.5 0
10235.5 0
10236.5 0
10237.5 0
10238.5 0
10239.5 0
10240.5 0
10241.5 0
10242.5 0
10243.5 0
10244.5 0
10245.5 0
10246.5 0
10247.5 0
10248.5 0
10249.5 0
10250.5 0
10251.5 0
10252.5 0
10253.5 0
10254.5 0
10255.5 0
10256.5 0
10257.5 0
10258.5 0
10259.5 0
10260.5 0
10261.5 0
10262.5 0
10263.5 0
10264.5 0
10265.5 0
10266.5 0
10267.5 0
10268.5 0
10269.5 0
10270.5 0
10271.5 0
10272.5 0
10273.5 0
10274.5 0
10275.5 0
10276.5 0
10277.5 0
10278.5 0
10279.5 0
10280.5 0
10281.5 0
10282.5 0
10283.5 0
10284.5 0
10285.5 0
10286.5 0
10287.5 0
10288.5 0
10289.5 0
10290.5 0
10291.5 0
10292.5 0
10293.5 0
10294.5 0
10295.5 0
10296.5 0
10297.5 0
10298.5 0
10299.5 0
10300.5 0
10301.5 0
10302.5 0
10303.5 0
10304.5 0
10305.5 0
10306.5 0
10307.5 0
10308.5 0
10309.5 0
10310.5 0
10311.5 0
10312.5 0
10313.5 0
10314.5 0
10315.5 0
10316.5 0
10317.5 0
10318.5 1
10319.5 0
10320.5 0
10321.5 0
10322.5 0
10323.5 0
10324.5 0
10325.5 1
10326.5 0
10327.5 1
10328.5 0
10329.5 0
10330.5 0
10331.5 0
10332.5 0
10333.5 0
10334.5 0
10335.5 0
10336.5 0
10337.5 0
10338.5 0
10339.5 0
10340.5 0
10341.5 0
10342.5 0
10343.5 0
10344.5 0
10345.5 0
10346.5 0
10347.5 0
10348.5 0
10349.5 0
10350.5 0
10351.5 0
10352.5 0
10353.5 0
10354.5 0
10355.5 0
10356.5 0
10357.5 0
10358.5 0
10359.5 0
10360.5 0
10361.5 0
10362.5 0
10363.5 0
10364.5 0
10365.5 0
10366.5 0
10367.5 0
10368.5 0
10369.5 0
10370.5 0
10371.5 0
10372.5 0
10373.5 0
10374.5 0
10375.5 1
10376.5 0
10377.5 0
10378.5 0
10379.5 0
10380.5 0
10381.5 0
10382.5 0
10383.5 0
10384.5 0
10385.5 0
10386.5 0
10387.5 0
10388.5 0
10389.5 0
10390.5 0
10391.5 0
10392.5 0
10393.5 0
10394.5 0
10395.5 0
10396.5 0
10397.5 0
10398.5 0
10399.5 0
10400.5 0
10401.5 0
10402.5 0
10403.5 0
10404.5 0
10405.5 0
10406.5 0
10407.5 0
10408.5 0
10409.5 -2.42857
10410.5 0
10411.5 0
10412.5 0
10413.5 0
10414.5 0
10415.5 0
10416.5 0
10417.5 0
10418.5 0
10419.5 0
10420.5 0
10421.5 0
10422.5 0
10423.5 0
10424.5 0
10425.5 0
10426.5 0
10427.5 0
10428.5 0
10429.5 0
10430.5 0
10431.5 0
10432.5 0
10433.5 0
10434.5 0
10435.5 0
10436.5 0
10437.5 0
10438.5 0
10439.5 0
10440.5 0
10441.5 0
10442.5 0
10443.5 0
10444.5 0
10445.5 0
10446.5 0
10447.5 0
10448.5 0
10449.5 0
10450.5 0
10451.5 0
10452.5 0
10453.5 0
10454.5 0
10455.5 0
10456.5 0
10457.5 0
10458.5 0
10459.5 0
10460.5 0
10461.5 0
10462.5 0
10463.5 0
10464.5 0
10465.5 0
10466.5 0
10467.5 0
10468.5 0
10469.5 0
10470.5 0
10471.5 0
10472.5 0
10473.5 0
10474.5 0
10475.5 0
10476.5 0
10477.5 0
10478.5 0
10479.5 0
10480.5 0
10481.5 0
10482.5 0
10483.5 0
10484.5 0
10485.5 0
10486.5 0
10487.5 0
10488.5 0
10489.5 0
10490.5 0
10491.5 0
10492.5 0
10493.5 0
10494.5 0
10495.5 0
10496.5 0
10497.5 0
10498.5 0
10499.5 0
10500.5 0
10501.5 0
10502.5 0
10503.5 0
10504.5 0
10505.5 0
10506.5 0
10507.5 0
10508.5 0
10509.5 0
10510.5 0
10511.5 0
10512.5 0
10513.5 0
10514.5 0
10515.5 0
10516.5 0
10517.5 0
10518.5 0
10519.5 0
10520.5 0
10521.5 0
10522.5 0
10523.5 0
10524.5 0
10525.5 0
10526.5 0
10527.5 0
10528.5 0
10529.5 0
10530.5 0
10531.5 0
10532.5 0
10533.5 0
10534.5 0
10535.5 0
10536.5 0
10537.5 0
10538.5 0
10539.5 0
10540.5 0
10541.5 0
10542.5 0
10543.5 0
10544.5 0
10545.5 0
10546.5 0
10547.5 0
10548.5 0
10549.5 0
10550.5 0
10551.5 0
10552.5 0
10553.5 0
10554.5 0
10555.5 0
10556.5 0
10557.5 0
10558.5 0
10559.5 0
10560.5 0
10561.5 0
10562.5 0
10563.5 0
10564.5 0
10565.5 0
10566.5 0
10567.5 0
10568.5 0
10569.5 0
10570.5 0
10571.5 0
10572.5 0
10573.5 0
10574.5 0
10575.5 0
10576.5 0
10577.5 0
10578.5 0
10579.5 1
10580.5 0
10581.5 0
10582.5 0
10583.5 0
10584.5 0
10585.5 0
10586.5 0
10587.5 0
10588.5 0
10589.5 0
10590.5 0
10591.5 0
10592.5 0
10593.5 0
10594.5 0
10595.5 0
10596.5 0
10597.5 0
10598.5 0
10599.5 0
10600.5 0
10601.5 0
10602.5 0
10603.5 0
10604.5 0
10605.5 0
10606.5 0
10607.5 0
10608.5 0
10609.5 0
10610.5 0
10611.5 0
10612.5 0
10613.5 0
10614.5 0
10615.5 0
10616.5 0
10617.5 0
10618.5 0
10619.5 0
10620.5 0
10621.5 0
10622.5 0
10623.5 0
10624.5 0
10625.5 0
10626.5 0
10627.5 0
10628.5 0
10629.5 0
10630.5 0
10631.5 0
10632.5 0
10633.5 0
10634.5 0
10635.5 0
10636.5 0
10637.5 0
10638.5 0
10639.5 0
10640.5 0
10641.5 0
10642.5 0
10643.5 0
10644.5 0
10645.5 0
10646.5 0
10647.5 0
10648.5 0
10649.5 0
10650.5 0
10651.5 0
10652.5 0
10653.5 0
10654.5 0
10655.5 0
10656.5 0
10657.5 0
10658.5 0
10659.5 0
10660.5 0
10661.5 0
10662.5 0
10663.5 0
10664.5 0
10665.5 0
10666.5 0
10667.5 0
10668.5 0
10669.5 0
10670.5 0
10671.5 0
10672.5 0
10673.5 0
10674.5 0
10675.5 0
10676.5 0
10677.5 0
10678.5 0
10679.5 0
10680.5 0
10681.5 0
10682.5 0
10683.5 0
10684.5 0
10685.5 0
10686.5 0
10687.5 0
10688.5 0
10689.5 0
10690.5 0
10691.5 0
10692.5 0
10693.5 0
10694.5 0
10695.5 -4.85714
10696.5 0
10697.5 0
10698.5 0
10699.5 0
10700.5 0
10701.5 0
10702.5 0
10703.5 0
10704.5 0
10705.5 0
10706.5 0
10707.5 0
10708.5 0
10709.5 0
10710.5 0
10711.5 0
10712.5 0
10713.5 0
10714.5 0
10715.5 0
10716.5 0
10717.5 1
10718.5 0
10719.5 0
10720.5 0
10721.5 0
10722.5 0
10723.5 0
10724.5 0
10725.5 0
10726.5 0
10727.5 0
10728.5 0
10729.5 0
10730.5 0
10731.5 0
10732.5 0
10733.5 0
10734.5 0
10735.5 0
10736.5 0
10737.5 0
10738.5 0
10739.5 0
10740.5 0
10741.5 0
10742.5 0
10743.5 0
10744.5 0
10745.5 0
10746.5 0
10747.5 0
10748.5 0
10749.5 0
10750.5 0
10751.5 0
10752.5 0
10753.5 0
10754.5 0
10755.5 0
10756.5 0
10757.5 0
10758.5 0
10759.5 1
10760.5 0
10761.5 0
10762.5 0
10763.5 0
10764.5 0
10765.5 0
10766.5 0
10767.5 0
10768.5 0
10769.5 0
10770.5 0
10771.5 0
10772.5 0
10773.5 0
10774.5 0
10775.5 0
10776.5 0
10777.5 0
10778.5 0
10779.5 0
10780.5 0
10781.5 0
10782.5 0
10783.5 0
10784.5 0
10785.5 0
10786.5 0
10787.5 0
10788.5 0
10789.5 0
10790.5 0
10791.5 0
10792.5 0
10793.5 0
10794.5 0
10795.5 0
10796.5 0
10797.5 0
10798.5 0
10799.5 0
10800.5 0
10801.5 0
10802.5 0
10803.5 0
10804.5 0
10805.5 0
10806.5 0
10807.5 0
10808.5 0
10809.5 0
10810.5 0
10811.5 0
10812.5 0
10813.5 0
10814.5 0
10815.5 0
10816.5 0
10817.5 0
10818.5 0
10819.5 0
10820.5 0
10821.5 0
10822.5 0
10823.5 0
10824.5 0
10825.5 0
10826.5 0
10827.5 0
10828.5 0
10829.5 -2.42857
10830.5 0
10831.5 0
10832.5 0
10833.5 0
10834.5 0
10835.5 0
10836.5 0
10837.5 0
10838.5 0
10839.5 0
10840.5 0
10841.5 0
10842.5 0
10843.5 0
10844.5 0
10845.5 0
10846.5 0
10847.5 0
10848.5 0
10849.5 1
10850.5 0
10851.5 0
10852.5 0
10853.5 0
10854.5 0
10855.5 0
10856.5 0
10857.5 0
10858.5 0
10859.5 0
10860.5 0
10861.5 0
10862.5 0
10863.5 0
10864.5 0
10865.5 0
10866.5 0
10867.5 0
10868.5 0
10869.5 0
10870.5 0
10871.5 0
10872.5 0
10873.5 0
10874.5 0
10875.5 0
10876.5 0
10877.5 0
10878.5 0
10879.5 0
10880.5 0
10881.5 0
10882.5 0
10883.5 0
10884.5 0
10885.5 0
10886.5 0
10887.5 0
10888.5 0
10889.5 0
10890.5 0
10891.5 0
10892.5 0
10893.5 0
10894.5 0
10895.5 0
10896.5 0
10897.5 0
10898.5 0
10899.5 0
10900.5 0
10901.5 0
10902.5 0
10903.5 0
10904.5 0
10905.5 0
10906.5 0
10907.5 0
10908.5 0
10909.5 0
10910.5 0
10911.5 0
10912.5 0
10913.5 0
10914.5 0
10915.5 0
10916.5 0
10917.5 0
10918.5 0
10919.5 0
10920.5 0
10921.5 0
10922.5 1
10923.5 0
10924.5 0
10925.5 0
10926.5 -2.42857
10927.5 0
10928.5 0
10929.5 0
10930.5 0
10931.5 0
10932.5 0
10933.5 0
10934.5 0
10935.5 0
10936.5 0
10937.5 0
10938.5 0
10939.5 0
10940.5 0
10941.5 0
10942.5 0
10943.5 0
10944.5 0
10945.5 -2.42857
10946.5 0
10947.5 0
10948.5 0
10949.5 0
10950.5 0
10951.5 0
10952.5 0
10953.5 0
10954.5 0
10955.5 0
10956.5 0
10957.5 0
10958.5 0
10959.5 0
10960.5 0
10961.5 0
10962.5 0
10963.5 0
10964.5 0
10965.5 0
10966.5 0
10967.5 0
10968.5 0
10969.5 1
10970.5 0
10971.5 0
10972.5 0
10973.5 0
10974.5 0
10975.5 0
10976.5 0
10977.5 0
10978.5 0
10979.5 0
10980.5 0
10981.5 0
10982.5 0
10983.5 0
10984.5 0
10985.5 0
10986.5 0
10987.5 0
10988.5 0
10989.5 0
10990.5 0
10991.5 0
10992.5 0
10993.5 0
10994.5 0
10995.5 0
10996.5 0
10997.5 0
10998.5 0
10999.5 0
11000.5 0
11001.5 0
11002.5 0
11003.5 0
11004.5 0
11005.5 0
11006.5 0
11007.5 0
11008.5 0
11009.5 0
11010.5 0
11011.5 0
11012.5 0
11013.5 0
11014.5 0
11015.5 0
11016.5 0
11017.5 0
11018.5 0
11019.5 0
11020.5 0
11021.5 0
11022.5 0
11023.5 0
11024.5 0
11025.5 0
11026.5 0
11027.5 0
11028.5 0
11029.5 0
11030.5 0
11031.5 0
11032.5 0
11033.5 0
11034.5 0
11035.5 0
11036.5 0
11037.5 0
11038.5 0
11039.5 0
11040.5 0
11041.5 0
11042.5 0
11043.5 0
11044.5 0
11045.5 0
11046.5 0
11047.5 0
11048.5 0
11049.5 0
11050.5 0
11051.5 0
11052.5 0
11053.5 0
11054.5 0
11055.5 0
11056.5 0
11057.5 0
11058.5 0
11059.5 0
11060.5 0
11061.5 0
11062.5 0
11063.5 0
11064.5 0
11065.5 0
11066.5 0
11067.5 0
11068.5 0
11069.5 0
11070.5 0
11071.5 0
11072.5 0
11073.5 0
11074.5 0
11075.5 0
11076.5 0
11077.5 0
11078.5 0
11079.5 0
11080.5 0
11081.5 0
11082.5 0
11083.5 0
11084.5 0
11085.5 0
11086.5 0
11087.5 0
11088.5 0
11089.5 0
11090.5 0
11091.5 0
11092.5 0
11093.5 0
11094.5 0
11095.5 0
11096.5 0
11097.5 0
11098.5 0
11099.5 0
11100.5 0
11101.5 0
11102.5 0
11103.5 0
11104.5 0
11105.5 0
11106.5 0
11107.5 0
11108.5 0
11109.5 0
11110.5 0
11111.5 0
11112.5 0
11113.5 0
11114.5 0
11115.5 0
11116.5 0
11117.5 0
11118.5 0
11119.5 0
11120.5 0
11121.5 0
11122.5 0
11123.5 0
11124.5 0
11125.5 0
11126.5 0
11127.5 0
11128.5 0
11129.5 0
11130.5 0
11131.5 0
11132.5 0
11133.5 0
11134.5 0
11135.5 0
11136.5 0
11137.5 0
11138.5 0
11139.5 0
11140.5 0
11141.5 0
11142.5 0
11143.5 0
11144.5 0
11145.5 0
11146.5 0
11147.5 0
11148.5 0
11149.5 0
11150.5 0
11151.5 0
11152.5 0
11153.5 0
11154.5 0
11155.5 0
11156.5 0
11157.5 0
11158.5 0
11159.5 -2.42857
11160.5 0
11161.5 0
11162.5 0
11163.5 0
11164.5 0
11165.5 0
11166.5 0
11167.5 0
11168.5 0
11169.5 0
11170.5 0
11171.5 0
11172.5 0
11173.5 0
11174.5 0
11175.5 0
11176.5 0
11177.5 0
11178.5 0
11179.5 0
11180.5 0
11181.5 0
11182.5 0
11183.5 0
11184.5 0
11185.5 0
11186.5 0
11187.5 0
11188.5 0
11189.5 0
11190.5 0
11191.5 0
11192.5 0
11193.5 0
11194.5 0
11195.5 0
11196.5 0
11197.5 0
11198.5 0
11199.5 0
11200.5 0
11201.5 0
11202.5 0
11203.5 0
11204.5 0
11205.5 0
11206.5 0
11207.5 0
11208.5 0
11209.5 0
11210.5 0
11211.5 0
11212.5 0
11213.5 0
11214.5 0
11215.5 0
11216.5 0
11217.5 0
11218.5 0
11219.5 0
11220.5 0
11221.5 0
11222.5 0
11223.5 0
11224.5 0
11225.5 0
11226.5 0
11227.5 0
11228.5 0
11229.5 0
11230.5 0
11231.5 0
11232.5 0
11233.5 0
11234.5 0
11235.5 0
11236.5 0
11237.5 0
11238.5 0
11239.5 0
11240.5 0
11241.5 0
11242.5 0
11243.5 0
11244.5 0
11245.5 0
11246.5 0
11247.5 0
11248.5 0
11249.5 0
11250.5 0
11251.5 0
11252.5 0
11253.5 0
11254.5 0
11255.5 0
11256.5 0
11257.5 0
11258.5 0
11259.5 0
11260.5 0
11261.5 0
11262.5 0
11263.5 0
11264.5 0
11265.5 0
11266.5 0
11267.5 0
11268.5 0
11269.5 0
11270.5 0
11271.5 0
11272.5 0
11273.5 0
11274.5 0
11275.5 0
11276.5 0
11277.5 0
11278.5 0
11279.5 0
11280.5 0
11281.5 0
11282.5 0
11283.5 0
11284.5 0
11285.5 0
11286.5 0
11287.5 0
11288.5 0
11289.5 0
11290.5 0
11291.5 0
11292.5 0
11293.5 0
11294.5 0
11295.5 0
11296.5 0
11297.5 0
11298.5 0
11299.5 0
11300.5 0
11301.5 0
11302.5 0
11303.5 0
11304.5 0
11305.5 0
11306.5 0
11307.5 0
11308.5 0
11309.5 0
11310.5 0
11311.5 0
11312.5 0
11313.5 0
11314.5 0
11315.5 0
11316.5 0
11317.5 0
11318.5 0
11319.5 0
11320.5 0
11321.5 0
11322.5 0
11323.5 0
11324.5 0
11325.5 0
11326.5 0
11327.5 0
11328.5 0
11329.5 0
11330.5 0
11331.5 0
11332.5 0
11333.5 0
11334.5 0
11335.5 0
11336.5 0
11337.5 0
11338.5 0
11339.5 0
11340.5 0
11341.5 0
11342.5 0
11343.5 0
11344.5 0
11345.5 0
11346.5 0
11347.5 0
11348.5 0
11349.5 0
11350.5 0
11351.5 0
11352.5 0
11353.5 0
11354.5 0
11355.5 0
11356.5 0
11357.5 0
11358.5 0
11359.5 0
11360.5 0
11361.5 0
11362.5 0
11363.5 0
11364.5 0
11365.5 0
11366.5 0
11367.5 0
11368.5 0
11369.5 0
11370.5 0
11371.5 0
11372.5 0
11373.5 0
11374.5 0
11375.5 0
11376.5 0
11377.5 0
11378.5 0
11379.5 0
11380.5 0
11381.5 0
11382.5 0
11383.5 0
11384.5 0
11385.5 0
11386.5 0
11387.5 0
11388.5 0
11389.5 0
11390.5 0
11391.5 0
11392.5 0
11393.5 0
11394.5 0
11395.5 0
11396.5 0
11397.5 0
11398.5 0
11399.5 0
11400.5 0
11401.5 0
11402.5 0
11403.5 0
11404.5 0
11405.5 0
11406.5 0
11407.5 0
11408.5 0
11409.5 0
11410.5 0
11411.5 0
11412.5 0
11413.5 0
11414.5 0
11415.5 0
11416.5 0
11417.5 0
11418.5 0
11419.5 0
11420.5 0
11421.5 0
11422.5 0
11423.5 0
11424.5 0
11425.5 0
11426.5 0
11427.5 0
11428.5 0
11429.5 0
11430.5 0
11431.5 0
11432.5 0
11433.5 0
11434.5 0
11435.5 0
11436.5 0
11437.5 0
11438.5 0
11439.5 0
11440.5 0
11441.5 0
11442.5 0
11443.5 0
11444.5 0
11445.5 0
11446.5 0
11447.5 0
11448.5 0
11449.5 0
11450.5 0
11451.5 0
11452.5 0
11453.5 0
11454.5 0
11455.5 0
11456.5 0
11457.5 0
11458.5 0
11459.5 0
11460.5 0
11461.5 0
11462.5 0
11463.5 0
11464.5 0
11465.5 0
11466.5 0
11467.5 0
11468.5 0
11469.5 0
11470.5 0
11471.5 0
11472.5 0
11473.5 0
11474.5 0
11475.5 0
11476.5 0
11477.5 0
11478.5 0
11479.5 0
11480.5 0
11481.5 0
11482.5 0
11483.5 0
11484.5 0
11485.5 0
11486.5 0
11487.5 0
11488.5 0
11489.5 0
11490.5 0
11491.5 0
11492.5 0
11493.5 0
11494.5 0
11495.5 0
11496.5 0
11497.5 0
11498.5 0
11499.5 0
11500.5 0
11501.5 0
11502.5 0
11503.5 0
11504.5 0
11505.5 0
11506.5 0
11507.5 0
11508.5 0
11509.5 0
11510.5 0
11511.5 0
11512.5 0
11513.5 0
11514.5 0
11515.5 0
11516.5 0
11517.5 0
11518.5 0
11519.5 0
11520.5 0
11521.5 0
11522.5 0
11523.5 0
11524.5 0
11525.5 0
11526.5 0
11527.5 0
11528.5 0
11529.5 0
11530.5 0
11531.5 0
11532.5 0
11533.5 0
11534.5 0
11535.5 0
11536.5 0
11537.5 0
11538.5 0
11539.5 0
11540.5 0
11541.5 0
11542.5 0
11543.5 0
11544.5 0
11545.5 0
11546.5 0
11547.5 0
11548.5 0
11549.5 0
11550.5 0
11551.5 0
11552.5 0
11553.5 0
11554.5 0
11555.5 0
11556.5 0
11557.5 0
11558.5 0
11559.5 0
11560.5 0
11561.5 0
11562.5 0
11563.5 0
11564.5 0
11565.5 0
11566.5 0
11567.5 0
11568.5 0
11569.5 0
11570.5 0
11571.5 0
11572.5 0
11573.5 0
11574.5 0
11575.5 0
11576.5 0
11577.5 0
11578.5 0
11579.5 0
11580.5 0
11581.5 0
11582.5 0
11583.5 0
11584.5 0
11585.5 0
11586.5 0
11587.5 0
11588.5 0
11589.5 0
11590.5 0
11591.5 0
11592.5 0
11593.5 0
11594.5 0
11595.5 0
11596.5 0
11597.5 0
11598.5 0
11599.5 0
11600.5 0
11601.5 0
11602.5 0
11603.5 0
11604.5 0
11605.5 0
11606.5 0
11607.5 0
11608.5 0
11609.5 0
11610.5 0
11611.5 0
11612.5 0
11613.5 0
11614.5 0
11615.5 0
11616.5 0
11617.5 0
11618.5 0
11619.5 0
11620.5 0
11621.5 0
11622.5 0
11623.5 0
11624.5 0
11625.5 0
11626.5 0
11627.5 0
11628.5 0
11629.5 0
11630.5 0
11631.5 0
11632.5 0
11633.5 0
11634.5 0
11635.5 0
11636.5 0
11637.5 0
11638.5 0
11639.5 0
11640.5 0
11641.5 0
11642.5 0
11643.5 0
11644.5 0
11645.5 0
11646.5 0
11647.5 0
11648.5 0
11649.5 0
11650.5 0
11651.5 0
11652.5 0
11653.5 0
11654.5 0
11655.5 0
11656.5 0
11657.5 0
11658.5 0
11659.5 0
11660.5 0
11661.5 0
11662.5 0
11663.5 0
11664.5 0
11665.5 0
11666.5 0
11667.5 0
11668.5 0
11669.5 0
11670.5 0
11671.5 0
11672.5 0
11673.5 0
11674.5 0
11675.5 0
11676.5 0
11677.5 0
11678.5 0
11679.5 0
11680.5 0
11681.5 0
11682.5 0
11683.5 0
11684.5 0
11685.5 0
11686.5 0
11687.5 0
11688.5 0
11689.5 0
11690.5 0
11691.5 0
11692.5 0
11693.5 0
11694.5 0
11695.5 0
11696.5 0
11697.5 0
11698.5 0
11699.5 0
11700.5 0
11701.5 0
11702.5 0
11703.5 0
11704.5 0
11705.5 0
11706.5 0
11707.5 0
11708.5 0
11709.5 0
11710.5 0
11711.5 0
11712.5 0
11713.5 0
11714.5 0
11715.5 0
11716.5 0
11717.5 0
11718.5 0
11719.5 0
11720.5 0
11721.5 0
11722.5 0
11723.5 0
11724.5 0
11725.5 0
11726.5 0
11727.5 0
11728.5 0
11729.5 0
11730.5 0
11731.5 0
11732.5 0
11733.5 0
11734.5 0
11735.5 0
11736.5 0
11737.5 0
11738.5 0
11739.5 0
11740.5 0
11741.5 0
11742.5 0
11743.5 0
11744.5 0
11745.5 0
11746.5 0
11747.5 0
11748.5 0
11749.5 0
11750.5 0
11751.5 0
11752.5 0
11753.5 0
11754.5 0
11755.5 0
11756.5 0
11757.5 0
11758.5 0
11759.5 0
11760.5 0
11761.5 0
11762.5 0
11763.5 0
11764.5 0
11765.5 0
11766.5 0
11767.5 0
11768.5 0
11769.5 0
11770.5 0
11771.5 0
11772.5 0
11773.5 0
11774.5 0
11775.5 0
11776.5 0
11777.5 0
11778.5 0
11779.5 0
11780.5 0
11781.5 0
11782.5 0
11783.5 0
11784.5 0
11785.5 0
11786.5 0
11787.5 0
11788.5 0
11789.5 0
11790.5 0
11791.5 0
11792.5 0
11793.5 0
11794.5 0
11795.5 0
11796.5 0
11797.5 0
11798.5 0
11799.5 0
11800.5 0
11801.5 0
11802.5 0
11803.5 0
11804.5 0
11805.5 0
11806.5 0
11807.5 0
11808.5 0
11809.5 0
11810.5 0
11811.5 0
11812.5 0
11813.5 0
11814.5 0
11815.5 0
11816.5 0
11817.5 1
11818.5 0
11819.5 0
11820.5 0
11821.5 0
11822.5 0
11823.5 0
11824.5 0
11825.5 0
11826.5 0
11827.5 0
11828.5 0
11829.5 0
11830.5 0
11831.5 0
11832.5 0
11833.5 0
11834.5 0
11835.5 0
11836.5 0
11837.5 0
11838.5 0
11839.5 0
11840.5 0
11841.5 0
11842.5 0
11843.5 0
11844.5 0
11845.5 0
11846.5 0
11847.5 0
11848.5 0
11849.5 0
11850.5 0
11851.5 0
11852.5 0
11853.5 0
11854.5 0
11855.5 0
11856.5 0
11857.5 0
11858.5 0
11859.5 0
11860.5 0
11861.5 0
11862.5 0
11863.5 0
11864.5 0
11865.5 0
11866.5 0
11867.5 0
11868.5 0
11869.5 0
11870.5 0
11871.5 0
11872.5 0
11873.5 0
11874.5 0
11875.5 0
11876.5 0
11877.5 0
11878.5 0
11879.5 0
11880.5 0
11881.5 0
11882.5 0
11883.5 0
11884.5 0
11885.5 0
11886.5 0
11887.5 0
11888.5 0
11889.5 0
11890.5 0
11891.5 0
11892.5 0
11893.5 0
11894.5 0
11895.5 0
11896.5 0
11897.5 0
11898.5 0
11899.5 0
11900.5 0
11901.5 0
11902.5 0
11903.5 0
11904.5 0
11905.5 0
11906.5 0
11907.5 0
11908.5 0
11909.5 0
11910.5 0
11911.5 0
11912.5 0
11913.5 0
11914.5 0
11915.5 0
11916.5 0
11917.5 0
11918.5 0
11919.5 0
11920.5 0
11921.5 0
11922.5 0
11923.5 0
11924.5 0
11925.5 0
11926.5 0
11927.5 0
11928.5 0
11929.5 0
11930.5 0
11931.5 0
11932.5 0
11933.5 0
11934.5 0
11935.5 0
11936.5 0
11937.5 0
11938.5 0
11939.5 0
11940.5 0
11941.5 0
11942.5 1
11943.5 0
11944.5 0
11945.5 0
11946.5 0
11947.5 0
11948.5 0
11949.5 0
11950.5 0
11951.5 0
11952.5 0
11953.5 0
11954.5 0
11955.5 0
11956.5 0
11957.5 0
11958.5 0
11959.5 0
11960.5 0
11961.5 0
11962.5 0
11963.5 0
11964.5 0
11965.5 0
11966.5 0
11967.5 0
11968.5 0
11969.5 0
11970.5 0
11971.5 0
11972.5 0
11973.5 0
11974.5 0
11975.5 0
11976.5 0
11977.5 0
11978.5 0
11979.5 0
11980.5 0
11981.5 0
11982.5 0
11983.5 0
11984.5 0
11985.5 0
11986.5 0
11987.5 0
11988.5 0
11989.5 0
11990.5 0
11991.5 0
11992.5 0
11993.5 0
11994.5 0
11995.5 0
11996.5 0
11997.5 0
11998.5 0
11999.5 0
