# EGG_ProjY_E476.5(2.5)_B495.5(1.5)_B488.5(1.5)_B527.5(2.5)
# X axis : Energy (keV) [Y axis]
# Y axis : Counts/1 keV
# N Bins : 12000
# X Min : 0
# X Max : 12000
# X value at the center of the bins
0.5 0
1.5 0
2.5 0
3.5 0
4.5 0
5.5 137.182
6.5 122.364
7.5 117.545
8.5 55.5454
9.5 64.3636
10.5 62
11.5 -9.54547
12.5 -99.3637
13.5 -107.636
14.5 -136.545
15.5 -165.727
16.5 -243.091
17.5 -256
18.5 -116.909
19.5 -172.364
20.5 -173.364
21.5 -190.818
22.5 -147.364
23.5 415.182
24.5 1078.82
25.5 1685.73
26.5 2472.45
27.5 3518.73
28.5 4471
29.5 5739.36
30.5 6895.73
31.5 9343.64
32.5 11322.5
33.5 12617.3
34.5 12419.6
35.5 11964.7
36.5 9981.73
37.5 7594
38.5 6182.55
39.5 5036.27
40.5 4420.73
41.5 4671.45
42.5 4993.09
43.5 5308.36
44.5 4721.73
45.5 4481.27
46.5 4461
47.5 4431.91
48.5 4769
49.5 4601.82
50.5 4753.09
51.5 4459.91
52.5 5066.91
53.5 5994.18
54.5 5639.27
55.5 5396
56.5 4991.55
57.5 5268.54
58.5 6223.64
59.5 6376.27
60.5 5350.82
61.5 4731.36
62.5 4491.45
63.5 4554.36
64.5 4605.27
65.5 4783.54
66.5 4955.09
67.5 5062
68.5 4602.09
69.5 4315.82
70.5 4026.45
71.5 3891.09
72.5 4338.91
73.5 5058
74.5 6310.91
75.5 7117.64
76.5 7627.64
77.5 8968
78.5 6092.18
79.5 4721.45
80.5 4068.36
81.5 3818.91
82.5 3458.73
83.5 3937.18
84.5 4034.91
85.5 3879.36
86.5 5103.73
87.5 5905.18
88.5 4968.91
89.5 4563.82
90.5 4155.82
91.5 3782.82
92.5 3796.18
93.5 3656.09
94.5 3803.27
95.5 3795.18
96.5 3557.45
97.5 3645.91
98.5 3289.54
99.5 3449.54
100.5 3327.36
101.5 3514
102.5 3690
103.5 3985.18
104.5 4403.27
105.5 4443.18
106.5 4455.36
107.5 4646
108.5 4470.36
109.5 4467.18
110.5 4133.09
111.5 3982.64
112.5 4560.36
113.5 4191.82
114.5 4289
115.5 4933.64
116.5 4977.18
117.5 5512.36
118.5 5394.45
119.5 5222.64
120.5 4965.45
121.5 4685.36
122.5 4408.54
123.5 4047.54
124.5 4210.18
125.5 4020.09
126.5 4360.18
127.5 4361.36
128.5 4697.64
129.5 3807.09
130.5 4841.82
131.5 4337.09
132.5 4374.36
133.5 4356.18
134.5 4478.54
135.5 4200.91
136.5 4389.27
137.5 4210
138.5 4290.73
139.5 4911.27
140.5 4537.73
141.5 4621.27
142.5 4399.27
143.5 4386.91
144.5 4501.73
145.5 4641.82
146.5 5019
147.5 4471.36
148.5 4798.54
149.5 4883.64
150.5 5811.91
151.5 5765.09
152.5 6179.18
153.5 5569.18
154.5 4961.18
155.5 4693.54
156.5 4629.09
157.5 4522.82
158.5 4847.27
159.5 4896.18
160.5 5397.54
161.5 5186.54
162.5 5360.18
163.5 5081.64
164.5 4667.64
165.5 4954.27
166.5 5909.18
167.5 5877.27
168.5 4402.09
169.5 4518.91
170.5 4798.45
171.5 5183.91
172.5 6263.09
173.5 8731.73
174.5 11248.9
175.5 8770.36
176.5 6159.73
177.5 6513.54
178.5 6322.09
179.5 6542.91
180.5 6810.64
181.5 7034.54
182.5 6914.18
183.5 6058.54
184.5 5473.64
185.5 5783.54
186.5 6742.54
187.5 6987.54
188.5 7371.64
189.5 6374.09
190.5 6658.45
191.5 5768
192.5 5212.64
193.5 4406.91
194.5 4504.18
195.5 4339
196.5 4515.54
197.5 4991.82
198.5 5665.91
199.5 4657.18
200.5 4535.54
201.5 5024.73
202.5 5060
203.5 4973.91
204.5 4959
205.5 4259.82
206.5 4654
207.5 4938.36
208.5 4995.18
209.5 4604.73
210.5 5042.45
211.5 4619.54
212.5 4668.09
213.5 4675.18
214.5 5016.64
215.5 4669.82
216.5 4815.27
217.5 4244.54
218.5 4637.73
219.5 4507.27
220.5 4596.64
221.5 4495.73
222.5 4686
223.5 4602.45
224.5 4654.82
225.5 4470
226.5 4788.54
227.5 4356.27
228.5 4839.18
229.5 4483.27
230.5 3734.64
231.5 2705.91
232.5 2493.18
233.5 1719.27
234.5 2041.91
235.5 2882.18
236.5 3525.45
237.5 4142.82
238.5 4356.27
239.5 4136.82
240.5 3894.09
241.5 4322.27
242.5 4099.45
243.5 4154.82
244.5 4472.91
245.5 4186.82
246.5 4194.36
247.5 4328.09
248.5 4383.82
249.5 4328.54
250.5 4744.54
251.5 4427.36
252.5 4291
253.5 4289.45
254.5 4065.27
255.5 4053.73
256.5 3884.64
257.5 3679.45
258.5 3964.09
259.5 3728.64
260.5 3767.91
261.5 3706.45
262.5 3272.27
263.5 3144
264.5 1946.73
265.5 1723.27
266.5 1932.45
267.5 2696.91
268.5 3429.27
269.5 3208.45
270.5 2857.27
271.5 1804.45
272.5 1652.36
273.5 1949.82
274.5 2832
275.5 3331.18
276.5 3447.54
277.5 3213.18
278.5 3313.18
279.5 2978.18
280.5 4016
281.5 5401
282.5 7849.27
283.5 9679.09
284.5 10089.7
285.5 9892.36
286.5 8281.82
287.5 6121.54
288.5 4279
289.5 3700.54
290.5 3403.09
291.5 3526.91
292.5 3293.82
293.5 3353.64
294.5 3487
295.5 3192.54
296.5 3168.91
297.5 3271.27
298.5 3310.27
299.5 3347.54
300.5 3401.45
301.5 3094.18
302.5 3484
303.5 3183.82
304.5 3690.64
305.5 3442.91
306.5 3798.82
307.5 3432.45
308.5 3727.91
309.5 3796.36
310.5 3584
311.5 3828.36
312.5 3874.18
313.5 3617.82
314.5 3541.73
315.5 3501.64
316.5 2933.09
317.5 2691.82
318.5 2507.27
319.5 2913.54
320.5 2830.73
321.5 3201.73
322.5 3009.18
323.5 3015.91
324.5 3019.36
325.5 3406.09
326.5 3357.82
327.5 3647.64
328.5 3894.18
329.5 4149.82
330.5 4480.09
331.5 4162.82
332.5 3930.45
333.5 3611.64
334.5 3615.91
335.5 2953.64
336.5 3106.82
337.5 2988.82
338.5 2577.64
339.5 2442.64
340.5 2170.27
341.5 2052.45
342.5 1983.82
343.5 2092.09
344.5 2685.36
345.5 2810
346.5 2427.18
347.5 2603.45
348.5 2424.45
349.5 2601.82
350.5 2400.73
351.5 2391.36
352.5 2396
353.5 2562.55
354.5 2800.09
355.5 2859.27
356.5 2685.73
357.5 2536.27
358.5 2829.82
359.5 2723.55
360.5 2834.91
361.5 2487.55
362.5 2642.36
363.5 2710.91
364.5 2395.91
365.5 2733.45
366.5 2554.09
367.5 3295.73
368.5 3367.09
369.5 2840.45
370.5 2401.09
371.5 2215.91
372.5 1953.82
373.5 1763.91
374.5 1862.36
375.5 2016.45
376.5 2329.45
377.5 2134.09
378.5 1993.09
379.5 1672.55
380.5 1582.55
381.5 1686.36
382.5 1833.55
383.5 2016.73
384.5 2295.82
385.5 2333.27
386.5 2430.64
387.5 2302.73
388.5 2722.36
389.5 3074.36
390.5 3756.91
391.5 4334.27
392.5 4254.27
393.5 4349.27
394.5 4073
395.5 3138.55
396.5 2773.09
397.5 2280.45
398.5 2763.36
399.5 3268.64
400.5 3180.45
401.5 3518.55
402.5 4409.36
403.5 6126.54
404.5 6394.18
405.5 3707
406.5 2327.27
407.5 2497
408.5 2414.09
409.5 2474.82
410.5 2257.55
411.5 2455.09
412.5 2364.91
413.5 2064.18
414.5 2062.91
415.5 2042.36
416.5 2096.27
417.5 2415.18
418.5 2637.91
419.5 2422.27
420.5 2599.36
421.5 2254.64
422.5 2462.64
423.5 2339.82
424.5 2350.64
425.5 2583.91
426.5 2353.09
427.5 2146.09
428.5 2349.27
429.5 2182.91
430.5 2040.45
431.5 2097
432.5 2264.64
433.5 2140.27
434.5 2128.36
435.5 2353.64
436.5 2349.64
437.5 2068.18
438.5 1994.55
439.5 2110.73
440.5 2520.82
441.5 2479.82
442.5 2289.55
443.5 2713.09
444.5 2642.82
445.5 2693.09
446.5 2694.18
447.5 2364.64
448.5 2424.18
449.5 2456.73
450.5 2388.27
451.5 2466.64
452.5 2683.64
453.5 2362.82
454.5 2288
455.5 2221
456.5 2212.45
457.5 2501.91
458.5 2447.18
459.5 2653.73
460.5 2427.73
461.5 2596.09
462.5 2550.82
463.5 2658.55
464.5 2758.73
465.5 2669.91
466.5 2511.27
467.5 2595.09
468.5 2530
469.5 2830
470.5 3063.09
471.5 3596.64
472.5 4234.27
473.5 4724.73
474.5 5049.09
475.5 5545
476.5 5904.64
477.5 6658.36
478.5 6240.18
479.5 6025.27
480.5 6409.55
481.5 6108.36
482.5 5836.45
483.5 5124.18
484.5 4402.09
485.5 3383.64
486.5 2603.91
487.5 2766.55
488.5 2646.18
489.5 2864
490.5 3126.09
491.5 2864.36
492.5 2676.82
493.5 2455.27
494.5 1921.27
495.5 1939.45
496.5 2029.27
497.5 2120
498.5 2040.36
499.5 2111
500.5 2513
501.5 2266.82
502.5 2363.64
503.5 2386.91
504.5 1811.73
505.5 2121.91
506.5 2894.45
507.5 5035.36
508.5 9131.27
509.5 16490.5
510.5 23672.3
511.5 22236
512.5 14388.7
513.5 6712.73
514.5 3167.91
515.5 2662
516.5 2766.55
517.5 2798.73
518.5 2613.55
519.5 2533.55
520.5 2434.18
521.5 2889
522.5 3498.55
523.5 4161.45
524.5 4553.27
525.5 4603.91
526.5 4134.64
527.5 3184.55
528.5 2243.55
529.5 1864.27
530.5 1840.45
531.5 2026.55
532.5 2253.36
533.5 2126.55
534.5 1972.36
535.5 1638
536.5 1582.55
537.5 1901.55
538.5 2118
539.5 2163
540.5 2201.27
541.5 2001.18
542.5 1813.18
543.5 1195.82
544.5 866.909
545.5 998.818
546.5 987.727
547.5 1221.91
548.5 1745.64
549.5 2296.27
550.5 2184.45
551.5 1966
552.5 1821.09
553.5 1933.36
554.5 2118.73
555.5 2111.91
556.5 1840.36
557.5 1990.18
558.5 2069.09
559.5 1902.27
560.5 1646.36
561.5 1581.55
562.5 1863.55
563.5 1804.09
564.5 1805
565.5 1809.64
566.5 1828.18
567.5 1565.82
568.5 1519.18
569.5 1517.73
570.5 1710.45
571.5 1822.18
572.5 2137.18
573.5 1829.64
574.5 1796.91
575.5 1738.82
576.5 1257.45
577.5 601.909
578.5 727.363
579.5 903.818
580.5 1396.91
581.5 1998.36
582.5 3120.64
583.5 3469.45
584.5 1939.27
585.5 759.636
586.5 817.454
587.5 1327.82
588.5 1513.91
589.5 1568.91
590.5 1637.73
591.5 1562
592.5 1794.45
593.5 2032.45
594.5 2004.18
595.5 1448.45
596.5 -161
597.5 -1358.73
598.5 -1795.64
599.5 -1865.55
600.5 -840.455
601.5 -6.81844
602.5 1049.36
603.5 1413.64
604.5 1727.91
605.5 1672.82
606.5 1687.64
607.5 1579.91
608.5 1554
609.5 1557.55
610.5 1659.45
611.5 1665
612.5 1593.91
613.5 1707.36
614.5 1758.55
615.5 1485
616.5 1739.18
617.5 1904.55
618.5 2093.36
619.5 1926.09
620.5 2011.18
621.5 1921.82
622.5 1818.18
623.5 1445.91
624.5 84.1816
625.5 -2402.18
626.5 -5954.09
627.5 -9126
628.5 -11071.2
629.5 -13280.8
630.5 -12834.5
631.5 -8060.46
632.5 -3033.36
633.5 -606.273
634.5 -877
635.5 -2263.55
636.5 -3364.55
637.5 -2568.18
638.5 -1330.45
639.5 -210.364
640.5 1149.91
641.5 1665.09
642.5 1942
643.5 2426.91
644.5 3730.09
645.5 6602.91
646.5 11660.5
647.5 16264.5
648.5 18833.8
649.5 19077.8
650.5 17961.3
651.5 12541.3
652.5 6856.64
653.5 3463.36
654.5 2936.27
655.5 3534.09
656.5 3121.36
657.5 843.909
658.5 -2037.64
659.5 -5577.82
660.5 -7795
661.5 -7221.82
662.5 -4385.64
663.5 -1495.45
664.5 405
665.5 -992.728
666.5 -5216.27
667.5 -8154.46
668.5 -7692.09
669.5 -4752.55
670.5 -1246.36
671.5 674.182
672.5 1634.73
673.5 2032.91
674.5 2711.91
675.5 4774.91
676.5 10236.3
677.5 19491.1
678.5 27154
679.5 31458.4
680.5 30834.6
681.5 25358.9
682.5 17180.8
683.5 8678.27
684.5 4106.55
685.5 2370.45
686.5 1854.27
687.5 2026.55
688.5 1836.91
689.5 1745.36
690.5 1502
691.5 1349.82
692.5 1459.64
693.5 1153.45
694.5 1180.18
695.5 1364
696.5 1513.73
697.5 1374
698.5 1354
699.5 1187.18
700.5 1435.64
701.5 1329.18
702.5 1294.82
703.5 1682.64
704.5 1614.09
705.5 1629.27
706.5 1774.36
707.5 1793.91
708.5 1874.36
709.5 1604
710.5 1470.18
711.5 1378.64
712.5 1558
713.5 1302.45
714.5 1320.91
715.5 1303.45
716.5 1208.64
717.5 1297.73
718.5 1463.82
719.5 1403.27
720.5 1137.09
721.5 1503.73
722.5 1321.55
723.5 1468.55
724.5 1338.91
725.5 1667.36
726.5 1797.91
727.5 1613.82
728.5 1505.55
729.5 1515.45
730.5 1206.09
731.5 1307.82
732.5 1024
733.5 1182.73
734.5 1237.36
735.5 1110.27
736.5 1426
737.5 1600
738.5 1673.36
739.5 1537
740.5 1433.73
741.5 1399.82
742.5 1401.55
743.5 1371.82
744.5 1162.55
745.5 1363.73
746.5 1356
747.5 1588.64
748.5 1536.82
749.5 1582.82
750.5 1446
751.5 1385.18
752.5 1357.18
753.5 1324.18
754.5 1442.45
755.5 1212.73
756.5 1217.18
757.5 1269.55
758.5 1595.27
759.5 2444.09
760.5 5132.73
761.5 5707.64
762.5 3074.27
763.5 1524.73
764.5 1411.55
765.5 1117.09
766.5 1199.45
767.5 1225.55
768.5 1265.09
769.5 1111.45
770.5 1253.27
771.5 1248.09
772.5 1139.64
773.5 1238.09
774.5 1311.55
775.5 1340.64
776.5 1249.18
777.5 1473.09
778.5 1363.36
779.5 1508.73
780.5 1443.73
781.5 1451.64
782.5 1817
783.5 1483.55
784.5 1860.18
785.5 2040.91
786.5 2031.36
787.5 1833.27
788.5 1900.36
789.5 1730.82
790.5 1385.73
791.5 1470.91
792.5 1242.09
793.5 1265.45
794.5 1305.09
795.5 1202.91
796.5 1356.82
797.5 1281.82
798.5 1320.73
799.5 1297.09
800.5 1427.73
801.5 1260.55
802.5 1295.18
803.5 1264.91
804.5 1525.64
805.5 1703.36
806.5 2293.45
807.5 2352.73
808.5 1597.36
809.5 1360.64
810.5 1317.82
811.5 1357.36
812.5 1436.45
813.5 1516.27
814.5 1698.73
815.5 1612.82
816.5 1811.36
817.5 1498.18
818.5 1436.45
819.5 1452.64
820.5 1390.91
821.5 1451.91
822.5 1695.18
823.5 1627.45
824.5 1292.64
825.5 1288.18
826.5 1277.18
827.5 1366.64
828.5 1351.82
829.5 1299.82
830.5 1491.36
831.5 1598.36
832.5 1459.91
833.5 1641.45
834.5 1543.64
835.5 1440.91
836.5 1627.82
837.5 1336.73
838.5 1579.27
839.5 1411.45
840.5 1386.64
841.5 1397.82
842.5 1335.18
843.5 1340.55
844.5 1050.64
845.5 1426.09
846.5 1503.73
847.5 1386.73
848.5 1271.45
849.5 1505.09
850.5 1359.36
851.5 1617.18
852.5 1362
853.5 1250.27
854.5 1390.55
855.5 1373.64
856.5 1336.91
857.5 1448.18
858.5 1519.82
859.5 1382.36
860.5 1271.91
861.5 1324
862.5 1275.91
863.5 1427.82
864.5 1504.27
865.5 1617.09
866.5 1643.36
867.5 2235.55
868.5 3410.91
869.5 3384.18
870.5 2570.18
871.5 1793.91
872.5 1637.18
873.5 1775.36
874.5 1910.18
875.5 2003.45
876.5 2341.36
877.5 2309.09
878.5 2227.64
879.5 1959.91
880.5 1395.82
881.5 1266
882.5 1422.91
883.5 1477.27
884.5 1393.64
885.5 1349.91
886.5 1516.91
887.5 1622.18
888.5 1502.91
889.5 1410.18
890.5 1331.36
891.5 1462.82
892.5 1487.55
893.5 1477.91
894.5 1638.73
895.5 1492.55
896.5 1796.45
897.5 1720.45
898.5 1582
899.5 1461.64
900.5 1427.64
901.5 1355.73
902.5 1410.64
903.5 1652.36
904.5 1734.64
905.5 1494.45
906.5 1558.82
907.5 1760
908.5 1592.64
909.5 1833
910.5 1804.73
911.5 1749.82
912.5 1795.36
913.5 1571.27
914.5 1607.27
915.5 1318.64
916.5 1607.64
917.5 1706.91
918.5 1607.09
919.5 1626.09
920.5 1586.09
921.5 1623.36
922.5 1484.18
923.5 1600.55
924.5 1668.73
925.5 1428.45
926.5 1570.82
927.5 1495.18
928.5 1570.82
929.5 1588.27
930.5 1339.82
931.5 1257
932.5 1298.64
933.5 1252
934.5 1363.45
935.5 1523
936.5 1599.09
937.5 1442.45
938.5 1554.91
939.5 1478.91
940.5 1685.45
941.5 1556.64
942.5 1649.09
943.5 1908
944.5 1668.09
945.5 1606.27
946.5 1361.36
947.5 1552
948.5 1749.91
949.5 1799.91
950.5 1909.64
951.5 1874.45
952.5 1953.82
953.5 1867.36
954.5 1674.45
955.5 1516.45
956.5 1521.27
957.5 1407.45
958.5 1417.27
959.5 1371.73
960.5 1416.64
961.5 1621.73
962.5 1464.64
963.5 1298.09
964.5 1272.73
965.5 1610.27
966.5 1665.09
967.5 1441.27
968.5 963.818
969.5 847.727
970.5 810.727
971.5 610.818
972.5 720.818
973.5 852.727
974.5 1009
975.5 1248.64
976.5 1272.91
977.5 1143.73
978.5 1193.55
979.5 1037.73
980.5 1303.45
981.5 1435.27
982.5 1985.09
983.5 2221.09
984.5 1829.27
985.5 1533.82
986.5 1456
987.5 1269.27
988.5 1181
989.5 1055.27
990.5 1071.27
991.5 1038
992.5 1260.36
993.5 1121
994.5 1235.82
995.5 1166.09
996.5 1145
997.5 1194.64
998.5 1085.18
999.5 1566.45
1000.5 3624.91
1001.5 6668.09
1002.5 5305.73
1003.5 2240.64
1004.5 902.363
1005.5 881
1006.5 1099.91
1007.5 895.909
1008.5 829.727
1009.5 482.273
1010.5 520.182
1011.5 829.182
1012.5 803.727
1013.5 721.091
1014.5 985.818
1015.5 934.273
1016.5 1218.45
1017.5 1016.55
1018.5 1428.09
1019.5 1686.73
1020.5 1882
1021.5 2388.09
1022.5 2647.18
1023.5 2873.91
1024.5 2963.18
1025.5 2478.64
1026.5 1543.55
1027.5 1091.64
1028.5 955.727
1029.5 1013.91
1030.5 922.273
1031.5 1108.55
1032.5 1128.09
1033.5 1032.64
1034.5 981.364
1035.5 967.909
1036.5 995.273
1037.5 922.727
1038.5 881.182
1039.5 1037.82
1040.5 964.182
1041.5 849.364
1042.5 1019.18
1043.5 818.909
1044.5 987.818
1045.5 900.909
1046.5 865.364
1047.5 928.545
1048.5 908.454
1049.5 1090.18
1050.5 995.182
1051.5 1041.82
1052.5 749.636
1053.5 690.182
1054.5 777.182
1055.5 1073.09
1056.5 1190.45
1057.5 1216
1058.5 867.273
1059.5 890.364
1060.5 895.545
1061.5 980
1062.5 1075.55
1063.5 1021.64
1064.5 1092.36
1065.5 1093.55
1066.5 1045.09
1067.5 772.545
1068.5 879.182
1069.5 774.818
1070.5 1056.18
1071.5 1124.91
1072.5 2362.27
1073.5 5210.09
1074.5 6040.36
1075.5 3474.54
1076.5 1362.27
1077.5 878.727
1078.5 772.454
1079.5 807.091
1080.5 764
1081.5 744.364
1082.5 831.091
1083.5 627.364
1084.5 690.454
1085.5 797.454
1086.5 663.182
1087.5 703.091
1088.5 802.727
1089.5 779.273
1090.5 898.273
1091.5 744.909
1092.5 712.182
1093.5 634.091
1094.5 551.273
1095.5 736.091
1096.5 906.727
1097.5 857
1098.5 848.091
1099.5 857.364
1100.5 676.364
1101.5 733.182
1102.5 640.545
1103.5 237.636
1104.5 73.3635
1105.5 196
1106.5 105.909
1107.5 471.182
1108.5 696.091
1109.5 674.636
1110.5 825.818
1111.5 811.182
1112.5 840.818
1113.5 868.636
1114.5 862
1115.5 635.545
1116.5 643.091
1117.5 633.727
1118.5 712.636
1119.5 756.454
1120.5 900.454
1121.5 904.091
1122.5 1430.55
1123.5 3260
1124.5 10135.9
1125.5 23651.5
1126.5 27535.3
1127.5 12400.6
1128.5 3224
1129.5 1357.27
1130.5 794.545
1131.5 774.364
1132.5 600.182
1133.5 577.909
1134.5 484.636
1135.5 436.727
1136.5 123.364
1137.5 0.363537
1138.5 236.273
1139.5 262.091
1140.5 437.273
1141.5 519.454
1142.5 410.182
1143.5 32.4544
1144.5 98.1817
1145.5 231
1146.5 534
1147.5 919.454
1148.5 1060.36
1149.5 919.454
1150.5 960.636
1151.5 809.364
1152.5 1124.09
1153.5 2850.82
1154.5 8503.64
1155.5 24808.5
1156.5 53680.4
1157.5 54192.6
1158.5 23929.5
1159.5 5964.09
1160.5 1800.82
1161.5 1046.73
1162.5 1040.45
1163.5 1275.82
1164.5 1597.82
1165.5 1480.82
1166.5 954.182
1167.5 861.364
1168.5 755.727
1169.5 834.091
1170.5 911.364
1171.5 1036.55
1172.5 918.454
1173.5 1105.64
1174.5 996.727
1175.5 702.818
1176.5 642.727
1177.5 491
1178.5 514.636
1179.5 567.273
1180.5 756
1181.5 1251.18
1182.5 2297.45
1183.5 2196.27
1184.5 1149.45
1185.5 299.364
1186.5 471.636
1187.5 713
1188.5 477.818
1189.5 517.727
1190.5 577.545
1191.5 573.454
1192.5 488.636
1193.5 722.091
1194.5 537
1195.5 576
1196.5 493.091
1197.5 461.727
1198.5 424.545
1199.5 626.182
1200.5 757.364
1201.5 700.727
1202.5 610.818
1203.5 535
1204.5 463.909
1205.5 464.545
1206.5 630.454
1207.5 536.545
1208.5 521.727
1209.5 574.454
1210.5 467.636
1211.5 598.545
1212.5 550.091
1213.5 541.182
1214.5 477
1215.5 605.273
1216.5 452.364
1217.5 433.273
1218.5 544.909
1219.5 414.454
1220.5 436.545
1221.5 448.091
1222.5 477.909
1223.5 493.454
1224.5 500.909
1225.5 643.091
1226.5 620.454
1227.5 473.818
1228.5 489.364
1229.5 394.909
1230.5 383.091
1231.5 558.091
1232.5 539.909
1233.5 773.636
1234.5 658.818
1235.5 619.818
1236.5 586
1237.5 595.273
1238.5 453.636
1239.5 603.273
1240.5 612.091
1241.5 552.636
1242.5 591.545
1243.5 600.454
1244.5 707.454
1245.5 763.182
1246.5 737.182
1247.5 829.364
1248.5 948.182
1249.5 765.636
1250.5 839
1251.5 677.727
1252.5 458.273
1253.5 485.454
1254.5 400.273
1255.5 482.364
1256.5 532.182
1257.5 515.818
1258.5 588.091
1259.5 634.273
1260.5 982.545
1261.5 928.545
1262.5 791.273
1263.5 724
1264.5 774.727
1265.5 695.182
1266.5 879.545
1267.5 712.545
1268.5 505.909
1269.5 494.182
1270.5 516.909
1271.5 549
1272.5 577.454
1273.5 522.364
1274.5 571.727
1275.5 509.818
1276.5 568
1277.5 607.909
1278.5 511.727
1279.5 352.636
1280.5 388.545
1281.5 317.727
1282.5 476.818
1283.5 373.364
1284.5 280.727
1285.5 513.818
1286.5 327.091
1287.5 458
1288.5 359.454
1289.5 344.545
1290.5 403.727
1291.5 463.818
1292.5 638.091
1293.5 711.545
1294.5 766.273
1295.5 706.364
1296.5 649.727
1297.5 704
1298.5 778.182
1299.5 888.182
1300.5 992.636
1301.5 1063.64
1302.5 1126.82
1303.5 1045.45
1304.5 867.364
1305.5 802.909
1306.5 721.273
1307.5 701.636
1308.5 1088.91
1309.5 968.818
1310.5 815.818
1311.5 638.454
1312.5 514.818
1313.5 553.273
1314.5 618.273
1315.5 552.909
1316.5 553.091
1317.5 432.545
1318.5 480.091
1319.5 479.091
1320.5 586.454
1321.5 443
1322.5 450.091
1323.5 533.727
1324.5 452.454
1325.5 535.454
1326.5 489.091
1327.5 578.818
1328.5 576.818
1329.5 625.273
1330.5 646.636
1331.5 668.545
1332.5 695.364
1333.5 573.273
1334.5 572.273
1335.5 571.636
1336.5 496.091
1337.5 532.454
1338.5 442
1339.5 530
1340.5 422.182
1341.5 346.909
1342.5 354.727
1343.5 451
1344.5 427
1345.5 383.091
1346.5 233.909
1347.5 383.182
1348.5 478.636
1349.5 432.091
1350.5 452.909
1351.5 535
1352.5 565.636
1353.5 753.909
1354.5 534
1355.5 386.909
1356.5 185.818
1357.5 190.182
1358.5 117.182
1359.5 -29.5455
1360.5 85.3636
1361.5 82.8181
1362.5 378
1363.5 512
1364.5 522.545
1365.5 617.273
1366.5 658.091
1367.5 547.818
1368.5 615.545
1369.5 493.636
1370.5 594.545
1371.5 697
1372.5 617.454
1373.5 524.454
1374.5 360.364
1375.5 466.727
1376.5 399.909
1377.5 407.182
1378.5 437.454
1379.5 615.273
1380.5 470.364
1381.5 467.273
1382.5 370.909
1383.5 348.273
1384.5 313.182
1385.5 403.273
1386.5 786.909
1387.5 1130.27
1388.5 791.545
1389.5 347.727
1390.5 223.273
1391.5 374.636
1392.5 486.909
1393.5 764.818
1394.5 832.727
1395.5 911.273
1396.5 846.091
1397.5 665.818
1398.5 515.818
1399.5 403.636
1400.5 365.545
1401.5 541.818
1402.5 504
1403.5 490
1404.5 513.364
1405.5 569.909
1406.5 738.727
1407.5 1028.27
1408.5 1447.64
1409.5 1586.91
1410.5 1594
1411.5 1339.55
1412.5 1102.45
1413.5 729.454
1414.5 451.909
1415.5 364.818
1416.5 429.909
1417.5 432.273
1418.5 467.636
1419.5 426.182
1420.5 550.454
1421.5 579.182
1422.5 414.182
1423.5 463.091
1424.5 457.636
1425.5 399
1426.5 628.727
1427.5 1104.73
1428.5 1275.91
1429.5 1138.82
1430.5 534.273
1431.5 464.545
1432.5 388.091
1433.5 428.273
1434.5 527.273
1435.5 556.818
1436.5 529.364
1437.5 475.364
1438.5 504.818
1439.5 495.364
1440.5 603.273
1441.5 511.727
1442.5 576.818
1443.5 546.454
1444.5 520.818
1445.5 449.091
1446.5 322.909
1447.5 335.454
1448.5 420.818
1449.5 423.091
1450.5 335.364
1451.5 276.091
1452.5 377.545
1453.5 260.909
1454.5 274.091
1455.5 366.818
1456.5 278.182
1457.5 353.909
1458.5 535.091
1459.5 524.909
1460.5 641.273
1461.5 595.545
1462.5 604.545
1463.5 685.727
1464.5 937.909
1465.5 747.182
1466.5 811.364
1467.5 785.091
1468.5 652.727
1469.5 589.545
1470.5 410.727
1471.5 448.909
1472.5 530.636
1473.5 651.636
1474.5 674.091
1475.5 612.454
1476.5 572.273
1477.5 498.636
1478.5 606.545
1479.5 540.909
1480.5 540.727
1481.5 657.909
1482.5 609.909
1483.5 606.273
1484.5 633.273
1485.5 521.636
1486.5 517.909
1487.5 377
1488.5 512.636
1489.5 514.182
1490.5 538.273
1491.5 340.454
1492.5 620.909
1493.5 491.909
1494.5 404.727
1495.5 528.909
1496.5 632.182
1497.5 1282.09
1498.5 2146.55
1499.5 2671.09
1500.5 1952.82
1501.5 961.273
1502.5 600.909
1503.5 460.545
1504.5 435.454
1505.5 524.818
1506.5 462.454
1507.5 577.909
1508.5 592.545
1509.5 495.545
1510.5 482.454
1511.5 558
1512.5 358.182
1513.5 471
1514.5 544.454
1515.5 657.909
1516.5 730.545
1517.5 622.727
1518.5 748.091
1519.5 740.909
1520.5 617.091
1521.5 465.454
1522.5 585
1523.5 601.364
1524.5 829.818
1525.5 663.182
1526.5 550.273
1527.5 460.727
1528.5 463.636
1529.5 500.091
1530.5 513.727
1531.5 582.364
1532.5 605.273
1533.5 544.818
1534.5 617.636
1535.5 462.182
1536.5 527.545
1537.5 587.091
1538.5 690.818
1539.5 677.364
1540.5 594
1541.5 611.636
1542.5 721.545
1543.5 669.091
1544.5 545.091
1545.5 496.273
1546.5 598
1547.5 504.273
1548.5 516.545
1549.5 547.818
1550.5 573.182
1551.5 497
1552.5 491.182
1553.5 528.091
1554.5 521.454
1555.5 489.091
1556.5 302.364
1557.5 513.727
1558.5 411.364
1559.5 442.818
1560.5 419.454
1561.5 448.091
1562.5 412.182
1563.5 380.818
1564.5 461.545
1565.5 460.545
1566.5 465.454
1567.5 519.818
1568.5 593.364
1569.5 471.182
1570.5 475.636
1571.5 439.182
1572.5 495.091
1573.5 428.273
1574.5 567.454
1575.5 542.636
1576.5 577.091
1577.5 634.182
1578.5 625.909
1579.5 441.364
1580.5 469.818
1581.5 407.364
1582.5 441.545
1583.5 409.454
1584.5 528.091
1585.5 402.909
1586.5 432.636
1587.5 580.273
1588.5 793.454
1589.5 727.727
1590.5 589.818
1591.5 458.636
1592.5 461.182
1593.5 459.182
1594.5 536.636
1595.5 357.818
1596.5 640.273
1597.5 552.818
1598.5 514.273
1599.5 655.364
1600.5 469.091
1601.5 517.182
1602.5 479.545
1603.5 480.091
1604.5 398.545
1605.5 528.727
1606.5 438.727
1607.5 503
1608.5 484.727
1609.5 517.636
1610.5 538.545
1611.5 606.364
1612.5 530.273
1613.5 573.636
1614.5 401.273
1615.5 259.273
1616.5 232.545
1617.5 311.727
1618.5 393.636
1619.5 190
1620.5 272.364
1621.5 258.636
1622.5 296.182
1623.5 278.909
1624.5 297.273
1625.5 444.182
1626.5 479.182
1627.5 453.818
1628.5 615.182
1629.5 750.909
1630.5 886.091
1631.5 1521.36
1632.5 2460.27
1633.5 2937.82
1634.5 2066.82
1635.5 1053.73
1636.5 760.727
1637.5 609.454
1638.5 660.091
1639.5 762.091
1640.5 837.364
1641.5 781.454
1642.5 457.182
1643.5 444.182
1644.5 467.636
1645.5 596.909
1646.5 711.909
1647.5 727.454
1648.5 814
1649.5 833.273
1650.5 487.545
1651.5 283.545
1652.5 196.818
1653.5 -31.0001
1654.5 -144.455
1655.5 19.5454
1656.5 283.818
1657.5 295.273
1658.5 585.818
1659.5 352.273
1660.5 246
1661.5 132.909
1662.5 120.182
1663.5 354
1664.5 494.636
1665.5 711.364
1666.5 813.727
1667.5 970.545
1668.5 868.273
1669.5 871.454
1670.5 1137
1671.5 1269.64
1672.5 1519
1673.5 1462
1674.5 1561.18
1675.5 1305.82
1676.5 962.364
1677.5 693.273
1678.5 574.182
1679.5 457.364
1680.5 465.273
1681.5 515.091
1682.5 541.545
1683.5 472.091
1684.5 431.273
1685.5 492.727
1686.5 390.364
1687.5 372.727
1688.5 326.273
1689.5 375.454
1690.5 294.273
1691.5 -63.091
1692.5 -377.273
1693.5 -983
1694.5 -1109.45
1695.5 -1175.45
1696.5 -908.273
1697.5 -437.364
1698.5 13.8181
1699.5 242.364
1700.5 443.182
1701.5 427.182
1702.5 483.182
1703.5 340.636
1704.5 271.818
1705.5 408.636
1706.5 447.273
1707.5 549
1708.5 479.545
1709.5 677
1710.5 628.454
1711.5 791.909
1712.5 727
1713.5 636.182
1714.5 517.636
1715.5 576.636
1716.5 629.273
1717.5 490.182
1718.5 641.091
1719.5 647
1720.5 706.273
1721.5 720.545
1722.5 734
1723.5 779.818
1724.5 582.364
1725.5 191.909
1726.5 -192.546
1727.5 -643.909
1728.5 -375.364
1729.5 -177.818
1730.5 -44.091
1731.5 -188.091
1732.5 -615.091
1733.5 -909.455
1734.5 -859.909
1735.5 -464.636
1736.5 2.45448
1737.5 283.818
1738.5 499.364
1739.5 562.909
1740.5 644.636
1741.5 1078.27
1742.5 1905.09
1743.5 3041.27
1744.5 4059.36
1745.5 4615.18
1746.5 4687.55
1747.5 4074.55
1748.5 2747.09
1749.5 1772.55
1750.5 1051.64
1751.5 609.636
1752.5 458.091
1753.5 322.727
1754.5 352.727
1755.5 436
1756.5 323.455
1757.5 430
1758.5 336.091
1759.5 334.545
1760.5 343.636
1761.5 291.455
1762.5 373.182
1763.5 481.545
1764.5 435.364
1765.5 445.182
1766.5 429.182
1767.5 397.818
1768.5 395.636
1769.5 423.727
1770.5 419.454
1771.5 585.364
1772.5 489.273
1773.5 664.364
1774.5 562.909
1775.5 452.182
1776.5 557.364
1777.5 633
1778.5 938
1779.5 822.727
1780.5 551.545
1781.5 384.364
1782.5 430.364
1783.5 436.818
1784.5 380.364
1785.5 487.454
1786.5 555.182
1787.5 546
1788.5 709.909
1789.5 644.182
1790.5 554.636
1791.5 366.818
1792.5 243.364
1793.5 417.636
1794.5 338.364
1795.5 330.091
1796.5 412.818
1797.5 357
1798.5 398.909
1799.5 343.364
1800.5 406.182
1801.5 446.909
1802.5 358.909
1803.5 496.455
1804.5 373.909
1805.5 405.273
1806.5 498
1807.5 548.636
1808.5 551.364
1809.5 581.364
1810.5 410.091
1811.5 471.545
1812.5 395.182
1813.5 417.909
1814.5 435.818
1815.5 389.455
1816.5 418.818
1817.5 531.636
1818.5 559.273
1819.5 620.091
1820.5 571.545
1821.5 648.091
1822.5 639.545
1823.5 743.909
1824.5 695.455
1825.5 497.364
1826.5 453.455
1827.5 445.182
1828.5 356.818
1829.5 371.909
1830.5 397.818
1831.5 389.273
1832.5 320.545
1833.5 425.091
1834.5 377.909
1835.5 424.455
1836.5 344.818
1837.5 432.364
1838.5 361.454
1839.5 413.727
1840.5 405.273
1841.5 367
1842.5 561.727
1843.5 564.545
1844.5 547.454
1845.5 427.818
1846.5 335.818
1847.5 351.818
1848.5 403.818
1849.5 461.818
1850.5 386.455
1851.5 429.545
1852.5 498.454
1853.5 411.818
1854.5 436.909
1855.5 354.545
1856.5 519.455
1857.5 467.818
1858.5 387.545
1859.5 497.545
1860.5 419.909
1861.5 433
1862.5 464.364
1863.5 401.273
1864.5 478.545
1865.5 431.727
1866.5 431.545
1867.5 379.273
1868.5 498.454
1869.5 491
1870.5 753.545
1871.5 1084.18
1872.5 1147
1873.5 1070.18
1874.5 636.182
1875.5 395.818
1876.5 387.091
1877.5 422.909
1878.5 320.909
1879.5 448
1880.5 419.455
1881.5 461.182
1882.5 494.454
1883.5 503.091
1884.5 753.818
1885.5 1254.73
1886.5 2008.91
1887.5 2397.18
1888.5 1318.45
1889.5 725.364
1890.5 467.364
1891.5 418.727
1892.5 376.727
1893.5 337.818
1894.5 359.182
1895.5 422.364
1896.5 497.091
1897.5 538.727
1898.5 503.545
1899.5 559.182
1900.5 592
1901.5 449.818
1902.5 481
1903.5 401.364
1904.5 364.091
1905.5 455.727
1906.5 343.727
1907.5 399.182
1908.5 386.727
1909.5 351.818
1910.5 512
1911.5 500.636
1912.5 444.727
1913.5 461.636
1914.5 483.091
1915.5 446
1916.5 373.182
1917.5 443.091
1918.5 483.182
1919.5 394.091
1920.5 386.818
1921.5 424.273
1922.5 350.818
1923.5 538.818
1924.5 508
1925.5 380.909
1926.5 432.636
1927.5 444.818
1928.5 445.455
1929.5 383.455
1930.5 372.727
1931.5 408.818
1932.5 415.727
1933.5 351.545
1934.5 466.455
1935.5 521
1936.5 427.091
1937.5 458
1938.5 396.545
1939.5 382.727
1940.5 652
1941.5 852.364
1942.5 1144.27
1943.5 895.091
1944.5 594.454
1945.5 372.545
1946.5 302
1947.5 455
1948.5 505.727
1949.5 680.909
1950.5 749.364
1951.5 767.182
1952.5 704.091
1953.5 558.909
1954.5 419.182
1955.5 511.727
1956.5 516
1957.5 545.727
1958.5 655.454
1959.5 750.454
1960.5 457.727
1961.5 433.091
1962.5 472.818
1963.5 372.909
1964.5 444.545
1965.5 435.182
1966.5 473.091
1967.5 447.818
1968.5 470.545
1969.5 542.273
1970.5 509.182
1971.5 448.364
1972.5 347.273
1973.5 377.091
1974.5 344.455
1975.5 358.273
1976.5 329.727
1977.5 287.818
1978.5 360.455
1979.5 348.909
1980.5 313.455
1981.5 343.454
1982.5 500.545
1983.5 482.273
1984.5 453
1985.5 368.273
1986.5 435
1987.5 367.818
1988.5 342.364
1989.5 254.727
1990.5 305.636
1991.5 382.818
1992.5 530.364
1993.5 597.636
1994.5 794.909
1995.5 518.091
1996.5 521.727
1997.5 507.182
1998.5 732
1999.5 711.636
2000.5 608.091
2001.5 456.273
2002.5 380.818
2003.5 338.818
2004.5 289.636
2005.5 364.545
2006.5 365.182
2007.5 407.818
2008.5 308.364
2009.5 519.091
2010.5 442.818
2011.5 353.455
2012.5 332.818
2013.5 435.818
2014.5 488
2015.5 408.273
2016.5 434.455
2017.5 503.091
2018.5 359.182
2019.5 291.636
2020.5 375.727
2021.5 260.636
2022.5 245.909
2023.5 204.182
2024.5 361.091
2025.5 289
2026.5 362.364
2027.5 473.545
2028.5 248.455
2029.5 319.727
2030.5 278.182
2031.5 306.909
2032.5 404.182
2033.5 345.182
2034.5 373.364
2035.5 417.636
2036.5 321.545
2037.5 480.182
2038.5 457.273
2039.5 508.727
2040.5 614.364
2041.5 699.727
2042.5 613.818
2043.5 593.455
2044.5 470.909
2045.5 484.182
2046.5 350.727
2047.5 390
2048.5 421.909
2049.5 480.545
2050.5 441.455
2051.5 430.454
2052.5 523.545
2053.5 521
2054.5 490.364
2055.5 341
2056.5 366.545
2057.5 367.545
2058.5 304.091
2059.5 341.455
2060.5 292.182
2061.5 281.455
2062.5 369.091
2063.5 388.091
2064.5 416.455
2065.5 392.273
2066.5 336
2067.5 450.727
2068.5 375.364
2069.5 344.909
2070.5 397.182
2071.5 451.455
2072.5 354.455
2073.5 380.818
2074.5 430.273
2075.5 414.727
2076.5 479.545
2077.5 350.364
2078.5 334.909
2079.5 346.091
2080.5 300.636
2081.5 273.636
2082.5 273.364
2083.5 266.909
2084.5 293.636
2085.5 361.636
2086.5 332.454
2087.5 475.364
2088.5 403.909
2089.5 324.545
2090.5 269.364
2091.5 202
2092.5 201.273
2093.5 275.545
2094.5 232.909
2095.5 352.636
2096.5 412.909
2097.5 420
2098.5 439
2099.5 583.636
2100.5 441.818
2101.5 430
2102.5 378.636
2103.5 404.182
2104.5 473.273
2105.5 360.364
2106.5 393.182
2107.5 408
2108.5 281.182
2109.5 360.727
2110.5 283.273
2111.5 355.091
2112.5 339.727
2113.5 262.636
2114.5 382.636
2115.5 306.273
2116.5 336.909
2117.5 259.182
2118.5 245.818
2119.5 223.455
2120.5 268.273
2121.5 205.727
2122.5 260.455
2123.5 197.364
2124.5 275.818
2125.5 228.818
2126.5 274.727
2127.5 255.909
2128.5 270.636
2129.5 203.727
2130.5 303
2131.5 297.091
2132.5 316.364
2133.5 434.818
2134.5 359.455
2135.5 389.545
2136.5 328.273
2137.5 429.455
2138.5 524.182
2139.5 527.273
2140.5 820.818
2141.5 1299.18
2142.5 2305.36
2143.5 3581.91
2144.5 3390.91
2145.5 1877.64
2146.5 884.909
2147.5 603.091
2148.5 1040.36
2149.5 1899.27
2150.5 2079.91
2151.5 1966.27
2152.5 812.273
2153.5 403.364
2154.5 317.818
2155.5 243.727
2156.5 343.909
2157.5 260.091
2158.5 275.091
2159.5 217.091
2160.5 243
2161.5 243.545
2162.5 256
2163.5 352.273
2164.5 365.091
2165.5 258.273
2166.5 241.909
2167.5 300.818
2168.5 265.818
2169.5 343
2170.5 356.909
2171.5 308.909
2172.5 264.636
2173.5 299.364
2174.5 319.364
2175.5 343.636
2176.5 435.364
2177.5 487.182
2178.5 552.091
2179.5 559.182
2180.5 412.364
2181.5 352.818
2182.5 366.545
2183.5 329.727
2184.5 384.091
2185.5 374.273
2186.5 289
2187.5 299.182
2188.5 298.364
2189.5 262.909
2190.5 237.455
2191.5 302.273
2192.5 222.727
2193.5 292.091
2194.5 228.454
2195.5 138.364
2196.5 275.909
2197.5 309.454
2198.5 537.273
2199.5 782.364
2200.5 606.818
2201.5 642.273
2202.5 430
2203.5 412.273
2204.5 364
2205.5 360.364
2206.5 340.273
2207.5 299.091
2208.5 368.182
2209.5 394.727
2210.5 468.455
2211.5 425.364
2212.5 439.091
2213.5 316.636
2214.5 365.091
2215.5 352.636
2216.5 370.091
2217.5 307.727
2218.5 366.818
2219.5 632.636
2220.5 1167.45
2221.5 2547.45
2222.5 4135.45
2223.5 4599.18
2224.5 2598.82
2225.5 951.545
2226.5 347.273
2227.5 323.909
2228.5 240.636
2229.5 259.182
2230.5 293.727
2231.5 146.818
2232.5 212.909
2233.5 149.182
2234.5 122.545
2235.5 195.091
2236.5 311.364
2237.5 281.273
2238.5 322.364
2239.5 381.273
2240.5 402.364
2241.5 425.909
2242.5 498.182
2243.5 596.364
2244.5 667.091
2245.5 744.364
2246.5 675
2247.5 533.182
2248.5 599.364
2249.5 553.818
2250.5 375.091
2251.5 353.364
2252.5 334
2253.5 377.091
2254.5 375.091
2255.5 387.273
2256.5 343.545
2257.5 225.273
2258.5 326.636
2259.5 352.182
2260.5 233
2261.5 214.727
2262.5 255
2263.5 280.727
2264.5 363.455
2265.5 351.818
2266.5 250.636
2267.5 302.636
2268.5 267.182
2269.5 374.091
2270.5 311
2271.5 223.091
2272.5 287.636
2273.5 356.818
2274.5 277.545
2275.5 367.727
2276.5 307.273
2277.5 262.182
2278.5 394.091
2279.5 334.818
2280.5 518.091
2281.5 547.454
2282.5 444.818
2283.5 402.636
2284.5 332.545
2285.5 277.545
2286.5 245.182
2287.5 292.091
2288.5 350.545
2289.5 304.545
2290.5 306.182
2291.5 239.455
2292.5 272.545
2293.5 238.818
2294.5 308.455
2295.5 224.182
2296.5 441.545
2297.5 320.182
2298.5 352.454
2299.5 429
2300.5 434.545
2301.5 484.091
2302.5 349.454
2303.5 367.182
2304.5 159.545
2305.5 343.545
2306.5 317.455
2307.5 283.455
2308.5 340.636
2309.5 344.636
2310.5 274.636
2311.5 210.182
2312.5 282.182
2313.5 314.909
2314.5 218
2315.5 111.727
2316.5 195.364
2317.5 195
2318.5 95.1818
2319.5 116
2320.5 199.909
2321.5 257.727
2322.5 296.364
2323.5 336.909
2324.5 324.727
2325.5 334.545
2326.5 230.091
2327.5 292.545
2328.5 325.545
2329.5 323.818
2330.5 261
2331.5 289.273
2332.5 306.364
2333.5 387.727
2334.5 325.727
2335.5 370.273
2336.5 328.909
2337.5 398.182
2338.5 276.455
2339.5 244.727
2340.5 289.455
2341.5 266.364
2342.5 259.455
2343.5 316.545
2344.5 446.364
2345.5 192.545
2346.5 288.455
2347.5 329.091
2348.5 225.727
2349.5 250.364
2350.5 270
2351.5 282.909
2352.5 296.455
2353.5 282.818
2354.5 205.091
2355.5 199.727
2356.5 264
2357.5 169.091
2358.5 162.182
2359.5 170.545
2360.5 159.273
2361.5 228.455
2362.5 243.727
2363.5 195.182
2364.5 311.727
2365.5 332.364
2366.5 436.364
2367.5 507.364
2368.5 555.909
2369.5 578
2370.5 505.818
2371.5 483.091
2372.5 464.818
2373.5 295.545
2374.5 317.727
2375.5 278
2376.5 283.727
2377.5 271.909
2378.5 281.455
2379.5 313.636
2380.5 324.909
2381.5 275.909
2382.5 219
2383.5 304.455
2384.5 377.364
2385.5 262.455
2386.5 339.909
2387.5 369.727
2388.5 346.364
2389.5 237.545
2390.5 271.455
2391.5 293.182
2392.5 257.545
2393.5 226.818
2394.5 169.818
2395.5 215.545
2396.5 284.545
2397.5 241.364
2398.5 185.727
2399.5 199.727
2400.5 185.182
2401.5 240.636
2402.5 288.727
2403.5 259.273
2404.5 317.727
2405.5 341.364
2406.5 217
2407.5 322.727
2408.5 222.273
2409.5 315.182
2410.5 297
2411.5 228.909
2412.5 300
2413.5 282.727
2414.5 240.182
2415.5 192.818
2416.5 171.545
2417.5 97.5454
2418.5 113.182
2419.5 78.4545
2420.5 162.182
2421.5 70.2727
2422.5 140.182
2423.5 239.909
2424.5 262.909
2425.5 292.455
2426.5 319.636
2427.5 340.727
2428.5 350.273
2429.5 414.273
2430.5 301.454
2431.5 393.182
2432.5 459.909
2433.5 297.273
2434.5 335.273
2435.5 377.364
2436.5 367.636
2437.5 301.545
2438.5 207.455
2439.5 292.727
2440.5 259.818
2441.5 265
2442.5 259.182
2443.5 273.545
2444.5 298.455
2445.5 245.364
2446.5 342.545
2447.5 260
2448.5 191.091
2449.5 214.727
2450.5 146.727
2451.5 124.273
2452.5 131.818
2453.5 121.545
2454.5 195.636
2455.5 130.818
2456.5 129.909
2457.5 97
2458.5 134
2459.5 256.273
2460.5 260.455
2461.5 323
2462.5 314.909
2463.5 357
2464.5 377.455
2465.5 428
2466.5 596.727
2467.5 641.455
2468.5 882.818
2469.5 972.182
2470.5 1056.82
2471.5 738.727
2472.5 645
2473.5 495.909
2474.5 468.455
2475.5 283.909
2476.5 318.182
2477.5 272.273
2478.5 236.364
2479.5 310.091
2480.5 267.455
2481.5 276.545
2482.5 232.182
2483.5 325.545
2484.5 237.273
2485.5 210.545
2486.5 236.091
2487.5 267.455
2488.5 266.091
2489.5 255.909
2490.5 307.091
2491.5 335.455
2492.5 359.091
2493.5 274.364
2494.5 290.455
2495.5 248
2496.5 249.182
2497.5 319.364
2498.5 247.545
2499.5 326.636
2500.5 268.545
2501.5 303.091
2502.5 306.636
2503.5 282.636
2504.5 278.091
2505.5 282.091
2506.5 294.455
2507.5 155.182
2508.5 179.909
2509.5 72
2510.5 116.273
2511.5 160.636
2512.5 158
2513.5 213.727
2514.5 188.364
2515.5 231.909
2516.5 350
2517.5 535.364
2518.5 621.909
2519.5 650
2520.5 590.636
2521.5 438.636
2522.5 307.909
2523.5 260
2524.5 393.364
2525.5 329.909
2526.5 369.091
2527.5 570
2528.5 605
2529.5 527.636
2530.5 532.182
2531.5 342.818
2532.5 263.273
2533.5 300.455
2534.5 294.636
2535.5 178.545
2536.5 324.636
2537.5 248
2538.5 274.909
2539.5 240.091
2540.5 252.818
2541.5 190.273
2542.5 123.909
2543.5 257.273
2544.5 269
2545.5 305.636
2546.5 225.909
2547.5 179.727
2548.5 120.273
2549.5 226
2550.5 208.545
2551.5 278.818
2552.5 309
2553.5 266.818
2554.5 255.364
2555.5 333.727
2556.5 287.818
2557.5 469.273
2558.5 384.909
2559.5 515.182
2560.5 486.636
2561.5 473.818
2562.5 542.091
2563.5 359.818
2564.5 313.909
2565.5 325.636
2566.5 290.545
2567.5 267.818
2568.5 257.182
2569.5 232.545
2570.5 329.273
2571.5 240.364
2572.5 237.818
2573.5 390.727
2574.5 375.545
2575.5 323.182
2576.5 371.909
2577.5 302.091
2578.5 273.909
2579.5 193.273
2580.5 294.273
2581.5 276.727
2582.5 291.091
2583.5 290.182
2584.5 220.364
2585.5 248.455
2586.5 149.909
2587.5 284.545
2588.5 338.636
2589.5 214.182
2590.5 257.818
2591.5 244.273
2592.5 244.273
2593.5 190.727
2594.5 271.636
2595.5 257.182
2596.5 244.364
2597.5 325
2598.5 276.909
2599.5 302.727
2600.5 247.182
2601.5 288.182
2602.5 302.909
2603.5 283.636
2604.5 205.182
2605.5 307
2606.5 275.455
2607.5 233
2608.5 274
2609.5 225.455
2610.5 342.273
2611.5 418.091
2612.5 315.364
2613.5 177.273
2614.5 209.455
2615.5 311.818
2616.5 229.727
2617.5 341.364
2618.5 359.909
2619.5 292.545
2620.5 391.273
2621.5 330.818
2622.5 200.182
2623.5 291.091
2624.5 269.455
2625.5 213.182
2626.5 223.273
2627.5 297.818
2628.5 167.182
2629.5 203.455
2630.5 327.818
2631.5 275.545
2632.5 391.727
2633.5 366.727
2634.5 349.273
2635.5 254.364
2636.5 371
2637.5 358.455
2638.5 402.455
2639.5 296.455
2640.5 347.636
2641.5 314.273
2642.5 298.818
2643.5 355.818
2644.5 338.818
2645.5 255.182
2646.5 213
2647.5 188.818
2648.5 231.091
2649.5 252.727
2650.5 284.727
2651.5 251.182
2652.5 268.909
2653.5 192.364
2654.5 317.727
2655.5 352.182
2656.5 442.091
2657.5 277.364
2658.5 311.909
2659.5 251.364
2660.5 210.182
2661.5 247.091
2662.5 218.455
2663.5 150.455
2664.5 205.273
2665.5 260.091
2666.5 263.364
2667.5 303.636
2668.5 232.455
2669.5 251.364
2670.5 269.091
2671.5 296.818
2672.5 257.545
2673.5 255.091
2674.5 257.636
2675.5 251.818
2676.5 275.091
2677.5 156.364
2678.5 224.364
2679.5 229.727
2680.5 311.091
2681.5 320.727
2682.5 317.909
2683.5 332.091
2684.5 287
2685.5 239.636
2686.5 249.182
2687.5 286.273
2688.5 308.818
2689.5 321.091
2690.5 339.364
2691.5 211.818
2692.5 258.818
2693.5 233
2694.5 215.364
2695.5 304.364
2696.5 293.818
2697.5 316.455
2698.5 221.455
2699.5 252.818
2700.5 253
2701.5 176.909
2702.5 222.273
2703.5 248.091
2704.5 295.727
2705.5 159.727
2706.5 227.909
2707.5 289.818
2708.5 328.545
2709.5 237.091
2710.5 211
2711.5 176.909
2712.5 196.091
2713.5 211.545
2714.5 123.909
2715.5 259.182
2716.5 294.182
2717.5 322.727
2718.5 369.182
2719.5 304.818
2720.5 509.909
2721.5 691
2722.5 750.182
2723.5 707.364
2724.5 598.909
2725.5 473.455
2726.5 375
2727.5 346.545
2728.5 296.455
2729.5 400.909
2730.5 312.545
2731.5 301.727
2732.5 250.455
2733.5 343.455
2734.5 172.273
2735.5 224.364
2736.5 213.364
2737.5 194
2738.5 175.364
2739.5 223
2740.5 222.364
2741.5 224.909
2742.5 253.909
2743.5 236.818
2744.5 197.455
2745.5 195.727
2746.5 265
2747.5 299.182
2748.5 218.364
2749.5 285.273
2750.5 262.273
2751.5 255.909
2752.5 234.182
2753.5 249.455
2754.5 295.273
2755.5 351.364
2756.5 317.182
2757.5 334
2758.5 344
2759.5 319.818
2760.5 283.636
2761.5 290.636
2762.5 243
2763.5 341.818
2764.5 310.727
2765.5 357.091
2766.5 324.182
2767.5 370.273
2768.5 255.091
2769.5 183.636
2770.5 263.091
2771.5 171
2772.5 180.182
2773.5 196.091
2774.5 239.182
2775.5 207.545
2776.5 192.091
2777.5 170.273
2778.5 189.364
2779.5 219.636
2780.5 191.818
2781.5 264.182
2782.5 303.455
2783.5 274.091
2784.5 288.727
2785.5 392.727
2786.5 292
2787.5 343.273
2788.5 371.818
2789.5 391.727
2790.5 288.273
2791.5 360.545
2792.5 269.818
2793.5 308
2794.5 181.545
2795.5 208.545
2796.5 184.182
2797.5 182.909
2798.5 267
2799.5 288.455
2800.5 264.364
2801.5 266.636
2802.5 285.273
2803.5 160.273
2804.5 159.455
2805.5 219.818
2806.5 268.455
2807.5 202.727
2808.5 249.545
2809.5 196.182
2810.5 247.545
2811.5 317.818
2812.5 321.727
2813.5 314.091
2814.5 277.091
2815.5 250.545
2816.5 325.909
2817.5 242.818
2818.5 236.364
2819.5 200.273
2820.5 344.636
2821.5 333.182
2822.5 383.727
2823.5 357.455
2824.5 325.545
2825.5 217
2826.5 212.364
2827.5 258.273
2828.5 335.636
2829.5 233.182
2830.5 223.273
2831.5 253.636
2832.5 346.818
2833.5 208.636
2834.5 198.455
2835.5 200.091
2836.5 222.364
2837.5 235.455
2838.5 204.636
2839.5 248.364
2840.5 255.182
2841.5 218
2842.5 365.455
2843.5 419.273
2844.5 500.182
2845.5 473.818
2846.5 637.182
2847.5 679.091
2848.5 444.273
2849.5 304.909
2850.5 230.545
2851.5 215.182
2852.5 264.091
2853.5 171.818
2854.5 173.455
2855.5 228.182
2856.5 239
2857.5 188.727
2858.5 217.909
2859.5 281.909
2860.5 207.545
2861.5 224.182
2862.5 305.727
2863.5 279.636
2864.5 233.182
2865.5 246.636
2866.5 258.455
2867.5 87.4545
2868.5 181.091
2869.5 223
2870.5 280.636
2871.5 131.273
2872.5 223.182
2873.5 270.818
2874.5 237.636
2875.5 226.455
2876.5 253
2877.5 327.364
2878.5 303.818
2879.5 261.545
2880.5 277.818
2881.5 215.545
2882.5 261.727
2883.5 206.545
2884.5 190.545
2885.5 187.818
2886.5 213.545
2887.5 319.545
2888.5 314.364
2889.5 245.364
2890.5 292.636
2891.5 290.909
2892.5 249.636
2893.5 236.455
2894.5 277.091
2895.5 231.455
2896.5 235.727
2897.5 170.818
2898.5 176.273
2899.5 158.909
2900.5 93
2901.5 158.455
2902.5 237.545
2903.5 182.182
2904.5 170.545
2905.5 286.636
2906.5 144.818
2907.5 175.091
2908.5 184.818
2909.5 238.909
2910.5 248.182
2911.5 260.182
2912.5 311.636
2913.5 294.273
2914.5 319.091
2915.5 294.636
2916.5 304.727
2917.5 264.364
2918.5 173.273
2919.5 152.273
2920.5 111.273
2921.5 122.182
2922.5 154.364
2923.5 197.182
2924.5 93.9091
2925.5 154.545
2926.5 200.364
2927.5 231.091
2928.5 191.273
2929.5 91
2930.5 195.636
2931.5 178.273
2932.5 126.909
2933.5 250.909
2934.5 172
2935.5 144
2936.5 284
2937.5 335.909
2938.5 239.545
2939.5 194.636
2940.5 231.182
2941.5 231.545
2942.5 228.273
2943.5 369.545
2944.5 437.818
2945.5 628.727
2946.5 1098.91
2947.5 1081.82
2948.5 844
2949.5 719.818
2950.5 681.636
2951.5 503.818
2952.5 382.455
2953.5 360.727
2954.5 296.455
2955.5 196.909
2956.5 217.364
2957.5 154.455
2958.5 187.455
2959.5 173.091
2960.5 157.545
2961.5 155.818
2962.5 103.455
2963.5 84.6363
2964.5 113.455
2965.5 127.455
2966.5 260.182
2967.5 272.273
2968.5 359.273
2969.5 329.818
2970.5 410.273
2971.5 454.727
2972.5 489.182
2973.5 434.727
2974.5 411.818
2975.5 359.455
2976.5 358.364
2977.5 298.636
2978.5 230.727
2979.5 203.545
2980.5 283
2981.5 298.818
2982.5 236.636
2983.5 326.182
2984.5 220.818
2985.5 273.182
2986.5 155.091
2987.5 257.727
2988.5 216.273
2989.5 237.364
2990.5 202.364
2991.5 226.182
2992.5 235.182
2993.5 197.364
2994.5 207.091
2995.5 111.545
2996.5 197.727
2997.5 167.545
2998.5 110.364
2999.5 99
3000.5 116.636
3001.5 179.636
3002.5 194.818
3003.5 157.727
3004.5 353.727
3005.5 412.545
3006.5 405.273
3007.5 329.727
3008.5 291.636
3009.5 303.455
3010.5 251.273
3011.5 416.091
3012.5 524
3013.5 415.909
3014.5 477.364
3015.5 451.091
3016.5 295.455
3017.5 315.545
3018.5 266.727
3019.5 285.909
3020.5 217.636
3021.5 187.455
3022.5 296.364
3023.5 203.182
3024.5 229.273
3025.5 195.091
3026.5 158
3027.5 271.273
3028.5 234.909
3029.5 292.091
3030.5 297.545
3031.5 234.182
3032.5 313.818
3033.5 303.727
3034.5 286.364
3035.5 273.909
3036.5 371.818
3037.5 341.182
3038.5 563
3039.5 444
3040.5 377.818
3041.5 253.182
3042.5 237.909
3043.5 210
3044.5 274.091
3045.5 203.818
3046.5 284.636
3047.5 217
3048.5 234.455
3049.5 285.909
3050.5 325.364
3051.5 397.636
3052.5 337.545
3053.5 407.091
3054.5 353.636
3055.5 231.091
3056.5 319.909
3057.5 218
3058.5 269.909
3059.5 271.364
3060.5 344.545
3061.5 192.545
3062.5 237.273
3063.5 207.455
3064.5 216.364
3065.5 179.818
3066.5 168.545
3067.5 269.182
3068.5 234.545
3069.5 260.909
3070.5 223.273
3071.5 222.182
3072.5 298.273
3073.5 262.091
3074.5 285.455
3075.5 216.091
3076.5 163.091
3077.5 244.182
3078.5 211.818
3079.5 220.636
3080.5 228.909
3081.5 120.636
3082.5 207.636
3083.5 214.909
3084.5 131
3085.5 212.182
3086.5 277.636
3087.5 181.909
3088.5 234.545
3089.5 218.636
3090.5 165.091
3091.5 121
3092.5 89.6363
3093.5 139.455
3094.5 110.364
3095.5 160.818
3096.5 86.2727
3097.5 107
3098.5 210.455
3099.5 234.818
3100.5 174.273
3101.5 242.909
3102.5 278.273
3103.5 228
3104.5 197.818
3105.5 247.636
3106.5 371.364
3107.5 299.455
3108.5 385.545
3109.5 388.182
3110.5 348
3111.5 388.909
3112.5 316.091
3113.5 230.091
3114.5 256.909
3115.5 212.091
3116.5 140
3117.5 203.091
3118.5 243.727
3119.5 264.909
3120.5 185.545
3121.5 150.818
3122.5 204.909
3123.5 165.727
3124.5 181.455
3125.5 131.909
3126.5 194
3127.5 194.273
3128.5 131.455
3129.5 157.091
3130.5 149.182
3131.5 191.455
3132.5 175.636
3133.5 196.273
3134.5 217.818
3135.5 239.364
3136.5 215.364
3137.5 232
3138.5 182.545
3139.5 245.727
3140.5 201.545
3141.5 252.818
3142.5 234.273
3143.5 281.364
3144.5 332.182
3145.5 329.909
3146.5 233.909
3147.5 344.091
3148.5 276.636
3149.5 281.364
3150.5 254.727
3151.5 229.818
3152.5 276.455
3153.5 184.091
3154.5 189.182
3155.5 138.818
3156.5 164.545
3157.5 184.909
3158.5 193.727
3159.5 206.818
3160.5 105.909
3161.5 201.636
3162.5 231.091
3163.5 248.727
3164.5 180.727
3165.5 281.818
3166.5 233.636
3167.5 247.636
3168.5 309.364
3169.5 242.455
3170.5 292.818
3171.5 215.818
3172.5 233.909
3173.5 254
3174.5 221.727
3175.5 277.091
3176.5 234.818
3177.5 290.455
3178.5 209.818
3179.5 258.909
3180.5 180.909
3181.5 247.636
3182.5 159.091
3183.5 163.909
3184.5 204.727
3185.5 259.091
3186.5 272.727
3187.5 283.909
3188.5 221.545
3189.5 147.727
3190.5 145.273
3191.5 241.636
3192.5 250.636
3193.5 184.727
3194.5 284.909
3195.5 329.182
3196.5 290.182
3197.5 193.909
3198.5 252.273
3199.5 282
3200.5 337
3201.5 352.273
3202.5 338.364
3203.5 261.818
3204.5 344.727
3205.5 394.182
3206.5 333.909
3207.5 232.818
3208.5 231
3209.5 261.273
3210.5 257.273
3211.5 180.091
3212.5 151.727
3213.5 176.455
3214.5 125.727
3215.5 182.273
3216.5 147.636
3217.5 141.818
3218.5 209.636
3219.5 246.364
3220.5 237.818
3221.5 209.727
3222.5 208.636
3223.5 222.818
3224.5 187.727
3225.5 209.636
3226.5 230
3227.5 247.182
3228.5 193.545
3229.5 213.727
3230.5 213.091
3231.5 211.727
3232.5 270.818
3233.5 351.364
3234.5 286.545
3235.5 206.545
3236.5 268.636
3237.5 368.818
3238.5 228.455
3239.5 251.364
3240.5 262.727
3241.5 390.455
3242.5 326
3243.5 329.364
3244.5 218.091
3245.5 230.818
3246.5 227.273
3247.5 212.182
3248.5 238
3249.5 176.273
3250.5 152
3251.5 164.636
3252.5 145.545
3253.5 99.9091
3254.5 177.636
3255.5 242.455
3256.5 214
3257.5 119.818
3258.5 199.909
3259.5 187.364
3260.5 242.545
3261.5 253.818
3262.5 275.818
3263.5 260.364
3264.5 207.727
3265.5 267.909
3266.5 319.636
3267.5 315.727
3268.5 338.273
3269.5 315.273
3270.5 299.727
3271.5 239
3272.5 244.909
3273.5 222.818
3274.5 154.273
3275.5 204.545
3276.5 272.909
3277.5 243.727
3278.5 263.364
3279.5 228.545
3280.5 150.545
3281.5 161.364
3282.5 154.091
3283.5 136.909
3284.5 190
3285.5 144
3286.5 160.545
3287.5 155.909
3288.5 220.091
3289.5 128.545
3290.5 225.455
3291.5 168.364
3292.5 163.818
3293.5 191.182
3294.5 195.909
3295.5 220.818
3296.5 249.273
3297.5 365.727
3298.5 506.091
3299.5 713.909
3300.5 886.727
3301.5 1055.64
3302.5 781.364
3303.5 569.182
3304.5 268.182
3305.5 230.727
3306.5 168.545
3307.5 224.455
3308.5 185.273
3309.5 186.455
3310.5 213.455
3311.5 223
3312.5 258.091
3313.5 271.909
3314.5 188.182
3315.5 163.909
3316.5 191.545
3317.5 186.455
3318.5 106
3319.5 184
3320.5 251.545
3321.5 221.182
3322.5 306.182
3323.5 242.727
3324.5 219.545
3325.5 217.364
3326.5 198.364
3327.5 114.182
3328.5 175.091
3329.5 283.273
3330.5 155
3331.5 256.818
3332.5 193.182
3333.5 168.273
3334.5 192.182
3335.5 173.909
3336.5 109
3337.5 204
3338.5 184.455
3339.5 116.273
3340.5 184.364
3341.5 151.727
3342.5 191.182
3343.5 163.364
3344.5 169.364
3345.5 263.273
3346.5 147.364
3347.5 184.364
3348.5 193.182
3349.5 248.909
3350.5 210.091
3351.5 208.364
3352.5 212.182
3353.5 191.273
3354.5 236.091
3355.5 238.909
3356.5 252.909
3357.5 167.091
3358.5 157.364
3359.5 225.182
3360.5 193.818
3361.5 178.818
3362.5 119.455
3363.5 164.182
3364.5 162.545
3365.5 185.091
3366.5 238.545
3367.5 251.273
3368.5 268.455
3369.5 241.636
3370.5 204.545
3371.5 194.091
3372.5 163
3373.5 138.909
3374.5 139.364
3375.5 164.273
3376.5 152.909
3377.5 92.4545
3378.5 135.636
3379.5 143
3380.5 228.727
3381.5 220.273
3382.5 281.091
3383.5 303.909
3384.5 280.182
3385.5 243
3386.5 279.364
3387.5 198.909
3388.5 242
3389.5 225.273
3390.5 290.182
3391.5 252.727
3392.5 342.182
3393.5 317.545
3394.5 335.182
3395.5 359.273
3396.5 301
3397.5 233.636
3398.5 223.818
3399.5 215.545
3400.5 285.091
3401.5 248.364
3402.5 98.3636
3403.5 69.1818
3404.5 102.727
3405.5 193.545
3406.5 115.091
3407.5 104.636
3408.5 90.5454
3409.5 162.182
3410.5 122.091
3411.5 118.727
3412.5 187.545
3413.5 155.636
3414.5 156.091
3415.5 153.273
3416.5 161.364
3417.5 248.364
3418.5 194.455
3419.5 128.182
3420.5 149.455
3421.5 187.545
3422.5 281.727
3423.5 262.364
3424.5 245.818
3425.5 458.545
3426.5 545.454
3427.5 530
3428.5 432.455
3429.5 289.273
3430.5 203.182
3431.5 163.727
3432.5 80
3433.5 150.545
3434.5 171.091
3435.5 184.182
3436.5 181.091
3437.5 131.545
3438.5 196.091
3439.5 173.636
3440.5 232.273
3441.5 187.727
3442.5 199.182
3443.5 103.545
3444.5 177.727
3445.5 188.091
3446.5 247.091
3447.5 187.545
3448.5 280.727
3449.5 313
3450.5 415.454
3451.5 298.545
3452.5 173.909
3453.5 198.182
3454.5 181.636
3455.5 231.364
3456.5 189.909
3457.5 216.455
3458.5 172.182
3459.5 147.182
3460.5 145.545
3461.5 237.091
3462.5 212.091
3463.5 192.273
3464.5 175.091
3465.5 289.909
3466.5 190.273
3467.5 190.636
3468.5 241.818
3469.5 213.545
3470.5 191.273
3471.5 81.9091
3472.5 191.818
3473.5 135.636
3474.5 172.273
3475.5 115.818
3476.5 194.545
3477.5 172.091
3478.5 156.727
3479.5 198.273
3480.5 154.455
3481.5 181.364
3482.5 173.364
3483.5 119.091
3484.5 156.545
3485.5 339.545
3486.5 268.455
3487.5 336.364
3488.5 387.091
3489.5 354.182
3490.5 286.091
3491.5 403.091
3492.5 379.091
3493.5 488.091
3494.5 388.818
3495.5 309.091
3496.5 362
3497.5 252.636
3498.5 290.091
3499.5 207.091
3500.5 228.091
3501.5 197.182
3502.5 192.545
3503.5 156.091
3504.5 183.182
3505.5 98
3506.5 191.909
3507.5 186.091
3508.5 146.636
3509.5 195.545
3510.5 166.545
3511.5 182
3512.5 219.909
3513.5 193.455
3514.5 240.818
3515.5 221.273
3516.5 228.091
3517.5 235.273
3518.5 255.727
3519.5 235.818
3520.5 206.909
3521.5 219
3522.5 228.545
3523.5 128.909
3524.5 182.727
3525.5 118.455
3526.5 98.2727
3527.5 177.636
3528.5 95.4545
3529.5 209.182
3530.5 315
3531.5 342
3532.5 260.182
3533.5 257.182
3534.5 246.636
3535.5 148.182
3536.5 199.545
3537.5 144.909
3538.5 151.545
3539.5 171.818
3540.5 134.091
3541.5 168.818
3542.5 200.636
3543.5 150.636
3544.5 236
3545.5 137.091
3546.5 225.636
3547.5 220.636
3548.5 255.545
3549.5 193.182
3550.5 193.727
3551.5 186.545
3552.5 212.091
3553.5 241.636
3554.5 215.909
3555.5 174.636
3556.5 268.364
3557.5 190
3558.5 143.727
3559.5 195
3560.5 172.273
3561.5 205.545
3562.5 237.818
3563.5 224.636
3564.5 195.636
3565.5 220.273
3566.5 197.909
3567.5 133.182
3568.5 172.091
3569.5 153.455
3570.5 139.091
3571.5 202.727
3572.5 186.273
3573.5 153.727
3574.5 163.636
3575.5 158.545
3576.5 193.727
3577.5 160.273
3578.5 166.273
3579.5 178.182
3580.5 223.818
3581.5 200.455
3582.5 215.636
3583.5 158.545
3584.5 274.273
3585.5 215.545
3586.5 172.727
3587.5 219.727
3588.5 258.636
3589.5 133.455
3590.5 160.455
3591.5 155.909
3592.5 192.636
3593.5 154.091
3594.5 124.636
3595.5 168
3596.5 165.455
3597.5 201.545
3598.5 124.455
3599.5 146.273
3600.5 132.636
3601.5 211.364
3602.5 127.364
3603.5 125.364
3604.5 125
3605.5 151.727
3606.5 138.909
3607.5 192.455
3608.5 161.364
3609.5 253.364
3610.5 236.455
3611.5 169.091
3612.5 157.364
3613.5 200.545
3614.5 169
3615.5 101.364
3616.5 151.636
3617.5 182.909
3618.5 232.545
3619.5 160.727
3620.5 263.364
3621.5 260.455
3622.5 237.364
3623.5 213.455
3624.5 202.364
3625.5 121.455
3626.5 97.2727
3627.5 187.818
3628.5 243.545
3629.5 200.727
3630.5 197.636
3631.5 262.182
3632.5 143.091
3633.5 203.909
3634.5 147.545
3635.5 144.364
3636.5 159.273
3637.5 167
3638.5 201.727
3639.5 139
3640.5 148.182
3641.5 93.3636
3642.5 93.8182
3643.5 99
3644.5 164.909
3645.5 256
3646.5 244.818
3647.5 197.364
3648.5 259.273
3649.5 182.727
3650.5 204.818
3651.5 182.909
3652.5 161.364
3653.5 188.909
3654.5 143.727
3655.5 129.091
3656.5 195.091
3657.5 215.909
3658.5 211.091
3659.5 178.636
3660.5 288.909
3661.5 231.364
3662.5 289.909
3663.5 179.182
3664.5 190.727
3665.5 203
3666.5 166.455
3667.5 91.5454
3668.5 170.182
3669.5 143.636
3670.5 182.727
3671.5 207
3672.5 183.364
3673.5 214.727
3674.5 178.636
3675.5 132.727
3676.5 136.818
3677.5 127.909
3678.5 72.0909
3679.5 108
3680.5 128.455
3681.5 162.364
3682.5 171.273
3683.5 234.818
3684.5 206.091
3685.5 209.182
3686.5 199.727
3687.5 136.273
3688.5 131.818
3689.5 137.091
3690.5 239
3691.5 229
3692.5 249.818
3693.5 138.182
3694.5 257.364
3695.5 160
3696.5 219
3697.5 131.364
3698.5 170.273
3699.5 155.727
3700.5 201.091
3701.5 165.455
3702.5 159.727
3703.5 189
3704.5 116.364
3705.5 218.727
3706.5 181.545
3707.5 194.455
3708.5 175.909
3709.5 187.182
3710.5 134.273
3711.5 97.1818
3712.5 136
3713.5 158.455
3714.5 167
3715.5 63.6363
3716.5 94.6363
3717.5 86
3718.5 62
3719.5 129.364
3720.5 94.6363
3721.5 150.636
3722.5 100.818
3723.5 152
3724.5 125.364
3725.5 156.545
3726.5 214.818
3727.5 217.818
3728.5 209.727
3729.5 197
3730.5 219.182
3731.5 197.273
3732.5 279.455
3733.5 243.455
3734.5 252
3735.5 212.182
3736.5 133.455
3737.5 211.364
3738.5 243.273
3739.5 250.273
3740.5 318.364
3741.5 300.636
3742.5 255.091
3743.5 190.545
3744.5 320.182
3745.5 319.091
3746.5 201.364
3747.5 283.455
3748.5 249.727
3749.5 232.909
3750.5 124.636
3751.5 184.091
3752.5 149.818
3753.5 178.818
3754.5 198.727
3755.5 202.909
3756.5 123.727
3757.5 184.818
3758.5 152.818
3759.5 155.364
3760.5 203.364
3761.5 162.364
3762.5 140.545
3763.5 132.818
3764.5 109.636
3765.5 148.455
3766.5 109.727
3767.5 132.545
3768.5 96.6363
3769.5 135.636
3770.5 160.818
3771.5 99.8182
3772.5 121.545
3773.5 180.455
3774.5 140.545
3775.5 156.545
3776.5 199.909
3777.5 137
3778.5 156.909
3779.5 142
3780.5 174.545
3781.5 206.727
3782.5 204.273
3783.5 206.727
3784.5 235.182
3785.5 172.727
3786.5 226.818
3787.5 207.636
3788.5 311
3789.5 216.455
3790.5 151.636
3791.5 123.091
3792.5 189.636
3793.5 179.273
3794.5 195.909
3795.5 116.818
3796.5 208.909
3797.5 184.636
3798.5 161
3799.5 150.455
3800.5 144
3801.5 122.636
3802.5 161.636
3803.5 207.273
3804.5 160.364
3805.5 158.182
3806.5 161.727
3807.5 133.636
3808.5 162.727
3809.5 152.818
3810.5 191.364
3811.5 152.818
3812.5 151.273
3813.5 171.818
3814.5 88.2727
3815.5 124.273
3816.5 82.2727
3817.5 153.273
3818.5 152.364
3819.5 132.455
3820.5 172.727
3821.5 187
3822.5 238
3823.5 231.455
3824.5 265.273
3825.5 229.909
3826.5 154.636
3827.5 164.818
3828.5 161.273
3829.5 107.455
3830.5 221.636
3831.5 202.455
3832.5 201.909
3833.5 161.091
3834.5 128.909
3835.5 131.727
3836.5 172.364
3837.5 156.818
3838.5 188.727
3839.5 147.909
3840.5 224.818
3841.5 193.909
3842.5 95.0909
3843.5 123.636
3844.5 184
3845.5 155.182
3846.5 191.545
3847.5 212
3848.5 212.636
3849.5 190.727
3850.5 133.182
3851.5 143.545
3852.5 108.636
3853.5 46.3636
3854.5 125.909
3855.5 92.5454
3856.5 94.0909
3857.5 88.8182
3858.5 201.364
3859.5 187.727
3860.5 224.273
3861.5 220.091
3862.5 156.909
3863.5 251.182
3864.5 174.455
3865.5 170.545
3866.5 169.364
3867.5 208.455
3868.5 272.818
3869.5 255.182
3870.5 243.182
3871.5 149.182
3872.5 231.818
3873.5 208.636
3874.5 158.545
3875.5 158.727
3876.5 156.273
3877.5 229
3878.5 158
3879.5 153.818
3880.5 183.727
3881.5 152.273
3882.5 125.818
3883.5 148.091
3884.5 204.273
3885.5 60
3886.5 132
3887.5 127.364
3888.5 109.636
3889.5 49.5454
3890.5 94
3891.5 121.455
3892.5 162
3893.5 97.3636
3894.5 110
3895.5 190
3896.5 189.818
3897.5 170.636
3898.5 197.636
3899.5 252.909
3900.5 266.455
3901.5 161.364
3902.5 193
3903.5 276
3904.5 164.091
3905.5 230.091
3906.5 201.727
3907.5 223.182
3908.5 118.455
3909.5 198.636
3910.5 190.545
3911.5 156.364
3912.5 237.364
3913.5 209.909
3914.5 198.909
3915.5 211.545
3916.5 151.182
3917.5 176
3918.5 163.727
3919.5 99.2727
3920.5 177.364
3921.5 196.364
3922.5 224.909
3923.5 182.909
3924.5 157.364
3925.5 154.455
3926.5 84.1818
3927.5 139.818
3928.5 152.818
3929.5 117.091
3930.5 128.273
3931.5 72.2727
3932.5 64.3636
3933.5 78.7273
3934.5 160
3935.5 159.636
3936.5 100.545
3937.5 113.818
3938.5 159.545
3939.5 228.909
3940.5 164
3941.5 229.273
3942.5 224.545
3943.5 179.455
3944.5 194.455
3945.5 220.182
3946.5 245.909
3947.5 257.818
3948.5 165.455
3949.5 125.545
3950.5 201.091
3951.5 176.273
3952.5 187.636
3953.5 213
3954.5 236.091
3955.5 209.636
3956.5 320.545
3957.5 248.818
3958.5 259.545
3959.5 272.636
3960.5 213.909
3961.5 213.818
3962.5 201.636
3963.5 243.545
3964.5 345.636
3965.5 216.636
3966.5 176
3967.5 81.7273
3968.5 144.818
3969.5 99.8182
3970.5 110.273
3971.5 185.636
3972.5 238.818
3973.5 307.273
3974.5 236.909
3975.5 282.727
3976.5 274.636
3977.5 354.818
3978.5 316.545
3979.5 357
3980.5 323.909
3981.5 390
3982.5 345.364
3983.5 263.818
3984.5 257.909
3985.5 279
3986.5 173.727
3987.5 169.455
3988.5 210.364
3989.5 150
3990.5 144.273
3991.5 178.364
3992.5 148.182
3993.5 197.182
3994.5 224.727
3995.5 225.091
3996.5 204.818
3997.5 176.909
3998.5 101.727
3999.5 162.364
4000.5 120
4001.5 105.182
4002.5 113.182
4003.5 97.3636
4004.5 157
4005.5 164.909
4006.5 116.364
4007.5 123.909
4008.5 131.818
4009.5 93.0909
4010.5 146.545
4011.5 120.091
4012.5 122.273
4013.5 158.545
4014.5 135.182
4015.5 145
4016.5 156.636
4017.5 195.182
4018.5 154.909
4019.5 179.455
4020.5 197.727
4021.5 164.727
4022.5 181.636
4023.5 181.182
4024.5 180.455
4025.5 127.091
4026.5 176.727
4027.5 123.727
4028.5 119
4029.5 93.9091
4030.5 141.636
4031.5 192.818
4032.5 204.727
4033.5 219.818
4034.5 138.455
4035.5 169.364
4036.5 124.545
4037.5 226.455
4038.5 174.364
4039.5 209.455
4040.5 142.455
4041.5 169.818
4042.5 97.4545
4043.5 174.909
4044.5 129.727
4045.5 167.273
4046.5 186.818
4047.5 176.273
4048.5 175.909
4049.5 167
4050.5 189.545
4051.5 148.727
4052.5 127.091
4053.5 141.364
4054.5 173.364
4055.5 90.4545
4056.5 184
4057.5 123.818
4058.5 115
4059.5 120
4060.5 112
4061.5 139.818
4062.5 93.3636
4063.5 90.0909
4064.5 146.091
4065.5 76.9091
4066.5 158.909
4067.5 90.0909
4068.5 75.5454
4069.5 94.9091
4070.5 111.364
4071.5 117.909
4072.5 143.636
4073.5 177.909
4074.5 186.364
4075.5 252.818
4076.5 215.091
4077.5 171
4078.5 198.636
4079.5 182.636
4080.5 220.364
4081.5 216.364
4082.5 131.818
4083.5 175.545
4084.5 186
4085.5 187.545
4086.5 184.727
4087.5 201.818
4088.5 176.455
4089.5 132.636
4090.5 121.273
4091.5 124.091
4092.5 73
4093.5 141.909
4094.5 131.182
4095.5 196.727
4096.5 177.364
4097.5 157.545
4098.5 191.182
4099.5 147.727
4100.5 145.727
4101.5 186.909
4102.5 178.182
4103.5 112.909
4104.5 136.636
4105.5 129.091
4106.5 153.545
4107.5 128.909
4108.5 163.909
4109.5 113.727
4110.5 132.364
4111.5 145.364
4112.5 200.455
4113.5 214
4114.5 212.364
4115.5 84.4545
4116.5 154.455
4117.5 96.8182
4118.5 133.182
4119.5 125.455
4120.5 127.727
4121.5 78.6363
4122.5 112.545
4123.5 103
4124.5 123.273
4125.5 88.2727
4126.5 110.727
4127.5 116.636
4128.5 87.7273
4129.5 110
4130.5 109.636
4131.5 107.091
4132.5 145.909
4133.5 193.273
4134.5 133
4135.5 219
4136.5 179.273
4137.5 179.636
4138.5 196.364
4139.5 225.636
4140.5 225.545
4141.5 231
4142.5 189.091
4143.5 204.636
4144.5 222.818
4145.5 162.727
4146.5 196.818
4147.5 258.818
4148.5 351.818
4149.5 269.909
4150.5 199.455
4151.5 134.273
4152.5 160.364
4153.5 84.0909
4154.5 99
4155.5 129.091
4156.5 164.909
4157.5 116.364
4158.5 178.182
4159.5 148.273
4160.5 84.8182
4161.5 130.727
4162.5 149.182
4163.5 112.273
4164.5 109.455
4165.5 141.273
4166.5 167.273
4167.5 196.364
4168.5 213.182
4169.5 331.364
4170.5 256.636
4171.5 274.909
4172.5 253.273
4173.5 336
4174.5 282.091
4175.5 269.091
4176.5 202.273
4177.5 200.091
4178.5 154
4179.5 187
4180.5 129.545
4181.5 139.545
4182.5 144.818
4183.5 173.364
4184.5 192.182
4185.5 119.364
4186.5 125.273
4187.5 154.273
4188.5 120.545
4189.5 126.455
4190.5 127.818
4191.5 132.727
4192.5 8.1818
4193.5 117
4194.5 118.818
4195.5 112.091
4196.5 163.364
4197.5 117.091
4198.5 128.364
4199.5 172.636
4200.5 165.818
4201.5 209
4202.5 167.182
4203.5 186.818
4204.5 238.909
4205.5 175.182
4206.5 271.909
4207.5 240.364
4208.5 262.091
4209.5 243.818
4210.5 254.091
4211.5 197.273
4212.5 128.273
4213.5 204.545
4214.5 142.091
4215.5 178.727
4216.5 207.091
4217.5 225.364
4218.5 254.727
4219.5 150.273
4220.5 177.273
4221.5 108.636
4222.5 107.545
4223.5 120
4224.5 159.636
4225.5 96.1818
4226.5 164.545
4227.5 117.273
4228.5 149.818
4229.5 158.636
4230.5 138.545
4231.5 134.636
4232.5 207.727
4233.5 204.091
4234.5 125.364
4235.5 179.273
4236.5 88.0909
4237.5 147.818
4238.5 117.455
4239.5 144.455
4240.5 183.364
4241.5 167.273
4242.5 203.545
4243.5 151.091
4244.5 154.545
4245.5 94.0909
4246.5 123.909
4247.5 81.5454
4248.5 103
4249.5 172.273
4250.5 96.8182
4251.5 93.2727
4252.5 126.636
4253.5 51.1818
4254.5 138.545
4255.5 139.727
4256.5 214.364
4257.5 184.818
4258.5 169.273
4259.5 204.091
4260.5 171.545
4261.5 120.909
4262.5 174.273
4263.5 150.455
4264.5 109.364
4265.5 212.636
4266.5 199.273
4267.5 170.182
4268.5 183.636
4269.5 155
4270.5 198.545
4271.5 220.727
4272.5 178.818
4273.5 180.818
4274.5 181.455
4275.5 168.273
4276.5 161.455
4277.5 186.727
4278.5 119.091
4279.5 194.091
4280.5 189.818
4281.5 102.636
4282.5 103.273
4283.5 167.273
4284.5 155.091
4285.5 121
4286.5 139.545
4287.5 136.455
4288.5 153.364
4289.5 158
4290.5 141.182
4291.5 137.273
4292.5 157.545
4293.5 187.636
4294.5 169
4295.5 127.455
4296.5 173.818
4297.5 158.545
4298.5 177.364
4299.5 148.909
4300.5 232.909
4301.5 214.727
4302.5 182.545
4303.5 160.273
4304.5 128.273
4305.5 61
4306.5 149.818
4307.5 148.455
4308.5 142.636
4309.5 112.273
4310.5 122.182
4311.5 114.455
4312.5 84.9091
4313.5 137.909
4314.5 158.545
4315.5 150.636
4316.5 120.818
4317.5 80.1818
4318.5 93.0909
4319.5 40
4320.5 96.6363
4321.5 108.727
4322.5 104.091
4323.5 111.909
4324.5 135.636
4325.5 145.636
4326.5 171.273
4327.5 182.273
4328.5 175.818
4329.5 127.091
4330.5 192.182
4331.5 218.636
4332.5 252.909
4333.5 260.545
4334.5 261.727
4335.5 190
4336.5 146.545
4337.5 157.091
4338.5 129.455
4339.5 130.727
4340.5 94.1818
4341.5 96.6363
4342.5 106.727
4343.5 121
4344.5 61.1818
4345.5 50.2727
4346.5 91.3636
4347.5 116.545
4348.5 91.2727
4349.5 12.9091
4350.5 95.6364
4351.5 66.2727
4352.5 39.4545
4353.5 82.9091
4354.5 134.545
4355.5 83.0909
4356.5 125.364
4357.5 94.8182
4358.5 62.4545
4359.5 113.182
4360.5 111.636
4361.5 204.364
4362.5 119.364
4363.5 139.636
4364.5 160.636
4365.5 258.818
4366.5 322.545
4367.5 240.909
4368.5 271.182
4369.5 182.273
4370.5 105.636
4371.5 141.091
4372.5 175.909
4373.5 178.273
4374.5 271.818
4375.5 200.909
4376.5 166.364
4377.5 168.455
4378.5 164.727
4379.5 101.727
4380.5 116.364
4381.5 120.727
4382.5 187.091
4383.5 100.727
4384.5 105.818
4385.5 68.3636
4386.5 84.7273
4387.5 67.3636
4388.5 63.5454
4389.5 71.3636
4390.5 92.7273
4391.5 108.455
4392.5 105.273
4393.5 95.9091
4394.5 154
4395.5 98
4396.5 151.545
4397.5 78.2727
4398.5 137.545
4399.5 106.091
4400.5 114.545
4401.5 147.364
4402.5 196.727
4403.5 120.455
4404.5 201.545
4405.5 251
4406.5 281.909
4407.5 273.545
4408.5 266.455
4409.5 343
4410.5 294.273
4411.5 301.818
4412.5 187
4413.5 173.091
4414.5 136.182
4415.5 131.636
4416.5 124.091
4417.5 148.818
4418.5 130.545
4419.5 91.0909
4420.5 124.182
4421.5 134.364
4422.5 77
4423.5 131.091
4424.5 153.909
4425.5 146.455
4426.5 165.727
4427.5 159.545
4428.5 164.636
4429.5 114.091
4430.5 140.818
4431.5 152.091
4432.5 225.182
4433.5 139.182
4434.5 192.455
4435.5 160.182
4436.5 185
4437.5 240.909
4438.5 191.455
4439.5 212.364
4440.5 148.545
4441.5 230
4442.5 204.273
4443.5 166.091
4444.5 133.636
4445.5 125.909
4446.5 136.273
4447.5 106.818
4448.5 53.6363
4449.5 80.5454
4450.5 81.8182
4451.5 47.0909
4452.5 59.8182
4453.5 143.091
4454.5 94.5454
4455.5 146.182
4456.5 220.364
4457.5 336.273
4458.5 299.364
4459.5 265.636
4460.5 247.818
4461.5 271.545
4462.5 206.273
4463.5 172.545
4464.5 188.273
4465.5 217.636
4466.5 215.545
4467.5 204.636
4468.5 327.455
4469.5 256
4470.5 244
4471.5 210.182
4472.5 184
4473.5 141.182
4474.5 123.727
4475.5 128.909
4476.5 149.636
4477.5 91.9091
4478.5 142.818
4479.5 83.8182
4480.5 130.818
4481.5 97.3636
4482.5 142.636
4483.5 105.364
4484.5 75
4485.5 113.455
4486.5 117.636
4487.5 74
4488.5 153.909
4489.5 138.364
4490.5 154.636
4491.5 133.273
4492.5 110
4493.5 158.727
4494.5 132.636
4495.5 161.364
4496.5 148.909
4497.5 126.818
4498.5 139.273
4499.5 113
4500.5 174.818
4501.5 223.455
4502.5 235.273
4503.5 221.273
4504.5 220.273
4505.5 186.636
4506.5 200.909
4507.5 191.455
4508.5 159.091
4509.5 107.091
4510.5 128.455
4511.5 78.2727
4512.5 102.091
4513.5 43.3636
4514.5 153.818
4515.5 96.6363
4516.5 101.273
4517.5 98.4545
4518.5 136.818
4519.5 141.364
4520.5 167.727
4521.5 160.636
4522.5 223.909
4523.5 179.727
4524.5 185.909
4525.5 227
4526.5 180.636
4527.5 181.727
4528.5 134.636
4529.5 178.636
4530.5 170.727
4531.5 171.545
4532.5 174.273
4533.5 172.182
4534.5 135.545
4535.5 124.545
4536.5 150
4537.5 63.4545
4538.5 64.3636
4539.5 42.9091
4540.5 121.182
4541.5 120
4542.5 63.3636
4543.5 61.3636
4544.5 104.364
4545.5 125.364
4546.5 132.273
4547.5 126.818
4548.5 196.818
4549.5 177.909
4550.5 121.636
4551.5 176.727
4552.5 215.182
4553.5 253.182
4554.5 219.364
4555.5 274.091
4556.5 347.091
4557.5 330.909
4558.5 315
4559.5 193.636
4560.5 169.818
4561.5 98.7273
4562.5 235
4563.5 151.545
4564.5 270.364
4565.5 192.818
4566.5 118.182
4567.5 183.909
4568.5 143.273
4569.5 128
4570.5 120.364
4571.5 101.364
4572.5 129.364
4573.5 121.545
4574.5 118.091
4575.5 106.091
4576.5 91.1818
4577.5 103.545
4578.5 93.7273
4579.5 141.273
4580.5 104.636
4581.5 104
4582.5 138.636
4583.5 74.3636
4584.5 100.545
4585.5 141.182
4586.5 168.182
4587.5 102.727
4588.5 132.909
4589.5 109.364
4590.5 174
4591.5 143.455
4592.5 162.727
4593.5 114
4594.5 89.4545
4595.5 165.364
4596.5 165.364
4597.5 128.727
4598.5 111.818
4599.5 97.9091
4600.5 70.3636
4601.5 166.909
4602.5 139.273
4603.5 80.0909
4604.5 174.545
4605.5 135.909
4606.5 88.6363
4607.5 162.364
4608.5 77.8182
4609.5 153.909
4610.5 162.818
4611.5 144.636
4612.5 181.273
4613.5 142.636
4614.5 142.273
4615.5 160.091
4616.5 178.909
4617.5 198.545
4618.5 163.455
4619.5 136.455
4620.5 100.091
4621.5 198.818
4622.5 188.636
4623.5 159.818
4624.5 200.727
4625.5 172.636
4626.5 262
4627.5 157.182
4628.5 184.818
4629.5 122.818
4630.5 153.909
4631.5 127.545
4632.5 88.3636
4633.5 148.818
4634.5 146.182
4635.5 78
4636.5 40.5454
4637.5 100.636
4638.5 153.273
4639.5 94.4545
4640.5 82
4641.5 124.636
4642.5 110.182
4643.5 122.818
4644.5 87
4645.5 159.182
4646.5 105.818
4647.5 168.818
4648.5 222.727
4649.5 213.273
4650.5 234.364
4651.5 244
4652.5 174.455
4653.5 222.909
4654.5 198.455
4655.5 171.636
4656.5 204.182
4657.5 193.545
4658.5 134
4659.5 175.273
4660.5 134.455
4661.5 134.273
4662.5 103.273
4663.5 78.8182
4664.5 159
4665.5 85
4666.5 95.2727
4667.5 115.455
4668.5 100.364
4669.5 103.364
4670.5 120.455
4671.5 94
4672.5 61.0909
4673.5 80.1818
4674.5 45.6363
4675.5 67.9091
4676.5 86.3636
4677.5 119.727
4678.5 106.818
4679.5 176.818
4680.5 199.182
4681.5 137.818
4682.5 194
4683.5 183.818
4684.5 216.273
4685.5 261.455
4686.5 240.091
4687.5 224.909
4688.5 211.455
4689.5 203.636
4690.5 140
4691.5 147.545
4692.5 97.9091
4693.5 136.182
4694.5 106.727
4695.5 92.9091
4696.5 83.4545
4697.5 180.455
4698.5 120.636
4699.5 123.273
4700.5 104.091
4701.5 166.545
4702.5 98.4545
4703.5 110.455
4704.5 113.545
4705.5 109
4706.5 105.818
4707.5 101.182
4708.5 149.273
4709.5 153
4710.5 117.727
4711.5 171.273
4712.5 205
4713.5 139.455
4714.5 158.909
4715.5 166.091
4716.5 140.545
4717.5 151.273
4718.5 145.909
4719.5 156.455
4720.5 163.182
4721.5 149.909
4722.5 147
4723.5 85
4724.5 120.273
4725.5 138.818
4726.5 76.5454
4727.5 77.5454
4728.5 169
4729.5 115
4730.5 169
4731.5 132.364
4732.5 100.364
4733.5 89.7273
4734.5 121.091
4735.5 73.8182
4736.5 101.545
4737.5 122
4738.5 78.1818
4739.5 79
4740.5 117.091
4741.5 129.636
4742.5 138.818
4743.5 164.364
4744.5 151.364
4745.5 141
4746.5 172.455
4747.5 175.909
4748.5 164.455
4749.5 142
4750.5 172.909
4751.5 177.545
4752.5 74.4545
4753.5 114.455
4754.5 100.545
4755.5 149.455
4756.5 161.364
4757.5 134.909
4758.5 158.727
4759.5 119.818
4760.5 114.909
4761.5 210.636
4762.5 125.182
4763.5 142.364
4764.5 159.636
4765.5 184.364
4766.5 156.455
4767.5 160.636
4768.5 132.909
4769.5 117.727
4770.5 156.636
4771.5 107.182
4772.5 95.2727
4773.5 52.8182
4774.5 87.2727
4775.5 14.7273
4776.5 143.091
4777.5 68.5454
4778.5 108.273
4779.5 161.273
4780.5 132.091
4781.5 175.545
4782.5 169.545
4783.5 169.636
4784.5 208.818
4785.5 202.091
4786.5 223.545
4787.5 171.909
4788.5 194
4789.5 156.818
4790.5 162.455
4791.5 136.273
4792.5 74.0909
4793.5 127
4794.5 132.182
4795.5 108
4796.5 135.364
4797.5 112.636
4798.5 104.636
4799.5 180.182
4800.5 165.273
4801.5 158.273
4802.5 177
4803.5 172.364
4804.5 139.364
4805.5 233.818
4806.5 187.364
4807.5 187.273
4808.5 217.455
4809.5 199.091
4810.5 164.636
4811.5 158.455
4812.5 194.818
4813.5 180.091
4814.5 119.727
4815.5 116
4816.5 149.182
4817.5 136.909
4818.5 176.636
4819.5 131
4820.5 135.273
4821.5 43.7273
4822.5 92.3636
4823.5 76.8182
4824.5 57.0909
4825.5 21.9091
4826.5 58.0909
4827.5 45.6363
4828.5 84.5454
4829.5 99.7273
4830.5 55.0909
4831.5 83.5454
4832.5 87.2727
4833.5 137.818
4834.5 114.818
4835.5 94.9091
4836.5 143.636
4837.5 174.818
4838.5 169.545
4839.5 144.545
4840.5 245
4841.5 237.545
4842.5 263.909
4843.5 307.455
4844.5 291.182
4845.5 245.545
4846.5 245.364
4847.5 164.545
4848.5 120.636
4849.5 137
4850.5 111.636
4851.5 193.545
4852.5 179.182
4853.5 155.182
4854.5 163.455
4855.5 118.364
4856.5 67.7273
4857.5 -27.5455
4858.5 57.6363
4859.5 1.45453
4860.5 10.3636
4861.5 54.7273
4862.5 68.2727
4863.5 55.5454
4864.5 34.5454
4865.5 -48.2727
4866.5 12
4867.5 24.2727
4868.5 43.7273
4869.5 63.9091
4870.5 94.8182
4871.5 206.545
4872.5 168.364
4873.5 266.273
4874.5 382.091
4875.5 432.909
4876.5 521.455
4877.5 583.636
4878.5 613.182
4879.5 393.091
4880.5 310.636
4881.5 214.636
4882.5 245.455
4883.5 233.636
4884.5 233.091
4885.5 377.818
4886.5 271.364
4887.5 213.818
4888.5 234.636
4889.5 163.455
4890.5 93.0909
4891.5 116.091
4892.5 24.6363
4893.5 82.5454
4894.5 86.1818
4895.5 47.3636
4896.5 -35.5455
4897.5 -23.8182
4898.5 -1.00002
4899.5 -85.7273
4900.5 -58.2727
4901.5 50.2727
4902.5 78.0909
4903.5 31.4545
4904.5 84.4545
4905.5 115.364
4906.5 137
4907.5 139.182
4908.5 203.818
4909.5 289.182
4910.5 323.727
4911.5 333.273
4912.5 416.364
4913.5 393.273
4914.5 345.091
4915.5 402.818
4916.5 455.909
4917.5 497.818
4918.5 504.545
4919.5 579.727
4920.5 467.545
4921.5 427.636
4922.5 328.182
4923.5 253
4924.5 210.636
4925.5 161.364
4926.5 141.727
4927.5 129.545
4928.5 138.273
4929.5 140.545
4930.5 115.273
4931.5 116.545
4932.5 143.455
4933.5 93.6364
4934.5 141.636
4935.5 104.818
4936.5 93.6364
4937.5 97.3636
4938.5 152.909
4939.5 126.909
4940.5 113.273
4941.5 128.364
4942.5 125
4943.5 181.455
4944.5 182.727
4945.5 232.091
4946.5 163.818
4947.5 117
4948.5 162.636
4949.5 199.818
4950.5 143.818
4951.5 139.455
4952.5 140.727
4953.5 176.636
4954.5 93.0909
4955.5 120.364
4956.5 94.9091
4957.5 129.273
4958.5 160.273
4959.5 148.455
4960.5 193.818
4961.5 63.9091
4962.5 104.818
4963.5 108.273
4964.5 98.3636
4965.5 104.273
4966.5 132.909
4967.5 124.545
4968.5 84.5454
4969.5 147.273
4970.5 134.182
4971.5 84.2727
4972.5 106.182
4973.5 65.3636
4974.5 171.818
4975.5 157.545
4976.5 172
4977.5 217.818
4978.5 217.273
4979.5 175.182
4980.5 170.273
4981.5 124.091
4982.5 152.273
4983.5 135.364
4984.5 118.182
4985.5 87.2727
4986.5 91
4987.5 111.909
4988.5 72.5454
4989.5 113.818
4990.5 91.0909
4991.5 96.7273
4992.5 163.091
4993.5 144.273
4994.5 151.545
4995.5 90.8182
4996.5 117.091
4997.5 112.364
4998.5 118.364
4999.5 112.909
5000.5 119.727
5001.5 154.636
5002.5 211.727
5003.5 162
5004.5 185.545
5005.5 233.091
5006.5 179.545
5007.5 230.909
5008.5 222.727
5009.5 184
5010.5 200.636
5011.5 208
5012.5 188.636
5013.5 162.364
5014.5 130.818
5015.5 109.182
5016.5 113.182
5017.5 122.818
5018.5 81
5019.5 76.2727
5020.5 71.5454
5021.5 61.8182
5022.5 94.3636
5023.5 102.091
5024.5 93.6363
5025.5 60.9091
5026.5 123.455
5027.5 143.727
5028.5 142.636
5029.5 98.7273
5030.5 187.636
5031.5 174.636
5032.5 251.909
5033.5 219.545
5034.5 220.818
5035.5 248.909
5036.5 273.818
5037.5 259.818
5038.5 230.455
5039.5 216.909
5040.5 285.455
5041.5 151.909
5042.5 131.273
5043.5 175.182
5044.5 228.727
5045.5 201.545
5046.5 212.455
5047.5 190.909
5048.5 124.636
5049.5 103.636
5050.5 118.818
5051.5 83.9091
5052.5 124.273
5053.5 76.6364
5054.5 100.818
5055.5 161.091
5056.5 110.636
5057.5 163.273
5058.5 147.636
5059.5 156.727
5060.5 156.545
5061.5 191.455
5062.5 172.909
5063.5 177.182
5064.5 204.455
5065.5 135.545
5066.5 203
5067.5 172.818
5068.5 171.273
5069.5 130.818
5070.5 144
5071.5 131.909
5072.5 105.545
5073.5 73
5074.5 154.545
5075.5 88.8182
5076.5 148.364
5077.5 169.636
5078.5 165.909
5079.5 107.455
5080.5 161.273
5081.5 96.9091
5082.5 132.727
5083.5 141
5084.5 133.545
5085.5 111.636
5086.5 68.0909
5087.5 180.455
5088.5 157.727
5089.5 106.818
5090.5 127.273
5091.5 75.0909
5092.5 102.091
5093.5 128.091
5094.5 103
5095.5 88.3636
5096.5 101.818
5097.5 98.8182
5098.5 162.455
5099.5 124.909
5100.5 218
5101.5 202.182
5102.5 249
5103.5 247.909
5104.5 214.636
5105.5 188.636
5106.5 155.545
5107.5 170.909
5108.5 160.455
5109.5 171.091
5110.5 120.545
5111.5 173.545
5112.5 123.818
5113.5 64.2727
5114.5 123.182
5115.5 104.182
5116.5 146.273
5117.5 162.182
5118.5 185.091
5119.5 110.909
5120.5 87.7273
5121.5 79.6364
5122.5 179.273
5123.5 163.818
5124.5 133.273
5125.5 111.273
5126.5 145.182
5127.5 128.909
5128.5 234.091
5129.5 111.182
5130.5 168.091
5131.5 200.455
5132.5 249
5133.5 294.364
5134.5 294.364
5135.5 275.091
5136.5 201.909
5137.5 227.636
5138.5 213.364
5139.5 195.545
5140.5 159.818
5141.5 147.364
5142.5 144.727
5143.5 113.091
5144.5 160.727
5145.5 127
5146.5 108.545
5147.5 134.545
5148.5 117.636
5149.5 184.364
5150.5 127.273
5151.5 86.3636
5152.5 115.273
5153.5 152.455
5154.5 121.182
5155.5 132.545
5156.5 200.364
5157.5 150.091
5158.5 147.818
5159.5 165.727
5160.5 183
5161.5 158.364
5162.5 128.364
5163.5 135.818
5164.5 148.364
5165.5 145
5166.5 129.545
5167.5 111
5168.5 102.909
5169.5 113.182
5170.5 98.8182
5171.5 93.9091
5172.5 99.6364
5173.5 142.273
5174.5 125.818
5175.5 104.545
5176.5 118
5177.5 142.455
5178.5 81.4545
5179.5 80.6364
5180.5 84.5454
5181.5 133.818
5182.5 83.2727
5183.5 81
5184.5 126
5185.5 98.1818
5186.5 101.364
5187.5 140.545
5188.5 120.727
5189.5 126.455
5190.5 112.455
5191.5 154.909
5192.5 203.727
5193.5 172.636
5194.5 211.727
5195.5 238.909
5196.5 172.182
5197.5 139.909
5198.5 106.273
5199.5 128.909
5200.5 157.182
5201.5 128
5202.5 106.818
5203.5 82.7273
5204.5 113.182
5205.5 107.364
5206.5 100.636
5207.5 127.818
5208.5 143.909
5209.5 148.273
5210.5 111.636
5211.5 152.818
5212.5 149.545
5213.5 147.636
5214.5 130.545
5215.5 137.636
5216.5 82.9091
5217.5 96.8182
5218.5 127.364
5219.5 93.4545
5220.5 136.636
5221.5 155.182
5222.5 152.182
5223.5 146.455
5224.5 97.6363
5225.5 88.2727
5226.5 122.818
5227.5 76
5228.5 121.364
5229.5 134.909
5230.5 92.8182
5231.5 128.636
5232.5 92.4545
5233.5 133.818
5234.5 149.636
5235.5 127.091
5236.5 160.455
5237.5 179.091
5238.5 189.545
5239.5 161.636
5240.5 145.727
5241.5 149.273
5242.5 122.273
5243.5 189.818
5244.5 157.364
5245.5 124.909
5246.5 113.545
5247.5 129.909
5248.5 118.909
5249.5 104.636
5250.5 158.909
5251.5 95.5454
5252.5 201.909
5253.5 136.091
5254.5 115.818
5255.5 163.273
5256.5 174.636
5257.5 132.364
5258.5 147.636
5259.5 113
5260.5 119
5261.5 135.273
5262.5 143.636
5263.5 173.818
5264.5 234.273
5265.5 112.182
5266.5 157.727
5267.5 110.182
5268.5 111.455
5269.5 56.4545
5270.5 126.909
5271.5 124.818
5272.5 156
5273.5 140.091
5274.5 127
5275.5 188.545
5276.5 250.909
5277.5 240.727
5278.5 297.818
5279.5 313.182
5280.5 241.273
5281.5 235.727
5282.5 191.091
5283.5 146.636
5284.5 111.364
5285.5 141
5286.5 78.7273
5287.5 134.818
5288.5 150.727
5289.5 163.727
5290.5 136.727
5291.5 85.6364
5292.5 128.818
5293.5 117.364
5294.5 95.1818
5295.5 90.0909
5296.5 100.727
5297.5 72.8182
5298.5 95.2727
5299.5 75
5300.5 105.909
5301.5 104.545
5302.5 86.2727
5303.5 139.273
5304.5 79.5454
5305.5 82.8182
5306.5 149.455
5307.5 152.909
5308.5 93.3636
5309.5 89.7273
5310.5 156.364
5311.5 118.636
5312.5 113.364
5313.5 100.091
5314.5 119.818
5315.5 119.545
5316.5 130.727
5317.5 145.818
5318.5 149.091
5319.5 189.091
5320.5 189.182
5321.5 183.909
5322.5 95.7273
5323.5 144.818
5324.5 122.182
5325.5 142.091
5326.5 119.545
5327.5 140.545
5328.5 141.273
5329.5 149.818
5330.5 148.818
5331.5 134.636
5332.5 158.091
5333.5 150.364
5334.5 98.3636
5335.5 151.545
5336.5 160.091
5337.5 95.7273
5338.5 67.2727
5339.5 93.1818
5340.5 114.727
5341.5 92.1818
5342.5 106.091
5343.5 59.0909
5344.5 124.909
5345.5 98.2727
5346.5 107.182
5347.5 145.182
5348.5 173.273
5349.5 205.182
5350.5 249
5351.5 287.909
5352.5 226.091
5353.5 417.545
5354.5 436.182
5355.5 361.273
5356.5 359
5357.5 312.636
5358.5 210.727
5359.5 211.909
5360.5 164.091
5361.5 143.455
5362.5 234.091
5363.5 186.455
5364.5 173.727
5365.5 162
5366.5 111.364
5367.5 69.4545
5368.5 57.1818
5369.5 34.3636
5370.5 -64.6364
5371.5 7.72726
5372.5 24.4545
5373.5 -13.6364
5374.5 17.1818
5375.5 57.4545
5376.5 54.4545
5377.5 105.455
5378.5 102.182
5379.5 59.9091
5380.5 150.636
5381.5 99
5382.5 90.3636
5383.5 118.909
5384.5 137.091
5385.5 210.273
5386.5 263.455
5387.5 263.727
5388.5 336.727
5389.5 299.364
5390.5 261.909
5391.5 287.909
5392.5 292.091
5393.5 205.727
5394.5 281.909
5395.5 255.364
5396.5 250.636
5397.5 322
5398.5 232
5399.5 254
5400.5 177.364
5401.5 3.81816
5402.5 -58.4546
5403.5 20.6363
5404.5 -55.5455
5405.5 -12.9091
5406.5 -18.4546
5407.5 -35.0909
5408.5 -23.7273
5409.5 -57.0909
5410.5 -31.9091
5411.5 -2.36365
5412.5 -19.9091
5413.5 -18.9091
5414.5 26.9091
5415.5 108.182
5416.5 159.273
5417.5 251.455
5418.5 352.909
5419.5 468
5420.5 464.727
5421.5 563.636
5422.5 619.818
5423.5 632.273
5424.5 501.818
5425.5 489.818
5426.5 368.455
5427.5 257.636
5428.5 242.545
5429.5 243.182
5430.5 144.727
5431.5 206.455
5432.5 150.727
5433.5 105.182
5434.5 117.182
5435.5 147.273
5436.5 109.364
5437.5 118.091
5438.5 110.636
5439.5 92.7273
5440.5 97.2727
5441.5 112.818
5442.5 134.364
5443.5 84.5454
5444.5 111.273
5445.5 126.364
5446.5 104.909
5447.5 74.3636
5448.5 109.091
5449.5 91.0909
5450.5 99.7273
5451.5 140.636
5452.5 114.909
5453.5 123.545
5454.5 82.8182
5455.5 121
5456.5 126.818
5457.5 183.545
5458.5 173
5459.5 171.273
5460.5 123.636
5461.5 135.818
5462.5 93
5463.5 70.5454
5464.5 100.909
5465.5 122.818
5466.5 57.9091
5467.5 106.818
5468.5 46.2727
5469.5 62.2727
5470.5 46.3636
5471.5 33.0909
5472.5 54.8182
5473.5 57.0909
5474.5 46.3636
5475.5 41.6364
5476.5 71.2727
5477.5 79.3636
5478.5 79.4545
5479.5 35.6364
5480.5 82.2727
5481.5 69.0909
5482.5 133.273
5483.5 113
5484.5 93.5454
5485.5 142.545
5486.5 166.273
5487.5 201.545
5488.5 270.909
5489.5 249.455
5490.5 265.273
5491.5 270
5492.5 224.091
5493.5 184.364
5494.5 111.182
5495.5 84.2727
5496.5 133.636
5497.5 85.7273
5498.5 82.8182
5499.5 68.2727
5500.5 65.7273
5501.5 75.4545
5502.5 78.7273
5503.5 16.3636
5504.5 90.9091
5505.5 80.7273
5506.5 58.4545
5507.5 -5.54547
5508.5 79.7273
5509.5 68
5510.5 76
5511.5 35.0909
5512.5 85.2727
5513.5 126.727
5514.5 202.091
5515.5 211.273
5516.5 232.818
5517.5 151.364
5518.5 215.364
5519.5 242.909
5520.5 340
5521.5 354.091
5522.5 390.909
5523.5 420.091
5524.5 379.818
5525.5 333.727
5526.5 257.091
5527.5 204.182
5528.5 197.818
5529.5 113.636
5530.5 90.2727
5531.5 68.7273
5532.5 80
5533.5 55.1818
5534.5 63.4545
5535.5 126.545
5536.5 152.909
5537.5 161.727
5538.5 200.818
5539.5 149.091
5540.5 145.364
5541.5 115
5542.5 105.182
5543.5 93
5544.5 41.6363
5545.5 91.1818
5546.5 113.455
5547.5 61.8182
5548.5 53.0909
5549.5 99.2727
5550.5 146
5551.5 176.273
5552.5 216.273
5553.5 282.727
5554.5 271
5555.5 394.364
5556.5 411.091
5557.5 434.727
5558.5 460.818
5559.5 351
5560.5 269
5561.5 213.909
5562.5 138.727
5563.5 190.818
5564.5 111.273
5565.5 141.091
5566.5 85.3636
5567.5 96.6364
5568.5 52.3636
5569.5 93.8182
5570.5 80.0909
5571.5 64.9091
5572.5 116.727
5573.5 112.364
5574.5 72.8182
5575.5 85.5454
5576.5 134.455
5577.5 150
5578.5 118.727
5579.5 103.364
5580.5 154.636
5581.5 196.455
5582.5 144.636
5583.5 161.545
5584.5 47.7273
5585.5 95.3636
5586.5 74.2727
5587.5 62.1818
5588.5 90.2727
5589.5 65.2727
5590.5 139.182
5591.5 102.364
5592.5 116.455
5593.5 77.6364
5594.5 78.1818
5595.5 82.1818
5596.5 49.4545
5597.5 73.2727
5598.5 9.45453
5599.5 71.4545
5600.5 128.182
5601.5 143.273
5602.5 92
5603.5 122
5604.5 36.8182
5605.5 112.818
5606.5 106.636
5607.5 97.4545
5608.5 170.545
5609.5 119.636
5610.5 179.636
5611.5 202.273
5612.5 220
5613.5 205.545
5614.5 118.455
5615.5 117.545
5616.5 150.091
5617.5 85.6364
5618.5 95.2727
5619.5 81.3636
5620.5 39.5454
5621.5 74.1818
5622.5 99.0909
5623.5 51.5454
5624.5 92.9091
5625.5 120
5626.5 98.3636
5627.5 124.909
5628.5 114.818
5629.5 75.4545
5630.5 108.818
5631.5 102.273
5632.5 118.909
5633.5 132.091
5634.5 139.727
5635.5 99.2727
5636.5 125
5637.5 116
5638.5 148.818
5639.5 170.091
5640.5 172.273
5641.5 219.636
5642.5 207.636
5643.5 249.545
5644.5 297.455
5645.5 324.818
5646.5 310.273
5647.5 320.727
5648.5 336.909
5649.5 241.455
5650.5 256.818
5651.5 182.545
5652.5 109.455
5653.5 89.6364
5654.5 66.2727
5655.5 73.8182
5656.5 128.909
5657.5 131.364
5658.5 48.6364
5659.5 114.091
5660.5 66.9091
5661.5 90.0909
5662.5 108.273
5663.5 114.091
5664.5 120.364
5665.5 74.5454
5666.5 100.091
5667.5 99.0909
5668.5 82.1818
5669.5 132.636
5670.5 83.2727
5671.5 176.636
5672.5 193.727
5673.5 93.3636
5674.5 101
5675.5 138
5676.5 100.455
5677.5 149.273
5678.5 60.4545
5679.5 92.2727
5680.5 56.3636
5681.5 17.8182
5682.5 103.636
5683.5 103.909
5684.5 76.0909
5685.5 93.2727
5686.5 99.3636
5687.5 143.455
5688.5 77.8182
5689.5 124.182
5690.5 66.3636
5691.5 122.182
5692.5 101.727
5693.5 74.2727
5694.5 66.4545
5695.5 52.5454
5696.5 90.4545
5697.5 57.2727
5698.5 96.7273
5699.5 31.4545
5700.5 48.5454
5701.5 26.8182
5702.5 90.4545
5703.5 72.7273
5704.5 82.8182
5705.5 40.1818
5706.5 112.727
5707.5 79
5708.5 108.182
5709.5 107.727
5710.5 95.2727
5711.5 128.909
5712.5 119
5713.5 93.7273
5714.5 92.6364
5715.5 106.545
5716.5 158.182
5717.5 102.727
5718.5 140.364
5719.5 122.273
5720.5 129.364
5721.5 102.636
5722.5 74.1818
5723.5 151.727
5724.5 63.3636
5725.5 95.9091
5726.5 131.818
5727.5 90.0909
5728.5 119
5729.5 84.6364
5730.5 98.0909
5731.5 83.1818
5732.5 94.7273
5733.5 111.273
5734.5 67.6363
5735.5 62.5454
5736.5 118.636
5737.5 120.636
5738.5 102
5739.5 120.364
5740.5 91.9091
5741.5 145.636
5742.5 119.455
5743.5 158.091
5744.5 190.091
5745.5 322.455
5746.5 365.273
5747.5 479.636
5748.5 594.091
5749.5 556
5750.5 420.909
5751.5 268.091
5752.5 192.273
5753.5 155.182
5754.5 185.636
5755.5 115.273
5756.5 155.455
5757.5 103.364
5758.5 118.545
5759.5 76.4545
5760.5 110.091
5761.5 125.091
5762.5 71.3636
5763.5 75.9091
5764.5 60.9091
5765.5 61.5454
5766.5 70.4545
5767.5 99.4545
5768.5 81.5454
5769.5 70.2727
5770.5 103.091
5771.5 103.091
5772.5 105.818
5773.5 103.455
5774.5 117.727
5775.5 88.8182
5776.5 129.545
5777.5 124.455
5778.5 140.909
5779.5 112.364
5780.5 167.091
5781.5 106.364
5782.5 93.4545
5783.5 162.818
5784.5 127.545
5785.5 153
5786.5 138.636
5787.5 129.636
5788.5 118.455
5789.5 129.818
5790.5 134.273
5791.5 102.091
5792.5 104.818
5793.5 133.273
5794.5 119
5795.5 60.4545
5796.5 65.6364
5797.5 100.455
5798.5 64.3636
5799.5 88.5454
5800.5 96.4545
5801.5 129.545
5802.5 124.182
5803.5 114.818
5804.5 102.818
5805.5 101.273
5806.5 89.8182
5807.5 101.091
5808.5 90
5809.5 95.4545
5810.5 142.636
5811.5 139.545
5812.5 117.545
5813.5 91.6364
5814.5 110.909
5815.5 95.9091
5816.5 88.1818
5817.5 157.091
5818.5 89.3636
5819.5 122.273
5820.5 119.455
5821.5 102.182
5822.5 76.3636
5823.5 128.545
5824.5 127.818
5825.5 32.9091
5826.5 112.727
5827.5 114.273
5828.5 162.182
5829.5 129.545
5830.5 143.364
5831.5 150.091
5832.5 137.364
5833.5 127
5834.5 158.545
5835.5 142.273
5836.5 90.9091
5837.5 141.364
5838.5 141.091
5839.5 144
5840.5 92.8182
5841.5 170.455
5842.5 162.636
5843.5 206.364
5844.5 154.182
5845.5 143.818
5846.5 139.727
5847.5 139.273
5848.5 132.636
5849.5 94.8182
5850.5 131.727
5851.5 94.8182
5852.5 169.091
5853.5 102.909
5854.5 117.364
5855.5 90
5856.5 107.818
5857.5 99.4545
5858.5 103.818
5859.5 63.4545
5860.5 85.7273
5861.5 72.1818
5862.5 76.5454
5863.5 101.636
5864.5 85
5865.5 59.6364
5866.5 109.818
5867.5 100.545
5868.5 108.364
5869.5 101.182
5870.5 107
5871.5 85.7273
5872.5 120.909
5873.5 76
5874.5 100.545
5875.5 120.636
5876.5 121.818
5877.5 121.091
5878.5 130.364
5879.5 97.8182
5880.5 123.636
5881.5 95.7273
5882.5 87.3636
5883.5 131.636
5884.5 70.3636
5885.5 62.9091
5886.5 94.1818
5887.5 99
5888.5 69.3636
5889.5 75.9091
5890.5 75.4545
5891.5 72.4545
5892.5 59.2727
5893.5 34.2727
5894.5 94.9091
5895.5 202
5896.5 194.727
5897.5 250.545
5898.5 399.909
5899.5 326.545
5900.5 435.818
5901.5 372.273
5902.5 309.091
5903.5 254.636
5904.5 203.455
5905.5 130
5906.5 147.727
5907.5 123.455
5908.5 142.818
5909.5 196.364
5910.5 129.364
5911.5 146.727
5912.5 165.455
5913.5 139.545
5914.5 132.818
5915.5 83.5454
5916.5 94.1818
5917.5 100.909
5918.5 112.636
5919.5 100.909
5920.5 96
5921.5 91.1818
5922.5 85.8182
5923.5 75.4545
5924.5 56.7273
5925.5 44.5454
5926.5 75.6364
5927.5 77.2727
5928.5 77.5454
5929.5 59.9091
5930.5 83.8182
5931.5 117.727
5932.5 113.636
5933.5 82.5454
5934.5 117.273
5935.5 151
5936.5 118.545
5937.5 145.273
5938.5 150.909
5939.5 214.636
5940.5 219.727
5941.5 188.273
5942.5 220
5943.5 207.909
5944.5 210.545
5945.5 173.273
5946.5 140.182
5947.5 78.9091
5948.5 104.727
5949.5 66.4545
5950.5 70.8182
5951.5 94.3636
5952.5 62.1818
5953.5 65.5454
5954.5 68.8182
5955.5 83.2727
5956.5 87.0909
5957.5 78.6364
5958.5 124.273
5959.5 117.818
5960.5 135
5961.5 113.455
5962.5 126.182
5963.5 126.273
5964.5 134.818
5965.5 173.091
5966.5 177.727
5967.5 190.636
5968.5 188.727
5969.5 213.091
5970.5 188
5971.5 107.273
5972.5 143.727
5973.5 136.455
5974.5 103.273
5975.5 87.9091
5976.5 122.818
5977.5 85.1818
5978.5 53.8182
5979.5 85.0909
5980.5 69.8182
5981.5 95.8182
5982.5 57.8182
5983.5 14.2727
5984.5 55
5985.5 98.5454
5986.5 71.8182
5987.5 25.6364
5988.5 64.3636
5989.5 55.8182
5990.5 58.6364
5991.5 57
5992.5 81.1818
5993.5 99.8182
5994.5 84.1818
5995.5 132.364
5996.5 154.273
5997.5 268.818
5998.5 313.909
5999.5 346.636
6000.5 310.636
6001.5 386.182
6002.5 318
6003.5 287.636
6004.5 212.909
6005.5 207.818
6006.5 184.091
6007.5 125.182
6008.5 90.7273
6009.5 87.2727
6010.5 98.8182
6011.5 66.7273
6012.5 112
6013.5 90.2727
6014.5 65
6015.5 130.364
6016.5 102.091
6017.5 140.182
6018.5 100.909
6019.5 92.9091
6020.5 78.7273
6021.5 80.3636
6022.5 101
6023.5 82.4545
6024.5 85.7273
6025.5 101.727
6026.5 112.909
6027.5 92.6364
6028.5 104.727
6029.5 113.818
6030.5 142.818
6031.5 222.636
6032.5 174.636
6033.5 241.091
6034.5 241
6035.5 218.545
6036.5 197.818
6037.5 218
6038.5 91.3636
6039.5 112
6040.5 114.455
6041.5 80.4545
6042.5 96.3636
6043.5 88.3636
6044.5 69.2727
6045.5 77.6364
6046.5 34.8182
6047.5 51.2727
6048.5 75.8182
6049.5 65.8182
6050.5 31.0909
6051.5 78.5454
6052.5 75.7273
6053.5 48.0909
6054.5 66.6364
6055.5 51.1818
6056.5 83.4545
6057.5 62.4545
6058.5 45.8182
6059.5 72
6060.5 98.4545
6061.5 66.6364
6062.5 140.182
6063.5 123.545
6064.5 155.545
6065.5 207.727
6066.5 219.909
6067.5 248.545
6068.5 244.818
6069.5 224.909
6070.5 185.727
6071.5 175.909
6072.5 156.455
6073.5 127.545
6074.5 104.818
6075.5 106.091
6076.5 94.6364
6077.5 94.1818
6078.5 78.4545
6079.5 133.636
6080.5 96.2727
6081.5 78.7273
6082.5 104.182
6083.5 109.364
6084.5 124.818
6085.5 125.182
6086.5 111.273
6087.5 149.273
6088.5 110.636
6089.5 169.455
6090.5 152.182
6091.5 132.273
6092.5 119.455
6093.5 98.3636
6094.5 93.7273
6095.5 89.3636
6096.5 80.9091
6097.5 117
6098.5 86.2727
6099.5 112.909
6100.5 104.091
6101.5 164.182
6102.5 118.273
6103.5 172.545
6104.5 165.273
6105.5 160.636
6106.5 193.364
6107.5 137.909
6108.5 165.273
6109.5 143.818
6110.5 157.909
6111.5 189.727
6112.5 170.909
6113.5 130.182
6114.5 82.3636
6115.5 83.0909
6116.5 89.7273
6117.5 156.818
6118.5 85.1818
6119.5 152.727
6120.5 162.818
6121.5 195.091
6122.5 217.909
6123.5 223.455
6124.5 262.364
6125.5 236.091
6126.5 227.182
6127.5 160.727
6128.5 132.636
6129.5 106.727
6130.5 86.5454
6131.5 82.7273
6132.5 89.0909
6133.5 69.3636
6134.5 87.2727
6135.5 86
6136.5 93.0909
6137.5 88.0909
6138.5 103.273
6139.5 97
6140.5 139.455
6141.5 98.1818
6142.5 132.636
6143.5 128.636
6144.5 74.8182
6145.5 114.818
6146.5 123.364
6147.5 106.909
6148.5 116.636
6149.5 69.0909
6150.5 87.9091
6151.5 102.091
6152.5 92.7273
6153.5 105.455
6154.5 65.1818
6155.5 91.5455
6156.5 81
6157.5 39.9091
6158.5 50.4545
6159.5 58.7273
6160.5 98.0909
6161.5 75.7273
6162.5 75.1818
6163.5 59.9091
6164.5 81.8182
6165.5 74.0909
6166.5 62.7273
6167.5 95.7273
6168.5 95.7273
6169.5 59.0909
6170.5 84.0909
6171.5 89.2727
6172.5 99.7273
6173.5 78.9091
6174.5 103.364
6175.5 105.636
6176.5 92.1818
6177.5 54.3636
6178.5 73.5455
6179.5 67.1818
6180.5 85.4545
6181.5 106.818
6182.5 93.8182
6183.5 113.273
6184.5 90.2727
6185.5 94.3636
6186.5 113.909
6187.5 82.6364
6188.5 82.8182
6189.5 65.6364
6190.5 76.4545
6191.5 53.4545
6192.5 82.8182
6193.5 90.1818
6194.5 105.727
6195.5 65.4545
6196.5 37.2727
6197.5 71.7273
6198.5 59.2727
6199.5 61
6200.5 59.2727
6201.5 67.0909
6202.5 78.1818
6203.5 71
6204.5 56.5454
6205.5 67.0909
6206.5 86
6207.5 79.9091
6208.5 51.0909
6209.5 71.5455
6210.5 83.2727
6211.5 75.4545
6212.5 113.364
6213.5 102.364
6214.5 107.727
6215.5 106.273
6216.5 102.636
6217.5 134
6218.5 84
6219.5 119.364
6220.5 103.273
6221.5 112.455
6222.5 128
6223.5 85.9091
6224.5 111.909
6225.5 101.364
6226.5 111.545
6227.5 76.7273
6228.5 10.8182
6229.5 43.8182
6230.5 68.2727
6231.5 85.6364
6232.5 86.7273
6233.5 46.7273
6234.5 78.9091
6235.5 70.1818
6236.5 77.7273
6237.5 66.4545
6238.5 80.5455
6239.5 59.4545
6240.5 79
6241.5 76.9091
6242.5 93.9091
6243.5 57.0909
6244.5 100.545
6245.5 79
6246.5 82.9091
6247.5 112.909
6248.5 99.7273
6249.5 82.4545
6250.5 157.091
6251.5 175.818
6252.5 233.636
6253.5 317.909
6254.5 455.091
6255.5 637.273
6256.5 799.455
6257.5 1070.36
6258.5 1321.09
6259.5 1324
6260.5 1149.55
6261.5 954.545
6262.5 639.636
6263.5 347.636
6264.5 235.636
6265.5 123.091
6266.5 126.636
6267.5 77
6268.5 120.636
6269.5 107.818
6270.5 68.2727
6271.5 113.636
6272.5 121
6273.5 82.9091
6274.5 113.636
6275.5 61.4545
6276.5 119.727
6277.5 69.4545
6278.5 37.4545
6279.5 66.8182
6280.5 84.7273
6281.5 79.1818
6282.5 85.2727
6283.5 71
6284.5 86.3636
6285.5 83.2727
6286.5 99.5455
6287.5 173.091
6288.5 106.727
6289.5 123.182
6290.5 107
6291.5 148.273
6292.5 150.545
6293.5 160.818
6294.5 137.273
6295.5 133.636
6296.5 109.091
6297.5 110
6298.5 131.727
6299.5 87.9091
6300.5 90.8182
6301.5 89.5455
6302.5 80.9091
6303.5 82.7273
6304.5 97.3636
6305.5 115.091
6306.5 57.9091
6307.5 64.3636
6308.5 57.8182
6309.5 103.636
6310.5 62.2727
6311.5 112.364
6312.5 81.6364
6313.5 108.636
6314.5 89.9091
6315.5 92.9091
6316.5 104.909
6317.5 52.9091
6318.5 91.8182
6319.5 97.5455
6320.5 101.818
6321.5 67.6364
6322.5 99.4545
6323.5 134.909
6324.5 103.909
6325.5 111.273
6326.5 112.455
6327.5 104.545
6328.5 122.818
6329.5 89.9091
6330.5 137.727
6331.5 131.909
6332.5 114.091
6333.5 112.727
6334.5 128.273
6335.5 72
6336.5 94.5455
6337.5 82.0909
6338.5 79
6339.5 106.636
6340.5 88.0909
6341.5 86.6364
6342.5 89.2727
6343.5 53.2727
6344.5 122.273
6345.5 73.9091
6346.5 63.2727
6347.5 97.5455
6348.5 95.5455
6349.5 93.5455
6350.5 72.4545
6351.5 89
6352.5 67.6364
6353.5 107.636
6354.5 88
6355.5 77.2727
6356.5 102.818
6357.5 85.3636
6358.5 75.5455
6359.5 102.455
6360.5 81.5455
6361.5 78.0909
6362.5 103.273
6363.5 82.0909
6364.5 100.455
6365.5 94.0909
6366.5 95.4545
6367.5 93
6368.5 111.545
6369.5 67.6364
6370.5 92.2727
6371.5 71.7273
6372.5 73.4545
6373.5 95.1818
6374.5 68
6375.5 93
6376.5 64.6364
6377.5 82.5455
6378.5 71
6379.5 101.636
6380.5 102.636
6381.5 64.7273
6382.5 89.5455
6383.5 81.6364
6384.5 116.455
6385.5 81.7273
6386.5 61.4545
6387.5 68.2727
6388.5 86.3636
6389.5 85
6390.5 102.636
6391.5 130.364
6392.5 111.545
6393.5 96.6364
6394.5 101.455
6395.5 75.2727
6396.5 101.091
6397.5 100.273
6398.5 86.7273
6399.5 83.5455
6400.5 59.5455
6401.5 63.2727
6402.5 37.4545
6403.5 37.7273
6404.5 24.2727
6405.5 34.0909
6406.5 5.63636
6407.5 44.5454
6408.5 34.1818
6409.5 46.6364
6410.5 42.1818
6411.5 54
6412.5 69.2727
6413.5 61
6414.5 58
6415.5 84.5455
6416.5 109.364
6417.5 126.636
6418.5 73.1818
6419.5 170.273
6420.5 155.364
6421.5 180.818
6422.5 163.091
6423.5 142.545
6424.5 136.818
6425.5 166.182
6426.5 151.364
6427.5 123.636
6428.5 116.545
6429.5 100.182
6430.5 135.273
6431.5 115.091
6432.5 99.5455
6433.5 77.5455
6434.5 91.4545
6435.5 49.1818
6436.5 117.455
6437.5 58
6438.5 85.1818
6439.5 74.3636
6440.5 64.6364
6441.5 140.636
6442.5 98.4545
6443.5 77.3636
6444.5 51.5455
6445.5 80.9091
6446.5 98.3636
6447.5 104.909
6448.5 92.5455
6449.5 85.4545
6450.5 93
6451.5 78.4545
6452.5 93.6364
6453.5 128.364
6454.5 155.182
6455.5 104.091
6456.5 143.818
6457.5 132.273
6458.5 127.455
6459.5 127.727
6460.5 123.545
6461.5 108.818
6462.5 97.2727
6463.5 88.4545
6464.5 103.364
6465.5 104.727
6466.5 92
6467.5 99.7273
6468.5 82.3636
6469.5 95.9091
6470.5 94.7273
6471.5 99.5455
6472.5 104.364
6473.5 90.7273
6474.5 82.7273
6475.5 116.364
6476.5 162.182
6477.5 149
6478.5 196.455
6479.5 159.364
6480.5 200.455
6481.5 120.636
6482.5 123.909
6483.5 128.091
6484.5 124.091
6485.5 89.8182
6486.5 96.2727
6487.5 103.636
6488.5 75.8182
6489.5 106.727
6490.5 103.364
6491.5 94.9091
6492.5 84.6364
6493.5 83.3636
6494.5 119.182
6495.5 112.727
6496.5 73.8182
6497.5 115.818
6498.5 84.1818
6499.5 93.2727
6500.5 121.545
6501.5 100.636
6502.5 103.273
6503.5 103.091
6504.5 120.273
6505.5 89.6364
6506.5 106
6507.5 95.1818
6508.5 96.2727
6509.5 81.0909
6510.5 84.7273
6511.5 111.545
6512.5 84.4545
6513.5 122.273
6514.5 111.182
6515.5 112.091
6516.5 88.5455
6517.5 81.3636
6518.5 86.2727
6519.5 85.2727
6520.5 72.2727
6521.5 99.1818
6522.5 64.8182
6523.5 83.2727
6524.5 65.0909
6525.5 55.2727
6526.5 86
6527.5 89.7273
6528.5 90.4545
6529.5 59.4545
6530.5 73.8182
6531.5 99.1818
6532.5 74.7273
6533.5 92.5455
6534.5 66.5455
6535.5 69.0909
6536.5 68.6364
6537.5 69.6364
6538.5 71.2727
6539.5 80.3636
6540.5 99
6541.5 109
6542.5 115
6543.5 85.2727
6544.5 161.909
6545.5 171.091
6546.5 136.727
6547.5 93.7273
6548.5 155.545
6549.5 129.273
6550.5 99.0909
6551.5 95.2727
6552.5 67.4545
6553.5 77.1818
6554.5 62.5455
6555.5 94.0909
6556.5 74.6364
6557.5 66.3636
6558.5 64.3636
6559.5 86.4545
6560.5 94.9091
6561.5 79.7273
6562.5 94.9091
6563.5 41.9091
6564.5 101.273
6565.5 89.2727
6566.5 134.909
6567.5 136
6568.5 80.9091
6569.5 111.273
6570.5 63.5455
6571.5 98.3636
6572.5 83.8182
6573.5 85.6364
6574.5 65.2727
6575.5 69.2727
6576.5 61.8182
6577.5 85.1818
6578.5 88.2727
6579.5 73.1818
6580.5 93.9091
6581.5 55.2727
6582.5 60.0909
6583.5 45.6364
6584.5 71.5455
6585.5 93.6364
6586.5 75.0909
6587.5 73.9091
6588.5 53.7273
6589.5 64
6590.5 71.2727
6591.5 93.3636
6592.5 51.3636
6593.5 70.3636
6594.5 67.4545
6595.5 100.273
6596.5 68.7273
6597.5 110.727
6598.5 92.0909
6599.5 103.727
6600.5 104.273
6601.5 87.7273
6602.5 87.1818
6603.5 97.2727
6604.5 108.909
6605.5 104.182
6606.5 95.5455
6607.5 76.1818
6608.5 69.9091
6609.5 67.5455
6610.5 78.9091
6611.5 45
6612.5 78.5455
6613.5 67.9091
6614.5 50.0909
6615.5 72.7273
6616.5 71.9091
6617.5 85
6618.5 82
6619.5 99
6620.5 109.182
6621.5 87.6364
6622.5 71.1818
6623.5 69.8182
6624.5 95.1818
6625.5 53.2727
6626.5 51
6627.5 75.3636
6628.5 53.4545
6629.5 76.0909
6630.5 45.4545
6631.5 86.3636
6632.5 77.4545
6633.5 76.8182
6634.5 51.2727
6635.5 73
6636.5 73.7273
6637.5 54.5455
6638.5 74.2727
6639.5 79.0909
6640.5 97.1818
6641.5 66.1818
6642.5 86.6364
6643.5 69.7273
6644.5 99.6364
6645.5 39.0909
6646.5 58.7273
6647.5 73.2727
6648.5 88.0909
6649.5 67.0909
6650.5 74.8182
6651.5 102.909
6652.5 79.4545
6653.5 51.4545
6654.5 65.2727
6655.5 83.4545
6656.5 63.5455
6657.5 50.5455
6658.5 46.8182
6659.5 50.9091
6660.5 48.7273
6661.5 71.2727
6662.5 64.9091
6663.5 61.5455
6664.5 77.5455
6665.5 35.1818
6666.5 33.3636
6667.5 58.3636
6668.5 52.1818
6669.5 34.3636
6670.5 48.3636
6671.5 50.7273
6672.5 27.0909
6673.5 30.7273
6674.5 38.7273
6675.5 36.7273
6676.5 43.4545
6677.5 29.6364
6678.5 18.0909
6679.5 11.9091
6680.5 40.9091
6681.5 49
6682.5 51.0909
6683.5 51.0909
6684.5 31.0909
6685.5 32.1818
6686.5 46.0909
6687.5 37.5455
6688.5 48.5455
6689.5 82.6364
6690.5 17.9091
6691.5 54.3636
6692.5 78.0909
6693.5 78.5454
6694.5 90.4545
6695.5 79.0909
6696.5 77.6364
6697.5 55
6698.5 81.2727
6699.5 98
6700.5 66.8182
6701.5 42.6364
6702.5 58.6364
6703.5 33.9091
6704.5 39.5455
6705.5 32.7273
6706.5 27.9091
6707.5 31.9091
6708.5 45.3636
6709.5 20.2727
6710.5 11.8182
6711.5 21.5455
6712.5 26
6713.5 -3.36364
6714.5 4.63636
6715.5 8.45454
6716.5 3.18181
6717.5 27.5455
6718.5 18.4545
6719.5 1.90909
6720.5 30.3636
6721.5 -7.63637
6722.5 35.5455
6723.5 38.5455
6724.5 58.4545
6725.5 82
6726.5 116.091
6727.5 120.455
6728.5 104.182
6729.5 126.182
6730.5 125.545
6731.5 152
6732.5 131.636
6733.5 98.2727
6734.5 97.0909
6735.5 99.7273
6736.5 114.818
6737.5 57.6364
6738.5 69.6364
6739.5 77.4545
6740.5 47.8182
6741.5 46.0909
6742.5 47
6743.5 71.3636
6744.5 45.0909
6745.5 34.1818
6746.5 52.2727
6747.5 55.0909
6748.5 89
6749.5 75.1818
6750.5 73.3636
6751.5 83
6752.5 70.3636
6753.5 43.6364
6754.5 34.8182
6755.5 44.1818
6756.5 29
6757.5 49.2727
6758.5 50.1818
6759.5 82.5455
6760.5 60.8182
6761.5 81.7273
6762.5 167.636
6763.5 275.455
6764.5 464.727
6765.5 677.364
6766.5 1067.18
6767.5 1360.18
6768.5 1842.27
6769.5 2359.64
6770.5 2465.64
6771.5 2482.18
6772.5 1784.82
6773.5 1147
6774.5 590.727
6775.5 325.364
6776.5 190.455
6777.5 153.909
6778.5 142.727
6779.5 124.818
6780.5 143
6781.5 142.091
6782.5 121.818
6783.5 98.5455
6784.5 101.091
6785.5 86.9091
6786.5 97
6787.5 51.7273
6788.5 49.3636
6789.5 32.3636
6790.5 25.3636
6791.5 30.0909
6792.5 27
6793.5 1.72727
6794.5 25.9091
6795.5 45.2727
6796.5 20.5455
6797.5 29.9091
6798.5 22.3636
6799.5 47.8182
6800.5 59.2727
6801.5 64.8182
6802.5 41.5455
6803.5 46
6804.5 38.4545
6805.5 2.81818
6806.5 32.2727
6807.5 67.3636
6808.5 42.1818
6809.5 15.0909
6810.5 22.5455
6811.5 22.9091
6812.5 27.9091
6813.5 5.45454
6814.5 13.8182
6815.5 11.5455
6816.5 24.9091
6817.5 -8.18182
6818.5 34.7273
6819.5 12.4545
6820.5 11.9091
6821.5 17.2727
6822.5 12.8182
6823.5 27.9091
6824.5 32.2727
6825.5 7
6826.5 25
6827.5 44.6364
6828.5 19.0909
6829.5 12.8182
6830.5 23.3636
6831.5 37.2727
6832.5 45
6833.5 39.0909
6834.5 34.8182
6835.5 59.8182
6836.5 64.4545
6837.5 78.9091
6838.5 79.5455
6839.5 78.9091
6840.5 126.636
6841.5 110.909
6842.5 143
6843.5 163.091
6844.5 97.3636
6845.5 102.091
6846.5 54.4545
6847.5 62.4545
6848.5 20.0909
6849.5 39
6850.5 10.1818
6851.5 21.5455
6852.5 33.3636
6853.5 37.8182
6854.5 26.1818
6855.5 10.7273
6856.5 29.0909
6857.5 23.6364
6858.5 18.8182
6859.5 32.7273
6860.5 26.9091
6861.5 38.2727
6862.5 15.5455
6863.5 20.6364
6864.5 34
6865.5 5.90909
6866.5 20.2727
6867.5 24.1818
6868.5 -4.72728
6869.5 27
6870.5 16.4545
6871.5 24.4545
6872.5 19.0909
6873.5 56.8182
6874.5 40.6364
6875.5 47.5455
6876.5 28.6364
6877.5 27.6364
6878.5 23.7273
6879.5 24.1818
6880.5 28
6881.5 17.7273
6882.5 1.09091
6883.5 -3.27273
6884.5 -1.63637
6885.5 9
6886.5 -2.63637
6887.5 9.45454
6888.5 12.9091
6889.5 11.2727
6890.5 28.0909
6891.5 22.7273
6892.5 47
6893.5 24.7273
6894.5 29.3636
6895.5 16.7273
6896.5 28.7273
6897.5 45.8182
6898.5 37.9091
6899.5 36.2727
6900.5 29.6364
6901.5 34.9091
6902.5 51.3636
6903.5 62.1818
6904.5 56.6364
6905.5 67.9091
6906.5 81.2727
6907.5 60.5455
6908.5 53.2727
6909.5 51.7273
6910.5 32.3636
6911.5 5.72727
6912.5 3.72727
6913.5 8.45454
6914.5 -14.5455
6915.5 17.6364
6916.5 -46.7273
6917.5 -26.8182
6918.5 -34.2727
6919.5 -20
6920.5 15.1818
6921.5 -16.3636
6922.5 -24.1818
6923.5 -17.4545
6924.5 6.18182
6925.5 5.45454
6926.5 -2.81819
6927.5 21.8182
6928.5 24.5455
6929.5 -4.27273
6930.5 19
6931.5 33.6364
6932.5 35.2727
6933.5 94.5454
6934.5 106.818
6935.5 68.6364
6936.5 122.545
6937.5 98.6364
6938.5 102.364
6939.5 99.0909
6940.5 96.5455
6941.5 96.1818
6942.5 82.8182
6943.5 34.0909
6944.5 46.7273
6945.5 29.9091
6946.5 48.8182
6947.5 45
6948.5 21.8182
6949.5 11.9091
6950.5 36.0909
6951.5 26.6364
6952.5 40
6953.5 6.09091
6954.5 35.6364
6955.5 11.2727
6956.5 13
6957.5 5.36363
6958.5 10
6959.5 31.6364
6960.5 22.6364
6961.5 16.5455
6962.5 28
6963.5 26
6964.5 16.2727
6965.5 25.6364
6966.5 39.3636
6967.5 11.6364
6968.5 10.7273
6969.5 32.6364
6970.5 6
6971.5 23.6364
6972.5 46.6364
6973.5 25.4545
6974.5 16.5455
6975.5 19.9091
6976.5 5.36363
6977.5 35.0909
6978.5 23.5455
6979.5 36.5455
6980.5 33.2727
6981.5 34.0909
6982.5 3.27272
6983.5 4.54545
6984.5 17
6985.5 15.2727
6986.5 33.7273
6987.5 15.3636
6988.5 -1.63637
6989.5 20
6990.5 1.81818
6991.5 18.4545
6992.5 45.7273
6993.5 17.4545
6994.5 12.7273
6995.5 35.5455
6996.5 9.63636
6997.5 35.6364
6998.5 31.2727
6999.5 32.0909
7000.5 10
7001.5 29.5455
7002.5 6.45454
7003.5 21.9091
7004.5 22.7273
7005.5 24.0909
7006.5 31.1818
7007.5 13.8182
7008.5 24.7273
7009.5 19.9091
7010.5 18.6364
7011.5 25
7012.5 7.90909
7013.5 29.9091
7014.5 16.3636
7015.5 37.6364
7016.5 27.8182
7017.5 38.0909
7018.5 19.3636
7019.5 10.2727
7020.5 21.5455
7021.5 30
7022.5 18.2727
7023.5 30
7024.5 25.9091
7025.5 35.1818
7026.5 20.7273
7027.5 24.7273
7028.5 40.8182
7029.5 20.5455
7030.5 40.2727
7031.5 12
7032.5 7.27273
7033.5 7.72727
7034.5 18.4545
7035.5 15.5455
7036.5 23.4545
7037.5 26.7273
7038.5 34.1818
7039.5 -11.4545
7040.5 31.0909
7041.5 10.4545
7042.5 7.09091
7043.5 33.7273
7044.5 13.4545
7045.5 -0.181821
7046.5 16.5455
7047.5 31.0909
7048.5 25.8182
7049.5 19.1818
7050.5 22.4545
7051.5 11.6364
7052.5 16
7053.5 13.9091
7054.5 28.7273
7055.5 44.8182
7056.5 27
7057.5 19.5455
7058.5 18.4545
7059.5 25.0909
7060.5 15.6364
7061.5 19.9091
7062.5 36.9091
7063.5 20.1818
7064.5 5.18181
7065.5 34.5455
7066.5 23.6364
7067.5 24.9091
7068.5 36.2727
7069.5 28.6364
7070.5 35.8182
7071.5 20.9091
7072.5 27.6364
7073.5 18.7273
7074.5 31.5455
7075.5 14.9091
7076.5 2.27272
7077.5 32.8182
7078.5 17.0909
7079.5 36.2727
7080.5 34.1818
7081.5 14.6364
7082.5 40.3636
7083.5 33.4545
7084.5 0.545452
7085.5 24.2727
7086.5 19.7273
7087.5 16.4545
7088.5 15.4545
7089.5 16.4545
7090.5 30.3636
7091.5 22.7273
7092.5 36.1818
7093.5 18.8182
7094.5 46.7273
7095.5 30.0909
7096.5 45.7273
7097.5 48.5455
7098.5 22.0909
7099.5 26.3636
7100.5 32.5455
7101.5 29.7273
7102.5 18
7103.5 7.63636
7104.5 10.0909
7105.5 26.8182
7106.5 25.7273
7107.5 25
7108.5 23.1818
7109.5 9.36363
7110.5 27.3636
7111.5 0.818179
7112.5 7
7113.5 13.9091
7114.5 26.6364
7115.5 11.4545
7116.5 25.7273
7117.5 8.09091
7118.5 12.0909
7119.5 8.54545
7120.5 33.6364
7121.5 32.9091
7122.5 58.8182
7123.5 10.2727
7124.5 49.2727
7125.5 17.2727
7126.5 28.1818
7127.5 38.2727
7128.5 6.90909
7129.5 19.6364
7130.5 23.2727
7131.5 34.7273
7132.5 33.6364
7133.5 44.6364
7134.5 15.1818
7135.5 33.6364
7136.5 45
7137.5 23.5455
7138.5 15.3636
7139.5 -3.09091
7140.5 16.6364
7141.5 28.6364
7142.5 20
7143.5 17.4545
7144.5 23.6364
7145.5 16.8182
7146.5 19.8182
7147.5 30.4545
7148.5 20
7149.5 19.4545
7150.5 21.8182
7151.5 33.3636
7152.5 47.7273
7153.5 34.9091
7154.5 32.5455
7155.5 56
7156.5 43.4545
7157.5 30.9091
7158.5 32.9091
7159.5 26
7160.5 37.1818
7161.5 12.8182
7162.5 44.5455
7163.5 39.2727
7164.5 31.8182
7165.5 24.6364
7166.5 49.5455
7167.5 41.0909
7168.5 19.9091
7169.5 42.1818
7170.5 26.5455
7171.5 18.4545
7172.5 22.2727
7173.5 24.6364
7174.5 15.0909
7175.5 11.4545
7176.5 33.4545
7177.5 12.3636
7178.5 24.2727
7179.5 22.5455
7180.5 14.7273
7181.5 12.0909
7182.5 5.45454
7183.5 26.3636
7184.5 14.3636
7185.5 20.8182
7186.5 5.27273
7187.5 18.9091
7188.5 28.4545
7189.5 7.09091
7190.5 7.18182
7191.5 23.2727
7192.5 13.6364
7193.5 8.18182
7194.5 7.45454
7195.5 -1.54546
7196.5 4.81818
7197.5 12.1818
7198.5 3.63636
7199.5 2.18182
7200.5 6
7201.5 15.7273
7202.5 16.8182
7203.5 49.0909
7204.5 28.1818
7205.5 26.5454
7206.5 63.5454
7207.5 59.7273
7208.5 34.4545
7209.5 38.0909
7210.5 50.6364
7211.5 40
7212.5 56.7273
7213.5 34.0909
7214.5 40
7215.5 33.9091
7216.5 56.1818
7217.5 30.1818
7218.5 3
7219.5 31.7273
7220.5 4.81818
7221.5 19.2727
7222.5 21.7273
7223.5 5.09091
7224.5 16
7225.5 -0.454547
7226.5 10.1818
7227.5 14
7228.5 -4.27273
7229.5 8.09091
7230.5 10.3636
7231.5 19.0909
7232.5 -10.3636
7233.5 5.09091
7234.5 -0.18182
7235.5 10.9091
7236.5 2.18182
7237.5 15.7273
7238.5 10.1818
7239.5 -1.09091
7240.5 10.0909
7241.5 -3.81818
7242.5 11.1818
7243.5 16.2727
7244.5 16.7273
7245.5 23.7273
7246.5 35.7273
7247.5 43.7273
7248.5 21.4545
7249.5 48.4545
7250.5 43.3636
7251.5 44.1818
7252.5 18
7253.5 18.3636
7254.5 37
7255.5 20.0909
7256.5 37.0909
7257.5 56.8182
7258.5 80.0909
7259.5 95.6364
7260.5 100.545
7261.5 78.1818
7262.5 83.2727
7263.5 63.5454
7264.5 62.1818
7265.5 66.0909
7266.5 23.5455
7267.5 3.09091
7268.5 28.1818
7269.5 19.0909
7270.5 16.8182
7271.5 -6.81818
7272.5 -8.54546
7273.5 -11.5455
7274.5 -14.8182
7275.5 -1.18182
7276.5 -2.54546
7277.5 -20.4545
7278.5 -21.4545
7279.5 -6.72728
7280.5 -3.18182
7281.5 -15.9091
7282.5 -22.4545
7283.5 -10.1818
7284.5 -18
7285.5 -13.0909
7286.5 5.90909
7287.5 24
7288.5 43.5455
7289.5 40.9091
7290.5 63.8182
7291.5 93.1818
7292.5 124.636
7293.5 122.455
7294.5 133.636
7295.5 142.091
7296.5 136.091
7297.5 121.818
7298.5 77.6364
7299.5 53.9091
7300.5 29.4545
7301.5 32.7273
7302.5 8.45454
7303.5 3.90909
7304.5 20.4545
7305.5 1.72727
7306.5 24.9091
7307.5 9
7308.5 18.0909
7309.5 15.5455
7310.5 27.6364
7311.5 34.6364
7312.5 42.5455
7313.5 54.0909
7314.5 35.4545
7315.5 26.6364
7316.5 47.5455
7317.5 42.6364
7318.5 20.3636
7319.5 46.4545
7320.5 5.18182
7321.5 19
7322.5 4.81818
7323.5 -2.27273
7324.5 -1.27273
7325.5 12.8182
7326.5 0.454544
7327.5 10.8182
7328.5 18
7329.5 -2.45455
7330.5 8.90909
7331.5 12.3636
7332.5 3.45454
7333.5 3.81818
7334.5 4.36363
7335.5 16.4545
7336.5 -1
7337.5 5.36364
7338.5 27.8182
7339.5 7.18182
7340.5 -4.72727
7341.5 11.1818
7342.5 21.5455
7343.5 25.1818
7344.5 43.0909
7345.5 43.9091
7346.5 39.6364
7347.5 61.2727
7348.5 94.0909
7349.5 103.091
7350.5 159
7351.5 154
7352.5 194.455
7353.5 212.273
7354.5 215.727
7355.5 215.273
7356.5 123.545
7357.5 92.6364
7358.5 32.5455
7359.5 34.8182
7360.5 18.7273
7361.5 15.5455
7362.5 7.90909
7363.5 13.5455
7364.5 15.5455
7365.5 1.27273
7366.5 29.7273
7367.5 15.4545
7368.5 7.27273
7369.5 20.2727
7370.5 14.3636
7371.5 8.27273
7372.5 25
7373.5 3.36364
7374.5 7
7375.5 2.81818
7376.5 10.5455
7377.5 14.1818
7378.5 11.3636
7379.5 15.6364
7380.5 11.1818
7381.5 -1
7382.5 14.0909
7383.5 0.181817
7384.5 2.45454
7385.5 0.90909
7386.5 0.999999
7387.5 2.54545
7388.5 2.63636
7389.5 11.7273
7390.5 9.18182
7391.5 5.45454
7392.5 11.2727
7393.5 9.72727
7394.5 8.45454
7395.5 9.72727
7396.5 11
7397.5 3.18182
7398.5 17.5455
7399.5 21.1818
7400.5 19.7273
7401.5 15.3636
7402.5 10.0909
7403.5 9.54545
7404.5 31.1818
7405.5 19.8182
7406.5 13
7407.5 8.09091
7408.5 13.5455
7409.5 11.3636
7410.5 32.4545
7411.5 39.5455
7412.5 17.1818
7413.5 39.0909
7414.5 42.0909
7415.5 33.7273
7416.5 20.2727
7417.5 36.0909
7418.5 58.4545
7419.5 21.5455
7420.5 32
7421.5 15.7273
7422.5 -10
7423.5 2.45454
7424.5 23.5455
7425.5 8.18182
7426.5 7.09091
7427.5 7.45454
7428.5 3.09091
7429.5 20.2727
7430.5 10.6364
7431.5 -5.45455
7432.5 21.3636
7433.5 17.6364
7434.5 13
7435.5 10.9091
7436.5 11
7437.5 16.4545
7438.5 10.6364
7439.5 3.63636
7440.5 3.54545
7441.5 8.45454
7442.5 8.27273
7443.5 12.3636
7444.5 3.45454
7445.5 11.0909
7446.5 17.5455
7447.5 5
7448.5 9.72727
7449.5 11.2727
7450.5 10.6364
7451.5 -1
7452.5 17.8182
7453.5 19
7454.5 10.8182
7455.5 6.90909
7456.5 6.27273
7457.5 1.81818
7458.5 2.54545
7459.5 5.63636
7460.5 15.8182
7461.5 6
7462.5 20.0909
7463.5 0.818181
7464.5 4.81818
7465.5 11.5455
7466.5 10.4545
7467.5 13.5455
7468.5 15.4545
7469.5 -2.72727
7470.5 8.54545
7471.5 13.4545
7472.5 2.72727
7473.5 11
7474.5 15.0909
7475.5 12.2727
7476.5 -0.545456
7477.5 -1.81818
7478.5 11.0909
7479.5 9.54545
7480.5 6
7481.5 5.81818
7482.5 6.18182
7483.5 8.81818
7484.5 5
7485.5 9.27273
7486.5 6.54545
7487.5 -4.63636
7488.5 0.363636
7489.5 17.0909
7490.5 -2.09091
7491.5 11.1818
7492.5 9.27273
7493.5 -3.27273
7494.5 9.09091
7495.5 5
7496.5 14.0909
7497.5 4.90909
7498.5 2
7499.5 -0.636365
7500.5 -10.5455
7501.5 12.3636
7502.5 -0.363637
7503.5 11.6364
7504.5 11.9091
7505.5 14.0909
7506.5 6.63636
7507.5 7
7508.5 6.81818
7509.5 -6.09091
7510.5 -6
7511.5 14.6364
7512.5 13.8182
7513.5 7.81818
7514.5 6.09091
7515.5 0.181817
7516.5 13.8182
7517.5 0.636363
7518.5 7.63636
7519.5 16.6364
7520.5 8.27273
7521.5 6
7522.5 -14
7523.5 8.90909
7524.5 15.5455
7525.5 -3.18182
7526.5 5.27273
7527.5 -0.181819
7528.5 3.72727
7529.5 6.36364
7530.5 7.81818
7531.5 -0.181819
7532.5 8.27273
7533.5 1.18182
7534.5 4.81818
7535.5 14
7536.5 4.45454
7537.5 1.90909
7538.5 6
7539.5 -3.36364
7540.5 19.3636
7541.5 11.7273
7542.5 5.18182
7543.5 -2.45455
7544.5 14.7273
7545.5 3.81818
7546.5 18
7547.5 16.5455
7548.5 -6.18182
7549.5 -0.545455
7550.5 2.27273
7551.5 -6.90909
7552.5 -7.72727
7553.5 11.6364
7554.5 21.4545
7555.5 -4.63636
7556.5 -11.9091
7557.5 12.6364
7558.5 -9.09091
7559.5 2
7560.5 -0.181819
7561.5 9.81818
7562.5 -12
7563.5 8.54545
7564.5 11.6364
7565.5 2.27273
7566.5 0.090908
7567.5 1.81818
7568.5 19.8182
7569.5 14.4545
7570.5 5.27273
7571.5 11.2727
7572.5 28.6364
7573.5 17.5455
7574.5 28.8182
7575.5 24.4545
7576.5 34.6364
7577.5 32.8182
7578.5 5.09091
7579.5 2.63636
7580.5 15.2727
7581.5 -0.545456
7582.5 19.5455
7583.5 -1.90909
7584.5 -4.27273
7585.5 0.727271
7586.5 10.5455
7587.5 8.90909
7588.5 -5.54546
7589.5 4.90909
7590.5 -1.19209e-06
7591.5 -6.81818
7592.5 -0.272728
7593.5 -10.3636
7594.5 3.09091
7595.5 -0.727274
7596.5 -5.09091
7597.5 2.27273
7598.5 2.90909
7599.5 -5.81818
7600.5 -11.4545
7601.5 5.54545
7602.5 7.54545
7603.5 18.0909
7604.5 31
7605.5 28.1818
7606.5 36.5455
7607.5 32.1818
7608.5 38.7273
7609.5 26.5455
7610.5 15.4545
7611.5 30.9091
7612.5 25.8182
7613.5 17.5455
7614.5 21.3636
7615.5 -5.81818
7616.5 7
7617.5 6
7618.5 11.1818
7619.5 13.0909
7620.5 1.90909
7621.5 10.2727
7622.5 -7.72727
7623.5 4.90909
7624.5 3.72727
7625.5 -1.72727
7626.5 4.09091
7627.5 -3.09091
7628.5 8.09091
7629.5 8.81818
7630.5 9.63636
7631.5 15.2727
7632.5 12.0909
7633.5 16.3636
7634.5 1.09091
7635.5 -4.45455
7636.5 14.4545
7637.5 8.81818
7638.5 -2
7639.5 14.9091
7640.5 14.3636
7641.5 14.2727
7642.5 16.2727
7643.5 6.90909
7644.5 8.45454
7645.5 10.3636
7646.5 3
7647.5 7.54545
7648.5 13.0909
7649.5 -5.36364
7650.5 12.1818
7651.5 5.72727
7652.5 -10
7653.5 5.81818
7654.5 -0.818183
7655.5 -2.09091
7656.5 7.81818
7657.5 23.7273
7658.5 9.63636
7659.5 12.3636
7660.5 -2.18182
7661.5 2.27273
7662.5 17.9091
7663.5 4.45454
7664.5 10.0909
7665.5 8
7666.5 4.63636
7667.5 3.90909
7668.5 -7.81818
7669.5 -1.09091
7670.5 12
7671.5 12.3636
7672.5 10.8182
7673.5 3.72727
7674.5 2.90909
7675.5 1.81818
7676.5 5.27273
7677.5 7.09091
7678.5 1.81818
7679.5 -4.72727
7680.5 7
7681.5 2.72727
7682.5 3.54545
7683.5 13.1818
7684.5 7.63636
7685.5 4.27273
7686.5 3.18182
7687.5 5.63636
7688.5 3
7689.5 8.27273
7690.5 27.2727
7691.5 3.81818
7692.5 10
7693.5 7.45454
7694.5 6.81818
7695.5 2.72727
7696.5 1.72727
7697.5 11.6364
7698.5 19.8182
7699.5 12.3636
7700.5 4.36364
7701.5 2.45454
7702.5 -1.81818
7703.5 -2.81818
7704.5 11.5455
7705.5 -9.27273
7706.5 5.27273
7707.5 -1.36364
7708.5 -1.27273
7709.5 10
7710.5 4.45454
7711.5 3.09091
7712.5 -2.54546
7713.5 6.36364
7714.5 -1.63636
7715.5 6.27273
7716.5 -7.27273
7717.5 8.63636
7718.5 -5.90909
7719.5 15.4545
7720.5 1.72727
7721.5 6.72727
7722.5 14.5455
7723.5 22.3636
7724.5 25.5455
7725.5 31.4545
7726.5 19.7273
7727.5 25.3636
7728.5 5.81818
7729.5 12.9091
7730.5 2.09091
7731.5 6.72727
7732.5 4.81818
7733.5 15.1818
7734.5 14.0909
7735.5 3.09091
7736.5 0.0909085
7737.5 6.72727
7738.5 -0.636364
7739.5 -2
7740.5 12
7741.5 0.545454
7742.5 10.9091
7743.5 7.45455
7744.5 3.18182
7745.5 19.0909
7746.5 6
7747.5 -3.36364
7748.5 10.5455
7749.5 10.8182
7750.5 15.1818
7751.5 2.81818
7752.5 1.09091
7753.5 7.81818
7754.5 0.727272
7755.5 -2.63636
7756.5 8.27273
7757.5 15.4545
7758.5 -4.63636
7759.5 2.63636
7760.5 -2.72727
7761.5 -1.36364
7762.5 5.54545
7763.5 -2.45455
7764.5 14.5455
7765.5 2.18182
7766.5 23.5455
7767.5 -5.63637
7768.5 38.6364
7769.5 75.5454
7770.5 14.3636
7771.5 61
7772.5 53.7273
7773.5 35.6364
7774.5 52.7273
7775.5 79.5454
7776.5 36.2727
7777.5 8.27272
7778.5 5
7779.5 8.72727
7780.5 12.9091
7781.5 -0.454547
7782.5 19.3636
7783.5 13.7273
7784.5 -4
7785.5 13
7786.5 0.636363
7787.5 15.7273
7788.5 12.7273
7789.5 9.27273
7790.5 5
7791.5 11.8182
7792.5 9.36364
7793.5 9.54545
7794.5 11.6364
7795.5 12.4545
7796.5 3.09091
7797.5 5.27273
7798.5 -2.27273
7799.5 -5.18182
7800.5 -1.36364
7801.5 8.09091
7802.5 9.09091
7803.5 12.1818
7804.5 1.09091
7805.5 0.636363
7806.5 9.27273
7807.5 2.18182
7808.5 -0.363637
7809.5 9
7810.5 2.81818
7811.5 -1.90909
7812.5 -5.72727
7813.5 5.18182
7814.5 3.09091
7815.5 4.54545
7816.5 0.636363
7817.5 7.36364
7818.5 2.63636
7819.5 11.2727
7820.5 5.54545
7821.5 18.2727
7822.5 10.6364
7823.5 11.0909
7824.5 13.9091
7825.5 17.7273
7826.5 7
7827.5 20.8182
7828.5 0.999998
7829.5 20.1818
7830.5 3.63636
7831.5 -6.09091
7832.5 7.18182
7833.5 9.81818
7834.5 4.72727
7835.5 1.90909
7836.5 -0.636364
7837.5 9
7838.5 5.45454
7839.5 -1.09091
7840.5 -0.545455
7841.5 2.63636
7842.5 -0.636364
7843.5 3.27273
7844.5 -4.81818
7845.5 0.90909
7846.5 -1.72727
7847.5 1.81818
7848.5 -0.363637
7849.5 1.72727
7850.5 0.727272
7851.5 2.09091
7852.5 3.36364
7853.5 13.2727
7854.5 13.6364
7855.5 9.27273
7856.5 19.4545
7857.5 17.8182
7858.5 2.72727
7859.5 7.54545
7860.5 2.45454
7861.5 5.63636
7862.5 8.63636
7863.5 3.90909
7864.5 4.18182
7865.5 4.72727
7866.5 5.81818
7867.5 3.18182
7868.5 3
7869.5 9.09091
7870.5 -1.63636
7871.5 -1.54545
7872.5 0.0909088
7873.5 0.545454
7874.5 4.72727
7875.5 9.45455
7876.5 -2.09091
7877.5 -4.27273
7878.5 4.18182
7879.5 3.36364
7880.5 10.4545
7881.5 4.72727
7882.5 -6.09091
7883.5 -0.363637
7884.5 -3.81818
7885.5 -1.81818
7886.5 3.72727
7887.5 3.45455
7888.5 1.18182
7889.5 4.09091
7890.5 7.90909
7891.5 0.181818
7892.5 8.54545
7893.5 3.90909
7894.5 -0.818182
7895.5 7.54545
7896.5 -4.63636
7897.5 3
7898.5 2.81818
7899.5 9.36364
7900.5 6.18182
7901.5 3.18182
7902.5 2
7903.5 -3
7904.5 1.18182
7905.5 10.6364
7906.5 7.81818
7907.5 10.0909
7908.5 14.0909
7909.5 5.81818
7910.5 5.72727
7911.5 0.454545
7912.5 1
7913.5 -3.54545
7914.5 13.9091
7915.5 6.90909
7916.5 11
7917.5 9.54545
7918.5 11.2727
7919.5 4.09091
7920.5 4
7921.5 2.54545
7922.5 4.63636
7923.5 11.1818
7924.5 6.36364
7925.5 -1.18182
7926.5 6.09091
7927.5 7.18182
7928.5 -3.90909
7929.5 1.09091
7930.5 11.1818
7931.5 -4.54545
7932.5 4.09091
7933.5 3.54545
7934.5 -1.90909
7935.5 6.09091
7936.5 -4.47035e-07
7937.5 -0.727273
7938.5 4.90909
7939.5 -2.36364
7940.5 1.90909
7941.5 -1.90909
7942.5 0.727272
7943.5 -1.18182
7944.5 10
7945.5 2
7946.5 -1.54545
7947.5 6.90909
7948.5 5.72727
7949.5 -5.09091
7950.5 6.54545
7951.5 -1.72727
7952.5 11.3636
7953.5 4.54545
7954.5 -0.454546
7955.5 8.09091
7956.5 6.90909
7957.5 3.45455
7958.5 1.18182
7959.5 3.90909
7960.5 3.18182
7961.5 9.45454
7962.5 -0.545455
7963.5 0.545454
7964.5 -3.63636
7965.5 2.45455
7966.5 6.36364
7967.5 4.72727
7968.5 2.36364
7969.5 7.36364
7970.5 4.54545
7971.5 -4.27273
7972.5 1
7973.5 5.45455
7974.5 2.54545
7975.5 -4.18182
7976.5 1.90909
7977.5 3.54545
7978.5 7.63636
7979.5 -0.818182
7980.5 9.90909
7981.5 2.36364
7982.5 0.545454
7983.5 3.09091
7984.5 7.90909
7985.5 -8.18182
7986.5 1.81818
7987.5 -1.45455
7988.5 -1.90909
7989.5 10.3636
7990.5 8.81818
7991.5 9.45455
7992.5 7.63636
7993.5 14
7994.5 7.54545
7995.5 11.6364
7996.5 -2.63636
7997.5 8.09091
7998.5 4
7999.5 17.6364
8000.5 7.72727
8001.5 3.81818
8002.5 -0.636364
8003.5 6.18182
8004.5 3.27273
8005.5 2.45455
8006.5 1.81818
8007.5 10.8182
8008.5 4
8009.5 2.72727
8010.5 9.09091
8011.5 -1.27273
8012.5 6.81818
8013.5 3.36364
8014.5 8.54545
8015.5 2.72727
8016.5 12
8017.5 10.5455
8018.5 12
8019.5 -0.454546
8020.5 0.0909086
8021.5 10.7273
8022.5 8.45455
8023.5 11.2727
8024.5 17.2727
8025.5 17.7273
8026.5 -1.36364
8027.5 1.54545
8028.5 -0.545455
8029.5 8.18182
8030.5 -2
8031.5 -5
8032.5 -0.181819
8033.5 18.0909
8034.5 7.90909
8035.5 5.18182
8036.5 -0.0909094
8037.5 -7.72727
8038.5 0.636363
8039.5 -5.09091
8040.5 3.81818
8041.5 6.72727
8042.5 5.36364
8043.5 7.81818
8044.5 5.54545
8045.5 1.18182
8046.5 1.09091
8047.5 3.09091
8048.5 7.63636
8049.5 -0.909091
8050.5 -3.81818
8051.5 3.18182
8052.5 2.63636
8053.5 4.18182
8054.5 3.09091
8055.5 3.63636
8056.5 -1.90909
8057.5 10.2727
8058.5 -1.09091
8059.5 4.90909
8060.5 3.90909
8061.5 8.18182
8062.5 3.36364
8063.5 1.90909
8064.5 6.54545
8065.5 6
8066.5 4.81818
8067.5 0.0909086
8068.5 7.81818
8069.5 6.45455
8070.5 -1
8071.5 -0.272728
8072.5 4.72727
8073.5 5.81818
8074.5 -1.63636
8075.5 6.63636
8076.5 2
8077.5 9.09091
8078.5 0.999999
8079.5 1.36364
8080.5 4.72727
8081.5 4.36363
8082.5 5.18182
8083.5 -21.5455
8084.5 16
8085.5 31.9091
8086.5 -13.9091
8087.5 -0.181821
8088.5 10.9091
8089.5 -8.72727
8090.5 -8.45455
8091.5 -0.636364
8092.5 6.27273
8093.5 1.45455
8094.5 4
8095.5 0.90909
8096.5 -1.63636
8097.5 11
8098.5 4
8099.5 -4.47035e-07
8100.5 10.7273
8101.5 13.0909
8102.5 7.81818
8103.5 9.90909
8104.5 10.7273
8105.5 6.09091
8106.5 5.54545
8107.5 8.36364
8108.5 1.36364
8109.5 -4.45455
8110.5 -0.363637
8111.5 -1.54545
8112.5 4.81818
8113.5 12.0909
8114.5 3.18182
8115.5 0.90909
8116.5 -0.545455
8117.5 1.54545
8118.5 -0.272727
8119.5 0.181818
8120.5 0.272727
8121.5 2.72727
8122.5 -0.0909094
8123.5 -3.54545
8124.5 -0.909091
8125.5 8.09091
8126.5 6.27273
8127.5 2.27273
8128.5 6.81818
8129.5 -3.09091
8130.5 7.72727
8131.5 -3.36364
8132.5 3.36364
8133.5 0.0909088
8134.5 4.81818
8135.5 1.63636
8136.5 3.45455
8137.5 6.27273
8138.5 3.90909
8139.5 2.45455
8140.5 -2.09091
8141.5 4.09091
8142.5 3
8143.5 0.545454
8144.5 -1.18182
8145.5 -4.63636
8146.5 3.90909
8147.5 4.72727
8148.5 -2.36364
8149.5 5.45455
8150.5 5.18182
8151.5 7.81818
8152.5 -1.63636
8153.5 5.90909
8154.5 0.818181
8155.5 0.909091
8156.5 5.27273
8157.5 -4.72727
8158.5 2
8159.5 6
8160.5 5.27273
8161.5 -1.72727
8162.5 -5.72727
8163.5 1.36364
8164.5 7.63636
8165.5 3.45455
8166.5 4.18182
8167.5 6
8168.5 3.54545
8169.5 12.2727
8170.5 -1.81818
8171.5 3.63636
8172.5 1.09091
8173.5 4
8174.5 1.45455
8175.5 -0.272728
8176.5 8.18182
8177.5 2
8178.5 5
8179.5 -3.36364
8180.5 0.181818
8181.5 0.727273
8182.5 4.18182
8183.5 1.63636
8184.5 3.90909
8185.5 -2.09091
8186.5 -2.18182
8187.5 -0.181818
8188.5 3.36364
8189.5 2.90909
8190.5 -4
8191.5 6.27273
8192.5 5.27273
8193.5 2.63636
8194.5 6.90909
8195.5 5.18182
8196.5 2
8197.5 1.27273
8198.5 6.63636
8199.5 -1.09091
8200.5 0.909091
8201.5 1.63636
8202.5 -3.54545
8203.5 -4.18182
8204.5 0.818181
8205.5 -3.81818
8206.5 0.272727
8207.5 9.27273
8208.5 4.36364
8209.5 6.27273
8210.5 9.27273
8211.5 6.90909
8212.5 1.27273
8213.5 5.27273
8214.5 1.90909
8215.5 5.90909
8216.5 -3.90909
8217.5 -4.09091
8218.5 -2.54545
8219.5 2.81818
8220.5 8.18182
8221.5 3.27273
8222.5 4.09091
8223.5 -3.72727
8224.5 -4.72727
8225.5 4.36364
8226.5 1.81818
8227.5 11.5455
8228.5 4.36364
8229.5 7.81818
8230.5 7.54545
8231.5 -1.54545
8232.5 -6.27273
8233.5 3.90909
8234.5 -4
8235.5 2.18182
8236.5 2.18182
8237.5 0.727273
8238.5 -0.909091
8239.5 -3.18182
8240.5 0.818182
8241.5 6.81818
8242.5 -0.545455
8243.5 -6.36364
8244.5 0.454545
8245.5 -1.54545
8246.5 -1.54545
8247.5 3.27273
8248.5 4.72727
8249.5 3.45455
8250.5 -2.54545
8251.5 3.18182
8252.5 2.54545
8253.5 -5.27273
8254.5 0.636363
8255.5 10.3636
8256.5 1.63636
8257.5 2.36364
8258.5 -2.72727
8259.5 1.72727
8260.5 0.636363
8261.5 8.18182
8262.5 -0.727273
8263.5 3.81818
8264.5 3.27273
8265.5 2.27273
8266.5 -1.09091
8267.5 -1.18182
8268.5 5.18182
8269.5 4.54545
8270.5 -2.81818
8271.5 4.81818
8272.5 0.545454
8273.5 0.545454
8274.5 2.72727
8275.5 3.45455
8276.5 2.63636
8277.5 2.90909
8278.5 2.54545
8279.5 -2.09091
8280.5 -1.90909
8281.5 0.727273
8282.5 0.272727
8283.5 1.63636
8284.5 5.63636
8285.5 9.36364
8286.5 2.72727
8287.5 0.545454
8288.5 -1.54545
8289.5 0.909091
8290.5 -2.27273
8291.5 1.18182
8292.5 5
8293.5 6.54545
8294.5 1.18182
8295.5 4
8296.5 0.727273
8297.5 -5.09091
8298.5 3
8299.5 5.54545
8300.5 -1.36364
8301.5 0.454545
8302.5 0.181818
8303.5 2.45455
8304.5 0.909091
8305.5 0.545454
8306.5 10.0909
8307.5 -3.54545
8308.5 4.18182
8309.5 1.45455
8310.5 4.18182
8311.5 0.454545
8312.5 10.6364
8313.5 -3.90909
8314.5 7.54545
8315.5 -2.81818
8316.5 -7.63636
8317.5 -4.63636
8318.5 3.45455
8319.5 -1
8320.5 -0.727273
8321.5 -4.54545
8322.5 7
8323.5 -0.0909094
8324.5 3.09091
8325.5 2.36364
8326.5 -3.63636
8327.5 4
8328.5 -1.90909
8329.5 3
8330.5 0.636363
8331.5 7.63636
8332.5 18.9091
8333.5 12.5455
8334.5 2.36364
8335.5 14.4545
8336.5 19.1818
8337.5 14.8182
8338.5 14
8339.5 -5.27273
8340.5 6.36364
8341.5 -1.72727
8342.5 0.545454
8343.5 10.6364
8344.5 5.18182
8345.5 -0.0909094
8346.5 7.36364
8347.5 -10.3636
8348.5 -8.54545
8349.5 -2.63636
8350.5 -4.72727
8351.5 2.54545
8352.5 -0.818182
8353.5 -4.09091
8354.5 2.09091
8355.5 -1.54545
8356.5 0.454545
8357.5 -1.90909
8358.5 -0.545455
8359.5 -1
8360.5 2.90909
8361.5 6
8362.5 -2
8363.5 11.9091
8364.5 18.5455
8365.5 15.3636
8366.5 12.1818
8367.5 14.9091
8368.5 3.36364
8369.5 22.1818
8370.5 16.0909
8371.5 18.7273
8372.5 9.90909
8373.5 16
8374.5 6
8375.5 3.27273
8376.5 15.7273
8377.5 5
8378.5 5.45455
8379.5 0.272727
8380.5 0.727273
8381.5 -3.63636
8382.5 4
8383.5 -3.09091
8384.5 7.81818
8385.5 1
8386.5 -0.181818
8387.5 -3.63636
8388.5 6.09091
8389.5 -4.81818
8390.5 4
8391.5 2.63636
8392.5 -1.49012e-07
8393.5 5.09091
8394.5 -2.63636
8395.5 -0.181818
8396.5 -3.63636
8397.5 -1.36364
8398.5 -0.272727
8399.5 -2.72727
8400.5 -2.90909
8401.5 1.54545
8402.5 4.54545
8403.5 3.63636
8404.5 1.09091
8405.5 11.1818
8406.5 7.09091
8407.5 6.09091
8408.5 -3.72727
8409.5 0.181818
8410.5 0.181818
8411.5 2.45455
8412.5 -4.09091
8413.5 -2.27273
8414.5 6.63636
8415.5 3.18182
8416.5 1.45455
8417.5 8.63636
8418.5 4.27273
8419.5 0.272727
8420.5 4.63636
8421.5 4.81818
8422.5 2.18182
8423.5 -1.72727
8424.5 -3.63636
8425.5 -0.818182
8426.5 0.727273
8427.5 3.63636
8428.5 3.63636
8429.5 2.18182
8430.5 -4.63636
8431.5 -0.272727
8432.5 0.0909089
8433.5 2.54545
8434.5 6.45455
8435.5 1.90909
8436.5 -1.49012e-07
8437.5 1.18182
8438.5 -1.27273
8439.5 3.36364
8440.5 -5
8441.5 2.09091
8442.5 2.90909
8443.5 3.36364
8444.5 0.545454
8445.5 4.63636
8446.5 -0.454546
8447.5 -3.72727
8448.5 4.45455
8449.5 5.09091
8450.5 -1.90909
8451.5 -1
8452.5 -2.98023e-07
8453.5 2.27273
8454.5 3.90909
8455.5 5.45455
8456.5 2.54545
8457.5 0.545454
8458.5 -0.0909092
8459.5 -2.72727
8460.5 -2.90909
8461.5 -1.09091
8462.5 1.72727
8463.5 0.636363
8464.5 1
8465.5 2.09091
8466.5 4.09091
8467.5 2.81818
8468.5 0.363636
8469.5 4.36364
8470.5 2.72727
8471.5 -1.72727
8472.5 4.81818
8473.5 3.72727
8474.5 5.54545
8475.5 5.63636
8476.5 4.72727
8477.5 0.727273
8478.5 2.18182
8479.5 7.81818
8480.5 0.818182
8481.5 11.8182
8482.5 -1
8483.5 -1.09091
8484.5 5.09091
8485.5 7.18182
8486.5 3
8487.5 2.09091
8488.5 4.81818
8489.5 5.27273
8490.5 1.36364
8491.5 9.54545
8492.5 4.81818
8493.5 1.27273
8494.5 6.27273
8495.5 -0.636364
8496.5 0.0909089
8497.5 3.27273
8498.5 -4.72727
8499.5 -3.45455
8500.5 -3.90909
8501.5 0.363636
8502.5 -8.27273
8503.5 -7.27273
8504.5 0.0909088
8505.5 4.81818
8506.5 -3.45455
8507.5 -5.63636
8508.5 3
8509.5 3
8510.5 2.72727
8511.5 -1.72727
8512.5 -3.81818
8513.5 -0.818182
8514.5 11
8515.5 6
8516.5 6.09091
8517.5 -0.454546
8518.5 7.36364
8519.5 10.9091
8520.5 7
8521.5 16.4545
8522.5 10.4545
8523.5 1.81818
8524.5 9.45455
8525.5 5.54545
8526.5 7.54545
8527.5 6.72727
8528.5 4.36364
8529.5 3.45455
8530.5 -2.18182
8531.5 8.45455
8532.5 6.18182
8533.5 4.36364
8534.5 -0.636364
8535.5 -0.0909092
8536.5 -1.90909
8537.5 3.09091
8538.5 3.81818
8539.5 1.90909
8540.5 2.09091
8541.5 2.36364
8542.5 -1.18182
8543.5 -1.49012e-07
8544.5 1.54545
8545.5 5.36364
8546.5 0.545454
8547.5 5.54545
8548.5 0.818182
8549.5 4
8550.5 -1.90909
8551.5 2.54545
8552.5 -0.363637
8553.5 7.54545
8554.5 -2
8555.5 4.81818
8556.5 3.09091
8557.5 -2.45455
8558.5 3.36364
8559.5 0.363636
8560.5 -0.636364
8561.5 2.81818
8562.5 -2.90909
8563.5 3
8564.5 -0.727273
8565.5 0.909091
8566.5 -0.545455
8567.5 -0.636364
8568.5 1.90909
8569.5 1.54545
8570.5 -0.727273
8571.5 0.0909089
8572.5 4
8573.5 3.09091
8574.5 4.90909
8575.5 2.63636
8576.5 2.09091
8577.5 5
8578.5 7.54545
8579.5 3.54545
8580.5 7.45455
8581.5 2.45455
8582.5 2.09091
8583.5 0.0909089
8584.5 4.36364
8585.5 4.09091
8586.5 1.54545
8587.5 -2.81818
8588.5 0.272727
8589.5 2.54545
8590.5 4
8591.5 0.545454
8592.5 2.63636
8593.5 -3.27273
8594.5 2.09091
8595.5 -2.27273
8596.5 -1.49012e-07
8597.5 2
8598.5 -5.18182
8599.5 3.27273
8600.5 -0.454546
8601.5 0.909091
8602.5 3.27273
8603.5 2.63636
8604.5 5.81818
8605.5 2.72727
8606.5 1.18182
8607.5 3
8608.5 0.727273
8609.5 -0.818182
8610.5 -2.27273
8611.5 -1.36364
8612.5 0.909091
8613.5 3.45455
8614.5 4.81818
8615.5 -0.363637
8616.5 0.909091
8617.5 3.90909
8618.5 -0.181818
8619.5 -3.45455
8620.5 3.81818
8621.5 -4.18182
8622.5 3.72727
8623.5 2
8624.5 4.27273
8625.5 1.45455
8626.5 0.818182
8627.5 0.818182
8628.5 6.72727
8629.5 1.27273
8630.5 1.72727
8631.5 2
8632.5 4.27273
8633.5 1.09091
8634.5 0.454545
8635.5 -1.49012e-07
8636.5 2.45455
8637.5 3.45455
8638.5 5.81818
8639.5 0.272727
8640.5 -3
8641.5 -2.09091
8642.5 10
8643.5 1.63636
8644.5 -2.18182
8645.5 -2.09091
8646.5 1.54545
8647.5 2.27273
8648.5 2.27273
8649.5 -3.36364
8650.5 1
8651.5 -2.63636
8652.5 3.90909
8653.5 4.90909
8654.5 -1
8655.5 1
8656.5 -0.909091
8657.5 12.8182
8658.5 -4.81818
8659.5 0.272727
8660.5 2
8661.5 1
8662.5 -0.727273
8663.5 1.09091
8664.5 5.81818
8665.5 -1.90909
8666.5 -1.49012e-07
8667.5 2.27273
8668.5 3.81818
8669.5 -0.545455
8670.5 9.27273
8671.5 8.81818
8672.5 1.63636
8673.5 2.18182
8674.5 0.909091
8675.5 -1.49012e-07
8676.5 1.90909
8677.5 1.45455
8678.5 3.72727
8679.5 2.81818
8680.5 0.909091
8681.5 0.0909089
8682.5 1
8683.5 5.36364
8684.5 3.45455
8685.5 1.09091
8686.5 6
8687.5 -0.454546
8688.5 3.72727
8689.5 1.09091
8690.5 -0.181818
8691.5 1.90909
8692.5 1.18182
8693.5 -3.45455
8694.5 -0.181818
8695.5 -5.27273
8696.5 5.36364
8697.5 -4
8698.5 -0.0909092
8699.5 3.54545
8700.5 -0.545455
8701.5 0.909091
8702.5 5.36364
8703.5 4.45455
8704.5 2.09091
8705.5 2.54545
8706.5 0.545454
8707.5 -1.63636
8708.5 4.90909
8709.5 5.18182
8710.5 1.81818
8711.5 3.36364
8712.5 0.363636
8713.5 -1.63636
8714.5 -0.0909092
8715.5 -0.636364
8716.5 0.818182
8717.5 -0.545455
8718.5 -0.454546
8719.5 -1.54545
8720.5 5.90909
8721.5 0.818182
8722.5 -2.45455
8723.5 2.81818
8724.5 0.454545
8725.5 -0.727273
8726.5 2.54545
8727.5 1.63636
8728.5 1.54545
8729.5 -1
8730.5 0.363636
8731.5 1.63636
8732.5 -4.45455
8733.5 7.18182
8734.5 4.54545
8735.5 0.454545
8736.5 4.45455
8737.5 -3
8738.5 -1
8739.5 -4.90909
8740.5 2
8741.5 5.72727
8742.5 4.18182
8743.5 -3.90909
8744.5 -2.18182
8745.5 0.545454
8746.5 -1.72727
8747.5 0.363636
8748.5 -1.63636
8749.5 0.363636
8750.5 2.36364
8751.5 0.909091
8752.5 4.81818
8753.5 -3.54545
8754.5 2.45455
8755.5 -0.454546
8756.5 2.90909
8757.5 1
8758.5 -3.27273
8759.5 1.36364
8760.5 3.36364
8761.5 1.81818
8762.5 2.36364
8763.5 8.72727
8764.5 1.36364
8765.5 -1.18182
8766.5 1.90909
8767.5 -5.27273
8768.5 -0.0909092
8769.5 3.81818
8770.5 2.81818
8771.5 -0.454546
8772.5 -3.45455
8773.5 4.18182
8774.5 1.36364
8775.5 -2.09091
8776.5 2.18182
8777.5 4.72727
8778.5 2.81818
8779.5 -1.36364
8780.5 0.181818
8781.5 2.27273
8782.5 1.45455
8783.5 -1.36364
8784.5 2.90909
8785.5 1.90909
8786.5 1.09091
8787.5 -2.81818
8788.5 2.45455
8789.5 3.36364
8790.5 4.45455
8791.5 0.909091
8792.5 0.727273
8793.5 -1
8794.5 -1.72727
8795.5 4.72727
8796.5 -1.09091
8797.5 3.27273
8798.5 0.272727
8799.5 3.63636
8800.5 3.27273
8801.5 2.45455
8802.5 2.27273
8803.5 0.454545
8804.5 -3.36364
8805.5 2.36364
8806.5 -0.545455
8807.5 -3.90909
8808.5 0.545454
8809.5 0.363636
8810.5 -0.0909092
8811.5 -1.45455
8812.5 -4.90909
8813.5 2.63636
8814.5 2.36364
8815.5 1.90909
8816.5 0.0909089
8817.5 -0.454546
8818.5 -2
8819.5 -1.63636
8820.5 1.45455
8821.5 -1
8822.5 2.54545
8823.5 5.90909
8824.5 -2
8825.5 5.18182
8826.5 1.18182
8827.5 0.363636
8828.5 5.81818
8829.5 -1.54545
8830.5 4.27273
8831.5 1.45455
8832.5 0.727273
8833.5 2.36364
8834.5 -1.63636
8835.5 -1.09091
8836.5 3.54545
8837.5 2.54545
8838.5 3.45455
8839.5 3.18182
8840.5 0.545454
8841.5 6.90909
8842.5 -5.90909
8843.5 8.63636
8844.5 2.90909
8845.5 7.54545
8846.5 0.363635
8847.5 -7.63636
8848.5 9.09091
8849.5 4
8850.5 8.45455
8851.5 4.72727
8852.5 -1.72727
8853.5 -0.363637
8854.5 -1.90909
8855.5 1.45455
8856.5 1
8857.5 3.27273
8858.5 1.27273
8859.5 3.90909
8860.5 0.818182
8861.5 3.36364
8862.5 3.81818
8863.5 4.63636
8864.5 1.72727
8865.5 -0.727273
8866.5 4.63636
8867.5 2.36364
8868.5 3.18182
8869.5 -0.727273
8870.5 1.72727
8871.5 -2.63636
8872.5 2.27273
8873.5 0.272727
8874.5 5.63636
8875.5 0.818182
8876.5 -0.727273
8877.5 -0.181818
8878.5 2.72727
8879.5 -1.09091
8880.5 1.27273
8881.5 -0.272727
8882.5 1.27273
8883.5 4.09091
8884.5 0.727273
8885.5 -2
8886.5 -0.454546
8887.5 3.72727
8888.5 5.72727
8889.5 3.27273
8890.5 2.18182
8891.5 -0.181818
8892.5 -4.09091
8893.5 -1.72727
8894.5 -1.63636
8895.5 0.636364
8896.5 -1.63636
8897.5 1.27273
8898.5 -1.18182
8899.5 -2.27273
8900.5 0.272727
8901.5 3.81818
8902.5 2.72727
8903.5 3.09091
8904.5 -1.54545
8905.5 -1.09091
8906.5 2.27273
8907.5 2.18182
8908.5 2.63636
8909.5 4.18182
8910.5 0.272727
8911.5 1.81818
8912.5 -1.54545
8913.5 2
8914.5 1.36364
8915.5 -0.181818
8916.5 0.181818
8917.5 -2.72727
8918.5 -3.54545
8919.5 0.272727
8920.5 2.18182
8921.5 -0.0909092
8922.5 3.36364
8923.5 3.27273
8924.5 3.09091
8925.5 -2.72727
8926.5 3.18182
8927.5 0.909091
8928.5 4.18182
8929.5 -2.18182
8930.5 -1.45455
8931.5 1.63636
8932.5 -2.18182
8933.5 -1
8934.5 -1.54545
8935.5 -1.18182
8936.5 -0.0909092
8937.5 4.09091
8938.5 -1.72727
8939.5 -0.272727
8940.5 0.363636
8941.5 3.81818
8942.5 1.63636
8943.5 0.363636
8944.5 0.909091
8945.5 3.63636
8946.5 -2
8947.5 2.36364
8948.5 -4.18182
8949.5 -2.54545
8950.5 1.63636
8951.5 -2.36364
8952.5 1.72727
8953.5 4.90909
8954.5 6.18182
8955.5 -1.09091
8956.5 2.27273
8957.5 -0.636364
8958.5 -0.272727
8959.5 1.18182
8960.5 0.363636
8961.5 2.72727
8962.5 -1.72727
8963.5 3.18182
8964.5 -1.09091
8965.5 0.363636
8966.5 0.818182
8967.5 -2.27273
8968.5 0.363636
8969.5 -8.09091
8970.5 0.909091
8971.5 0.727273
8972.5 1.81818
8973.5 -5.27273
8974.5 1.72727
8975.5 1.81818
8976.5 1.81818
8977.5 5.18182
8978.5 -0.181818
8979.5 2.27273
8980.5 1.09091
8981.5 5.18182
8982.5 1.81818
8983.5 1.18182
8984.5 4.63636
8985.5 4.27273
8986.5 4.72727
8987.5 -2
8988.5 4.27273
8989.5 1.63636
8990.5 4.45455
8991.5 0.818182
8992.5 2.27273
8993.5 0.818182
8994.5 0.818182
8995.5 -1.18182
8996.5 -1.18182
8997.5 -0.181818
8998.5 2.27273
8999.5 -1.49012e-07
9000.5 4.36364
9001.5 5.63636
9002.5 6.54545
9003.5 0.181818
9004.5 3.81818
9005.5 -1.18182
9006.5 0.636364
9007.5 1.18182
9008.5 7.63636
9009.5 1.27273
9010.5 1.09091
9011.5 2.27273
9012.5 -3.09091
9013.5 2.81818
9014.5 1.72727
9015.5 0.272727
9016.5 -0.272727
9017.5 0.636364
9018.5 0.363636
9019.5 1.09091
9020.5 -0.818182
9021.5 3.18182
9022.5 2.18182
9023.5 0.0909091
9024.5 4.09091
9025.5 -0.818182
9026.5 -2.09091
9027.5 -0.636364
9028.5 1.72727
9029.5 2.54545
9030.5 0.363636
9031.5 1.27273
9032.5 3.63636
9033.5 4.54545
9034.5 2.18182
9035.5 2.54545
9036.5 0.181818
9037.5 -3.54545
9038.5 0.0909091
9039.5 -0.727273
9040.5 2.72727
9041.5 1.18182
9042.5 -1.72727
9043.5 -0.727273
9044.5 0.0909091
9045.5 1.63636
9046.5 -0.727273
9047.5 0.727273
9048.5 2.09091
9049.5 -2.63636
9050.5 0.181818
9051.5 2.54545
9052.5 1.18182
9053.5 2.63636
9054.5 -0.818182
9055.5 2.63636
9056.5 0.181818
9057.5 3.09091
9058.5 -0.727273
9059.5 1.18182
9060.5 0.636364
9061.5 0.272727
9062.5 1.72727
9063.5 1.27273
9064.5 3.09091
9065.5 -0.636364
9066.5 -0.181818
9067.5 -1.36364
9068.5 1.81818
9069.5 1.63636
9070.5 -0.272727
9071.5 -1.36364
9072.5 -2.27273
9073.5 0.272727
9074.5 2.72727
9075.5 1.63636
9076.5 0.363636
9077.5 -0.545455
9078.5 2.54545
9079.5 1.27273
9080.5 -0.181818
9081.5 0.0909091
9082.5 -0.272727
9083.5 -2.18182
9084.5 0.272727
9085.5 5.81818
9086.5 0.272727
9087.5 0.181818
9088.5 -0.0909092
9089.5 -0.0909092
9090.5 -0.727273
9091.5 -2.09091
9092.5 0.454545
9093.5 -1.27273
9094.5 0.272727
9095.5 0.0909091
9096.5 0.818182
9097.5 0.636364
9098.5 5
9099.5 0.727273
9100.5 -1.72727
9101.5 2.18182
9102.5 1.63636
9103.5 -4.45455
9104.5 1.18182
9105.5 1.72727
9106.5 1.36364
9107.5 -4.09091
9108.5 0.818182
9109.5 3.18182
9110.5 -1.45455
9111.5 -1.27273
9112.5 -1.72727
9113.5 1.81818
9114.5 0.181818
9115.5 0.636364
9116.5 1.63636
9117.5 2.63636
9118.5 5.27273
9119.5 4.27273
9120.5 3.54545
9121.5 2.18182
9122.5 0.727273
9123.5 0.727273
9124.5 3.18182
9125.5 2.09091
9126.5 0.181818
9127.5 -2.27273
9128.5 2.09091
9129.5 -1.72727
9130.5 1.18182
9131.5 -2.27273
9132.5 -0.818182
9133.5 3.09091
9134.5 0.727273
9135.5 0.272727
9136.5 -0.272727
9137.5 -0.727273
9138.5 -1.27273
9139.5 1.09091
9140.5 0.727273
9141.5 -0.818182
9142.5 3.18182
9143.5 -0.272727
9144.5 -0.272727
9145.5 0.909091
9146.5 1.63636
9147.5 0.272727
9148.5 3.18182
9149.5 -1.18182
9150.5 3.18182
9151.5 2.63636
9152.5 2.63636
9153.5 -0.727273
9154.5 -0.272727
9155.5 2.63636
9156.5 0.181818
9157.5 0.545455
9158.5 -0.545455
9159.5 -2.72727
9160.5 0.0909091
9161.5 5.09091
9162.5 -0.727273
9163.5 0.272727
9164.5 0.181818
9165.5 2.72727
9166.5 0.0909091
9167.5 -0.636364
9168.5 2.72727
9169.5 -2.27273
9170.5 3.09091
9171.5 0.636364
9172.5 0.636364
9173.5 3.54545
9174.5 -0.363636
9175.5 1.54545
9176.5 -5.90909
9177.5 2.18182
9178.5 -0.818182
9179.5 -0.545455
9180.5 -3.18182
9181.5 -0.272727
9182.5 -0.272727
9183.5 4.18182
9184.5 4.54545
9185.5 0.181818
9186.5 -0.363636
9187.5 2.27273
9188.5 1.72727
9189.5 -0.181818
9190.5 -0.363636
9191.5 -2.18182
9192.5 -3.18182
9193.5 -0.363636
9194.5 -1.81818
9195.5 2.63636
9196.5 0.727273
9197.5 -1.81818
9198.5 0.636364
9199.5 1.72727
9200.5 -1.27273
9201.5 6.18182
9202.5 -1.54545
9203.5 0.272727
9204.5 4.18182
9205.5 5.72727
9206.5 3.63636
9207.5 -2.63636
9208.5 -2.18182
9209.5 -1.18182
9210.5 1.27273
9211.5 -0.818182
9212.5 4.63636
9213.5 4.63636
9214.5 -0.818182
9215.5 3.27273
9216.5 -2.18182
9217.5 2.09091
9218.5 -2.27273
9219.5 3.54545
9220.5 1.18182
9221.5 -0.363636
9222.5 -0.909091
9223.5 4.18182
9224.5 2.63636
9225.5 0.0909091
9226.5 -2.72727
9227.5 1.63636
9228.5 -1.18182
9229.5 -0.272727
9230.5 0.0909091
9231.5 -1.81818
9232.5 -1.72727
9233.5 -1.27273
9234.5 -0.363636
9235.5 1.63636
9236.5 -0.272727
9237.5 -0.272727
9238.5 2.18182
9239.5 -0.909091
9240.5 -1.36364
9241.5 0.636364
9242.5 0.727273
9243.5 1
9244.5 -2.18182
9245.5 -0.0909092
9246.5 -1.27273
9247.5 -0.818182
9248.5 -1.63636
9249.5 -2
9250.5 -2.72727
9251.5 -0.636364
9252.5 -0.363636
9253.5 -0.818182
9254.5 -0.272727
9255.5 -0.818182
9256.5 -0.818182
9257.5 0.636364
9258.5 1.09091
9259.5 0.181818
9260.5 1.63636
9261.5 1.09091
9262.5 2.09091
9263.5 -0.818182
9264.5 1.63636
9265.5 -2.27273
9266.5 -2.18182
9267.5 -0.272727
9268.5 1.09091
9269.5 -0.363636
9270.5 2.09091
9271.5 -1.72727
9272.5 -0.818182
9273.5 0.363636
9274.5 1.63636
9275.5 -0.727273
9276.5 -1.81818
9277.5 0.363636
9278.5 -0.818182
9279.5 3.72727
9280.5 -1.27273
9281.5 1.09091
9282.5 2.09091
9283.5 -1.72727
9284.5 -1.27273
9285.5 1.09091
9286.5 4.72727
9287.5 0.636364
9288.5 1.18182
9289.5 -0.363636
9290.5 2.09091
9291.5 -2.72727
9292.5 1.36364
9293.5 3.63636
9294.5 1.18182
9295.5 0.818182
9296.5 1.09091
9297.5 0.636364
9298.5 0.727273
9299.5 -1.18182
9300.5 -1.36364
9301.5 -2.72727
9302.5 1.63636
9303.5 1.54545
9304.5 0.0909091
9305.5 2.63636
9306.5 2.18182
9307.5 -0.818182
9308.5 1.09091
9309.5 0.272727
9310.5 -0.181818
9311.5 0.0909091
9312.5 0.181818
9313.5 0.181818
9314.5 0.0909091
9315.5 1.18182
9316.5 4.09091
9317.5 3.63636
9318.5 1.09091
9319.5 2.09091
9320.5 -0.363636
9321.5 1.72727
9322.5 -0.454545
9323.5 2
9324.5 2.63636
9325.5 -2.09091
9326.5 0.727273
9327.5 3.18182
9328.5 1.72727
9329.5 -1.81818
9330.5 -0.818182
9331.5 4.63636
9332.5 -2.18182
9333.5 -0.272727
9334.5 0.636364
9335.5 1.09091
9336.5 -1.63636
9337.5 0.0909091
9338.5 0.636364
9339.5 1.09091
9340.5 2.72727
9341.5 2.09091
9342.5 -0.363636
9343.5 0.181818
9344.5 1.09091
9345.5 -0.272727
9346.5 0.636364
9347.5 -0.818182
9348.5 0.0909091
9349.5 0.727273
9350.5 1.18182
9351.5 -0.363636
9352.5 1.18182
9353.5 4.54545
9354.5 0.0909091
9355.5 3.54545
9356.5 1.09091
9357.5 1.18182
9358.5 -1.36364
9359.5 3
9360.5 -0.818182
9361.5 1.63636
9362.5 -2.18182
9363.5 0.0909091
9364.5 -0.454545
9365.5 0.0909091
9366.5 -0.818182
9367.5 0.636364
9368.5 1.09091
9369.5 -1.81818
9370.5 2.63636
9371.5 -0.272727
9372.5 2.09091
9373.5 1.54545
9374.5 0
9375.5 1.81818
9376.5 0.636364
9377.5 0.0909091
9378.5 -1.36364
9379.5 -1.72727
9380.5 -0.909091
9381.5 -0.363636
9382.5 0.636364
9383.5 1.09091
9384.5 0.0909091
9385.5 4.54545
9386.5 2.54545
9387.5 1.18182
9388.5 1.54545
9389.5 -0.454545
9390.5 2.09091
9391.5 1.09091
9392.5 2.54545
9393.5 0.272727
9394.5 -1.36364
9395.5 -0.454545
9396.5 1
9397.5 1.72727
9398.5 1.18182
9399.5 -1.18182
9400.5 -1.36364
9401.5 2.54545
9402.5 -0.818182
9403.5 1.18182
9404.5 1
9405.5 2.54545
9406.5 0.0909091
9407.5 -0.363636
9408.5 1.18182
9409.5 4.09091
9410.5 2.09091
9411.5 3.63636
9412.5 0.0909091
9413.5 -0.272727
9414.5 -0.909091
9415.5 1.63636
9416.5 0.0909091
9417.5 2.54545
9418.5 0.181818
9419.5 1.54545
9420.5 -0.909091
9421.5 -0.454545
9422.5 0.181818
9423.5 1.54545
9424.5 -0.454545
9425.5 0.0909091
9426.5 -0.363636
9427.5 1.09091
9428.5 -1.27273
9429.5 1.18182
9430.5 2.09091
9431.5 0.181818
9432.5 -0.909091
9433.5 -2.27273
9434.5 -0.363636
9435.5 2.54545
9436.5 -0.272727
9437.5 -0.363636
9438.5 -2.27273
9439.5 -2.27273
9440.5 0.0909091
9441.5 0.636364
9442.5 -0.363636
9443.5 0.181818
9444.5 1.54545
9445.5 -2.18182
9446.5 -1.81818
9447.5 -0.909091
9448.5 0.181818
9449.5 -1.27273
9450.5 -0.909091
9451.5 -1.81818
9452.5 0.272727
9453.5 -1.27273
9454.5 -0.181818
9455.5 0.636364
9456.5 -3.45455
9457.5 0.545454
9458.5 -1.45455
9459.5 6.27273
9460.5 5.27273
9461.5 2.45455
9462.5 3.18182
9463.5 3
9464.5 1
9465.5 2
9466.5 1.18182
9467.5 0.181818
9468.5 0.181818
9469.5 -0.272727
9470.5 -1.27273
9471.5 -0.272727
9472.5 -0.818182
9473.5 2.63636
9474.5 -0.818182
9475.5 3.27273
9476.5 -0.818182
9477.5 -3.18182
9478.5 -1.18182
9479.5 -2.18182
9480.5 -0.818182
9481.5 0.636364
9482.5 -1.81818
9483.5 1.63636
9484.5 0.272727
9485.5 1
9486.5 -0.909091
9487.5 -2.27273
9488.5 2.18182
9489.5 1
9490.5 1.63636
9491.5 5.09091
9492.5 6.72727
9493.5 2.09091
9494.5 7.09091
9495.5 8.54545
9496.5 2.18182
9497.5 5
9498.5 3.54545
9499.5 4.27273
9500.5 5
9501.5 2.54545
9502.5 -2.72727
9503.5 -0.818182
9504.5 -3.54545
9505.5 -0.909091
9506.5 -0.363636
9507.5 1.09091
9508.5 2.09091
9509.5 -1.36364
9510.5 -0.454545
9511.5 -0.454545
9512.5 -0.454545
9513.5 0.545455
9514.5 0.545455
9515.5 1
9516.5 2.54545
9517.5 1.09091
9518.5 1
9519.5 0.545455
9520.5 1.09091
9521.5 -0.454545
9522.5 -0.454545
9523.5 1
9524.5 0.636364
9525.5 0.0909091
9526.5 0.636364
9527.5 2
9528.5 -0.818182
9529.5 0.545455
9530.5 -0.363636
9531.5 0.0909091
9532.5 -0.909091
9533.5 -0.454545
9534.5 0.545455
9535.5 -0.909091
9536.5 1.54545
9537.5 0.0909091
9538.5 -0.363636
9539.5 3.09091
9540.5 1.09091
9541.5 -0.454545
9542.5 0.0909091
9543.5 0.0909091
9544.5 0.0909091
9545.5 2.54545
9546.5 1
9547.5 0.636364
9548.5 2.54545
9549.5 -0.272727
9550.5 0.0909091
9551.5 1
9552.5 -0.454545
9553.5 0.0909091
9554.5 2.54545
9555.5 0.636364
9556.5 -0.454545
9557.5 1.09091
9558.5 0.545455
9559.5 1.54545
9560.5 -2.72727
9561.5 -0.454545
9562.5 0.636364
9563.5 -0.909091
9564.5 3.54545
9565.5 3.09091
9566.5 -0.454545
9567.5 0.545455
9568.5 0.545455
9569.5 0.0909091
9570.5 -1.36364
9571.5 1
9572.5 -1.36364
9573.5 -0.818182
9574.5 -1.81818
9575.5 -0.363636
9576.5 -0.363636
9577.5 0.0909091
9578.5 2
9579.5 0
9580.5 4.54545
9581.5 0.0909091
9582.5 -0.454545
9583.5 0.0909091
9584.5 3.54545
9585.5 0.545455
9586.5 0.545455
9587.5 0.0909091
9588.5 -0.454545
9589.5 0.0909091
9590.5 1.54545
9591.5 0.545455
9592.5 -0.909091
9593.5 -1.36364
9594.5 2.09091
9595.5 1.09091
9596.5 -0.818182
9597.5 0
9598.5 0.636364
9599.5 -0.363636
9600.5 -0.454545
9601.5 1.54545
9602.5 3.63636
9603.5 1.54545
9604.5 -0.909091
9605.5 3
9606.5 0.545455
9607.5 -1.36364
9608.5 0.545455
9609.5 -1.36364
9610.5 0.545455
9611.5 0
9612.5 1.54545
9613.5 -0.909091
9614.5 0.0909091
9615.5 0
9616.5 0
9617.5 -0.454545
9618.5 0.545455
9619.5 0.545455
9620.5 0.0909091
9621.5 1.09091
9622.5 1.09091
9623.5 1
9624.5 -0.363636
9625.5 2
9626.5 1.54545
9627.5 1
9628.5 1
9629.5 -1.36364
9630.5 1
9631.5 0.545455
9632.5 0.545455
9633.5 0.636364
9634.5 -1.36364
9635.5 -0.363636
9636.5 0
9637.5 -0.454545
9638.5 2.09091
9639.5 0.545455
9640.5 -0.454545
9641.5 1.54545
9642.5 0
9643.5 -1.36364
9644.5 1
9645.5 -0.363636
9646.5 -0.909091
9647.5 -0.363636
9648.5 -0.454545
9649.5 -0.909091
9650.5 -1.81818
9651.5 -0.363636
9652.5 2.54545
9653.5 -0.363636
9654.5 -0.454545
9655.5 0
9656.5 0.0909091
9657.5 -0.909091
9658.5 -0.454545
9659.5 -0.909091
9660.5 0.545455
9661.5 -0.909091
9662.5 -0.454545
9663.5 -0.909091
9664.5 0.0909091
9665.5 0
9666.5 1
9667.5 -0.454545
9668.5 -1.36364
9669.5 -2.27273
9670.5 -0.909091
9671.5 1.54545
9672.5 -0.363636
9673.5 0
9674.5 -0.909091
9675.5 -1.36364
9676.5 1
9677.5 1
9678.5 0
9679.5 0.0909091
9680.5 -0.454545
9681.5 -0.363636
9682.5 0.636364
9683.5 0
9684.5 2
9685.5 0
9686.5 0.545455
9687.5 -0.909091
9688.5 0
9689.5 -0.454545
9690.5 0.0909091
9691.5 1.54545
9692.5 1.09091
9693.5 0
9694.5 1.54545
9695.5 1
9696.5 -0.454545
9697.5 1.09091
9698.5 2
9699.5 0.545455
9700.5 2
9701.5 -0.363636
9702.5 -0.909091
9703.5 0
9704.5 0.636364
9705.5 -0.454545
9706.5 -0.454545
9707.5 -0.909091
9708.5 1
9709.5 -0.727273
9710.5 0.545455
9711.5 0.0909091
9712.5 2.54545
9713.5 3
9714.5 -1.36364
9715.5 0.545455
9716.5 -0.909091
9717.5 -0.454545
9718.5 5
9719.5 2
9720.5 0.0909091
9721.5 0.0909091
9722.5 -1.36364
9723.5 -1.36364
9724.5 0
9725.5 1.54545
9726.5 0.545455
9727.5 0.545455
9728.5 -0.909091
9729.5 0
9730.5 1
9731.5 0
9732.5 1
9733.5 -0.909091
9734.5 0.636364
9735.5 -0.454545
9736.5 0.545455
9737.5 -0.909091
9738.5 0.0909091
9739.5 -0.454545
9740.5 0
9741.5 0
9742.5 -0.909091
9743.5 0
9744.5 0.0909091
9745.5 -0.454545
9746.5 -0.909091
9747.5 -0.909091
9748.5 0
9749.5 0
9750.5 0.545455
9751.5 2
9752.5 1
9753.5 -0.454545
9754.5 -0.454545
9755.5 1.09091
9756.5 -0.454545
9757.5 0.0909091
9758.5 -0.818182
9759.5 -0.454545
9760.5 -0.363636
9761.5 1.54545
9762.5 -0.909091
9763.5 0
9764.5 -0.909091
9765.5 -0.363636
9766.5 0.545455
9767.5 0.545455
9768.5 0
9769.5 1.54545
9770.5 0
9771.5 2
9772.5 2
9773.5 -0.454545
9774.5 0
9775.5 0.545455
9776.5 1.54545
9777.5 -0.454545
9778.5 1
9779.5 0
9780.5 0
9781.5 -0.454545
9782.5 0
9783.5 -0.454545
9784.5 -1.36364
9785.5 1.09091
9786.5 -0.909091
9787.5 -0.454545
9788.5 0
9789.5 0.545455
9790.5 -0.454545
9791.5 -0.909091
9792.5 2
9793.5 0
9794.5 -0.454545
9795.5 1
9796.5 0
9797.5 -0.454545
9798.5 -0.454545
9799.5 1
9800.5 1
9801.5 -0.454545
9802.5 -0.909091
9803.5 1
9804.5 2
9805.5 1.54545
9806.5 0
9807.5 -1.36364
9808.5 -1.36364
9809.5 -0.454545
9810.5 0.545455
9811.5 0
9812.5 0
9813.5 0
9814.5 0
9815.5 -0.909091
9816.5 -1.36364
9817.5 0.0909091
9818.5 0.545455
9819.5 0
9820.5 0.545455
9821.5 -0.454545
9822.5 -1.36364
9823.5 0.0909091
9824.5 0
9825.5 0
9826.5 0.0909091
9827.5 0
9828.5 0
9829.5 0
9830.5 1
9831.5 1
9832.5 0.545455
9833.5 0
9834.5 -0.454545
9835.5 -0.454545
9836.5 -0.454545
9837.5 1
9838.5 -0.909091
9839.5 1.54545
9840.5 0
9841.5 -0.454545
9842.5 -0.454545
9843.5 -1.81818
9844.5 3
9845.5 0
9846.5 -1.36364
9847.5 -0.454545
9848.5 0
9849.5 0.0909091
9850.5 2
9851.5 -0.454545
9852.5 1
9853.5 0
9854.5 0
9855.5 1
9856.5 -0.909091
9857.5 -0.454545
9858.5 0.545455
9859.5 0
9860.5 0
9861.5 -0.454545
9862.5 1
9863.5 -0.454545
9864.5 -0.454545
9865.5 1
9866.5 -0.454545
9867.5 0
9868.5 0.0909091
9869.5 -0.454545
9870.5 -0.454545
9871.5 0
9872.5 0
9873.5 -0.454545
9874.5 1
9875.5 0
9876.5 0
9877.5 -0.909091
9878.5 0
9879.5 1.54545
9880.5 -0.454545
9881.5 0.0909091
9882.5 -0.454545
9883.5 0
9884.5 0.545455
9885.5 1
9886.5 1
9887.5 0
9888.5 0
9889.5 -0.454545
9890.5 0
9891.5 0
9892.5 0
9893.5 0
9894.5 -0.454545
9895.5 1
9896.5 0
9897.5 0.545455
9898.5 0
9899.5 -0.454545
9900.5 0
9901.5 2
9902.5 -0.454545
9903.5 -0.454545
9904.5 0
9905.5 1
9906.5 -1.36364
9907.5 -0.454545
9908.5 -0.909091
9909.5 0.545455
9910.5 0
9911.5 0.545455
9912.5 -0.909091
9913.5 0
9914.5 0
9915.5 1
9916.5 0.545455
9917.5 -0.454545
9918.5 0
9919.5 1
9920.5 1
9921.5 0
9922.5 0
9923.5 0
9924.5 -0.454545
9925.5 0
9926.5 1.54545
9927.5 0
9928.5 -0.454545
9929.5 0.545455
9930.5 0
9931.5 0
9932.5 0
9933.5 -0.454545
9934.5 1
9935.5 1
9936.5 1
9937.5 -0.454545
9938.5 0
9939.5 0
9940.5 0
9941.5 0
9942.5 -0.454545
9943.5 1
9944.5 0
9945.5 0
9946.5 -0.454545
9947.5 -0.454545
9948.5 0
9949.5 0
9950.5 0
9951.5 -0.909091
9952.5 -0.454545
9953.5 0
9954.5 -0.454545
9955.5 0
9956.5 -0.909091
9957.5 0
9958.5 0
9959.5 0
9960.5 -0.454545
9961.5 0.545455
9962.5 -0.454545
9963.5 0.545455
9964.5 1.09091
9965.5 0.0909091
9966.5 3
9967.5 1.18182
9968.5 -0.727273
9969.5 0.0909091
9970.5 0.727273
9971.5 0.181818
9972.5 0.636364
9973.5 0.181818
9974.5 -0.909091
9975.5 0.0909091
9976.5 1.09091
9977.5 0.545455
9978.5 -0.454545
9979.5 -0.454545
9980.5 0
9981.5 -0.818182
9982.5 0
9983.5 0.545455
9984.5 0
9985.5 0.545455
9986.5 0
9987.5 -0.454545
9988.5 0
9989.5 0.545455
9990.5 0.0909091
9991.5 0
9992.5 0
9993.5 0
9994.5 1
9995.5 0
9996.5 0
9997.5 0
9998.5 0
9999.5 0
10000.5 1
10001.5 0
10002.5 1
10003.5 0
10004.5 -0.454545
10005.5 -0.454545
10006.5 0
10007.5 1
10008.5 -0.454545
10009.5 1
10010.5 0
10011.5 0
10012.5 -0.454545
10013.5 -0.909091
10014.5 0
10015.5 -0.454545
10016.5 0
10017.5 -0.454545
10018.5 0
10019.5 0
10020.5 0
10021.5 0
10022.5 0
10023.5 -0.454545
10024.5 -0.909091
10025.5 0
10026.5 0
10027.5 1
10028.5 -0.454545
10029.5 -0.454545
10030.5 0
10031.5 0
10032.5 0
10033.5 0
10034.5 0
10035.5 0
10036.5 0
10037.5 0
10038.5 0
10039.5 1
10040.5 0
10041.5 0
10042.5 0
10043.5 -0.454545
10044.5 0
10045.5 -0.454545
10046.5 -0.454545
10047.5 1
10048.5 0
10049.5 -0.454545
10050.5 1
10051.5 -0.909091
10052.5 2
10053.5 0
10054.5 -0.454545
10055.5 -0.454545
10056.5 0
10057.5 -0.454545
10058.5 0
10059.5 1
10060.5 0
10061.5 1
10062.5 0
10063.5 0
10064.5 0
10065.5 -0.454545
10066.5 -0.454545
10067.5 0
10068.5 0
10069.5 0
10070.5 -0.454545
10071.5 -0.454545
10072.5 0
10073.5 0
10074.5 0
10075.5 -0.454545
10076.5 0
10077.5 0.545455
10078.5 0
10079.5 1
10080.5 1
10081.5 -0.454545
10082.5 -0.454545
10083.5 1
10084.5 -0.454545
10085.5 0
10086.5 0
10087.5 -0.454545
10088.5 0
10089.5 0
10090.5 0.545455
10091.5 0
10092.5 0
10093.5 -0.454545
10094.5 0
10095.5 0
10096.5 1
10097.5 0
10098.5 -0.909091
10099.5 0
10100.5 1
10101.5 0
10102.5 0
10103.5 -0.454545
10104.5 -0.909091
10105.5 0
10106.5 0
10107.5 -0.909091
10108.5 0
10109.5 0
10110.5 -0.454545
10111.5 0
10112.5 -0.363636
10113.5 0
10114.5 -0.454545
10115.5 0
10116.5 -0.454545
10117.5 -0.454545
10118.5 0
10119.5 0
10120.5 0
10121.5 0
10122.5 -0.909091
10123.5 0
10124.5 0
10125.5 0
10126.5 0
10127.5 0
10128.5 0
10129.5 0
10130.5 0
10131.5 -0.454545
10132.5 -0.454545
10133.5 0
10134.5 0
10135.5 1
10136.5 -0.454545
10137.5 0
10138.5 1
10139.5 -0.454545
10140.5 0
10141.5 1
10142.5 1
10143.5 0
10144.5 0
10145.5 1
10146.5 0
10147.5 1
10148.5 0
10149.5 -0.454545
10150.5 0
10151.5 -0.454545
10152.5 0
10153.5 0
10154.5 0
10155.5 1
10156.5 -0.909091
10157.5 0
10158.5 0
10159.5 0
10160.5 0
10161.5 -0.454545
10162.5 0
10163.5 1
10164.5 0
10165.5 0
10166.5 0
10167.5 0
10168.5 0
10169.5 0
10170.5 0
10171.5 0
10172.5 0
10173.5 0.545455
10174.5 0
10175.5 0
10176.5 0
10177.5 0
10178.5 -0.454545
10179.5 0
10180.5 0
10181.5 1
10182.5 0
10183.5 0
10184.5 0
10185.5 0
10186.5 0
10187.5 0.545455
10188.5 0
10189.5 0
10190.5 0
10191.5 1
10192.5 0
10193.5 0.545455
10194.5 0
10195.5 0.545455
10196.5 -0.454545
10197.5 -0.454545
10198.5 -0.454545
10199.5 0
10200.5 0
10201.5 0
10202.5 0
10203.5 -0.909091
10204.5 -0.454545
10205.5 -0.909091
10206.5 0
10207.5 0
10208.5 -0.454545
10209.5 0
10210.5 0
10211.5 -0.454545
10212.5 1
10213.5 1
10214.5 0
10215.5 -0.454545
10216.5 -0.454545
10217.5 0
10218.5 0
10219.5 0
10220.5 0
10221.5 0
10222.5 0
10223.5 0
10224.5 -0.454545
10225.5 0
10226.5 0
10227.5 0
10228.5 0
10229.5 0
10230.5 0
10231.5 0
10232.5 0
10233.5 0
10234.5 0.545455
10235.5 0
10236.5 0
10237.5 -0.454545
10238.5 0
10239.5 0
10240.5 0
10241.5 -0.454545
10242.5 0
10243.5 0
10244.5 0
10245.5 0
10246.5 1
10247.5 0
10248.5 0
10249.5 -0.454545
10250.5 0
10251.5 -0.909091
10252.5 0
10253.5 -0.454545
10254.5 -0.454545
10255.5 -0.454545
10256.5 -0.454545
10257.5 -0.454545
10258.5 0
10259.5 0
10260.5 0
10261.5 0
10262.5 0
10263.5 -0.454545
10264.5 0
10265.5 0
10266.5 0
10267.5 0
10268.5 0
10269.5 0
10270.5 0
10271.5 0
10272.5 0
10273.5 0
10274.5 0
10275.5 -0.454545
10276.5 -0.454545
10277.5 0
10278.5 0
10279.5 -0.454545
10280.5 0
10281.5 0
10282.5 0
10283.5 0
10284.5 0
10285.5 0
10286.5 0
10287.5 0
10288.5 0
10289.5 0
10290.5 0
10291.5 0
10292.5 0
10293.5 0
10294.5 0
10295.5 -0.454545
10296.5 1
10297.5 0
10298.5 0
10299.5 0
10300.5 0
10301.5 0.545455
10302.5 1
10303.5 -0.454545
10304.5 1
10305.5 -0.909091
10306.5 0
10307.5 0
10308.5 0
10309.5 0
10310.5 -0.454545
10311.5 -0.454545
10312.5 -0.909091
10313.5 0
10314.5 0
10315.5 0
10316.5 1
10317.5 -0.454545
10318.5 1
10319.5 0
10320.5 1
10321.5 1
10322.5 -0.454545
10323.5 0
10324.5 1
10325.5 0
10326.5 1
10327.5 0
10328.5 0
10329.5 0
10330.5 0
10331.5 -0.454545
10332.5 -0.909091
10333.5 -0.454545
10334.5 2
10335.5 -0.454545
10336.5 0
10337.5 0
10338.5 0
10339.5 0
10340.5 -0.454545
10341.5 0
10342.5 -0.454545
10343.5 0
10344.5 0
10345.5 0
10346.5 0
10347.5 1
10348.5 0
10349.5 0
10350.5 0
10351.5 0
10352.5 0
10353.5 0
10354.5 0
10355.5 0
10356.5 0
10357.5 1
10358.5 0
10359.5 0
10360.5 0
10361.5 0
10362.5 0
10363.5 0
10364.5 0
10365.5 1
10366.5 0
10367.5 0
10368.5 -0.454545
10369.5 0
10370.5 0.545455
10371.5 0
10372.5 1
10373.5 0
10374.5 0
10375.5 -0.454545
10376.5 -0.454545
10377.5 -0.454545
10378.5 -0.454545
10379.5 0
10380.5 0
10381.5 0
10382.5 0
10383.5 0
10384.5 0
10385.5 0
10386.5 0
10387.5 1
10388.5 0
10389.5 -0.454545
10390.5 0
10391.5 0
10392.5 0
10393.5 -0.454545
10394.5 0
10395.5 0
10396.5 -0.454545
10397.5 0
10398.5 0
10399.5 1
10400.5 0.545455
10401.5 0
10402.5 0
10403.5 0
10404.5 0
10405.5 0
10406.5 0
10407.5 -0.454545
10408.5 0
10409.5 0
10410.5 1
10411.5 -0.454545
10412.5 0
10413.5 0
10414.5 0
10415.5 0
10416.5 0
10417.5 0
10418.5 0
10419.5 0
10420.5 -0.454545
10421.5 0
10422.5 0
10423.5 0
10424.5 0
10425.5 0
10426.5 0
10427.5 1
10428.5 0
10429.5 0
10430.5 0
10431.5 1
10432.5 0
10433.5 0
10434.5 0
10435.5 0
10436.5 0
10437.5 0
10438.5 0
10439.5 0
10440.5 0
10441.5 0
10442.5 0
10443.5 -0.454545
10444.5 0
10445.5 1
10446.5 0
10447.5 0
10448.5 0
10449.5 0.545455
10450.5 -0.454545
10451.5 0
10452.5 -0.454545
10453.5 0
10454.5 0
10455.5 0
10456.5 0
10457.5 0
10458.5 0
10459.5 1
10460.5 0
10461.5 0
10462.5 -0.454545
10463.5 0
10464.5 0
10465.5 1
10466.5 0
10467.5 0
10468.5 -0.454545
10469.5 0
10470.5 0
10471.5 0
10472.5 0
10473.5 0
10474.5 0
10475.5 0
10476.5 0
10477.5 -0.454545
10478.5 1
10479.5 0
10480.5 0
10481.5 0
10482.5 0
10483.5 0
10484.5 0
10485.5 0
10486.5 0
10487.5 0
10488.5 0
10489.5 0
10490.5 -0.454545
10491.5 1
10492.5 0
10493.5 0
10494.5 0
10495.5 0
10496.5 0
10497.5 0
10498.5 -0.454545
10499.5 0
10500.5 -0.454545
10501.5 1
10502.5 0
10503.5 0
10504.5 0
10505.5 0
10506.5 0
10507.5 0
10508.5 0
10509.5 0
10510.5 0
10511.5 -0.454545
10512.5 0
10513.5 0
10514.5 0
10515.5 0
10516.5 0
10517.5 0
10518.5 -0.909091
10519.5 -0.454545
10520.5 0
10521.5 0
10522.5 0
10523.5 0
10524.5 0
10525.5 0
10526.5 0
10527.5 0
10528.5 0
10529.5 -0.454545
10530.5 0
10531.5 0
10532.5 0
10533.5 0
10534.5 0
10535.5 0
10536.5 0
10537.5 0
10538.5 0
10539.5 0
10540.5 -0.454545
10541.5 0
10542.5 0
10543.5 -0.454545
10544.5 0
10545.5 0
10546.5 0
10547.5 0
10548.5 0
10549.5 0
10550.5 -0.454545
10551.5 0
10552.5 0
10553.5 0
10554.5 0
10555.5 0
10556.5 0
10557.5 0
10558.5 0
10559.5 0
10560.5 0
10561.5 0
10562.5 0
10563.5 0
10564.5 0
10565.5 0
10566.5 0
10567.5 0
10568.5 0
10569.5 0
10570.5 0
10571.5 0
10572.5 0
10573.5 -0.454545
10574.5 0
10575.5 0
10576.5 0
10577.5 0
10578.5 0
10579.5 0
10580.5 0
10581.5 -0.454545
10582.5 0
10583.5 -0.454545
10584.5 0
10585.5 0
10586.5 0
10587.5 0
10588.5 0
10589.5 0
10590.5 0
10591.5 0
10592.5 0
10593.5 0
10594.5 0
10595.5 0
10596.5 0
10597.5 0
10598.5 0
10599.5 0
10600.5 0
10601.5 0
10602.5 0
10603.5 0
10604.5 0
10605.5 0
10606.5 0
10607.5 0
10608.5 0
10609.5 -0.454545
10610.5 0
10611.5 0
10612.5 0
10613.5 0
10614.5 1
10615.5 -0.454545
10616.5 -0.454545
10617.5 0
10618.5 0
10619.5 0
10620.5 -0.454545
10621.5 0
10622.5 1
10623.5 0
10624.5 0
10625.5 0
10626.5 0
10627.5 0
10628.5 0
10629.5 0
10630.5 0
10631.5 0
10632.5 0
10633.5 0
10634.5 -0.454545
10635.5 0
10636.5 0
10637.5 1
10638.5 1
10639.5 -0.454545
10640.5 0
10641.5 0
10642.5 0
10643.5 3
10644.5 0
10645.5 0
10646.5 0.545455
10647.5 1
10648.5 0
10649.5 0
10650.5 0
10651.5 0
10652.5 0
10653.5 0
10654.5 0
10655.5 1
10656.5 0
10657.5 0
10658.5 0
10659.5 0
10660.5 0
10661.5 -0.454545
10662.5 0
10663.5 0
10664.5 0
10665.5 0
10666.5 0.545455
10667.5 0
10668.5 0
10669.5 0
10670.5 -0.454545
10671.5 0
10672.5 0
10673.5 0
10674.5 0
10675.5 0
10676.5 0
10677.5 0
10678.5 0
10679.5 1
10680.5 0
10681.5 0
10682.5 0
10683.5 0
10684.5 0
10685.5 0
10686.5 0
10687.5 0
10688.5 0
10689.5 0
10690.5 0
10691.5 0
10692.5 0
10693.5 0
10694.5 0
10695.5 0
10696.5 0
10697.5 0
10698.5 0
10699.5 0
10700.5 0
10701.5 0
10702.5 0
10703.5 -0.454545
10704.5 0
10705.5 1
10706.5 0
10707.5 0
10708.5 0
10709.5 0
10710.5 0
10711.5 0
10712.5 0
10713.5 1
10714.5 0
10715.5 -0.454545
10716.5 1
10717.5 0
10718.5 0
10719.5 0
10720.5 0
10721.5 0
10722.5 0
10723.5 0
10724.5 0
10725.5 0
10726.5 0
10727.5 0
10728.5 0
10729.5 0
10730.5 -0.454545
10731.5 0
10732.5 0
10733.5 0
10734.5 0
10735.5 0
10736.5 0
10737.5 0
10738.5 0
10739.5 0
10740.5 0
10741.5 0
10742.5 1
10743.5 -0.454545
10744.5 0
10745.5 0
10746.5 0
10747.5 0
10748.5 -0.454545
10749.5 0
10750.5 0
10751.5 -0.454545
10752.5 0
10753.5 0
10754.5 0
10755.5 0
10756.5 0
10757.5 0
10758.5 0
10759.5 0
10760.5 0
10761.5 0
10762.5 0
10763.5 0
10764.5 0
10765.5 0
10766.5 0
10767.5 0
10768.5 0
10769.5 0
10770.5 0
10771.5 0
10772.5 0
10773.5 0
10774.5 0
10775.5 0
10776.5 0
10777.5 0
10778.5 0
10779.5 0
10780.5 0
10781.5 0
10782.5 0
10783.5 0
10784.5 0
10785.5 0
10786.5 0
10787.5 0
10788.5 0
10789.5 0
10790.5 0
10791.5 0
10792.5 0
10793.5 0
10794.5 0
10795.5 0
10796.5 0
10797.5 0
10798.5 0
10799.5 0
10800.5 0
10801.5 0
10802.5 1
10803.5 0
10804.5 0
10805.5 0
10806.5 0
10807.5 0
10808.5 0
10809.5 0
10810.5 0
10811.5 0
10812.5 0
10813.5 -0.454545
10814.5 0
10815.5 0
10816.5 0
10817.5 0
10818.5 0
10819.5 0
10820.5 0
10821.5 0
10822.5 0
10823.5 0.545455
10824.5 0
10825.5 0
10826.5 -0.454545
10827.5 0
10828.5 0
10829.5 0
10830.5 0
10831.5 0
10832.5 0
10833.5 0
10834.5 0
10835.5 -0.454545
10836.5 0
10837.5 0
10838.5 1
10839.5 0
10840.5 0
10841.5 0
10842.5 0
10843.5 0
10844.5 0
10845.5 1
10846.5 0
10847.5 -0.454545
10848.5 0
10849.5 -0.454545
10850.5 0
10851.5 0
10852.5 0
10853.5 -0.454545
10854.5 0
10855.5 0
10856.5 0
10857.5 0
10858.5 1
10859.5 0
10860.5 0
10861.5 0
10862.5 0
10863.5 0
10864.5 0
10865.5 0
10866.5 0
10867.5 0
10868.5 0
10869.5 0
10870.5 0
10871.5 0
10872.5 0
10873.5 0
10874.5 0
10875.5 0
10876.5 0
10877.5 0
10878.5 -0.454545
10879.5 0
10880.5 0
10881.5 0
10882.5 -0.454545
10883.5 0
10884.5 0
10885.5 0
10886.5 0
10887.5 0
10888.5 0
10889.5 0
10890.5 0
10891.5 0
10892.5 -0.454545
10893.5 0
10894.5 0
10895.5 0
10896.5 0
10897.5 0
10898.5 0
10899.5 0
10900.5 0
10901.5 0
10902.5 0
10903.5 0
10904.5 0
10905.5 0
10906.5 0
10907.5 0
10908.5 -0.454545
10909.5 0
10910.5 -0.909091
10911.5 0
10912.5 0
10913.5 -0.454545
10914.5 -0.454545
10915.5 0
10916.5 0
10917.5 0
10918.5 0
10919.5 0
10920.5 0
10921.5 0
10922.5 0
10923.5 0
10924.5 0
10925.5 0
10926.5 0
10927.5 -0.454545
10928.5 0
10929.5 0
10930.5 0
10931.5 0
10932.5 0
10933.5 0
10934.5 0
10935.5 0
10936.5 0
10937.5 0
10938.5 0
10939.5 0
10940.5 -0.454545
10941.5 1
10942.5 0
10943.5 0
10944.5 0
10945.5 0
10946.5 0
10947.5 0
10948.5 -0.454545
10949.5 0
10950.5 0
10951.5 0
10952.5 0
10953.5 0
10954.5 -0.454545
10955.5 0
10956.5 0
10957.5 0
10958.5 0
10959.5 0
10960.5 0
10961.5 0
10962.5 0
10963.5 0
10964.5 -0.454545
10965.5 0
10966.5 1
10967.5 0
10968.5 0
10969.5 0
10970.5 0
10971.5 0
10972.5 1
10973.5 0
10974.5 0
10975.5 0
10976.5 -0.454545
10977.5 0
10978.5 0
10979.5 0
10980.5 0
10981.5 0
10982.5 0
10983.5 -0.454545
10984.5 0
10985.5 0
10986.5 0
10987.5 0
10988.5 0
10989.5 0
10990.5 0
10991.5 0
10992.5 0
10993.5 0
10994.5 0
10995.5 0
10996.5 0
10997.5 0
10998.5 0
10999.5 0
11000.5 0
11001.5 0
11002.5 0
11003.5 0
11004.5 0
11005.5 0
11006.5 0
11007.5 0
11008.5 0
11009.5 -0.454545
11010.5 -0.454545
11011.5 0
11012.5 0
11013.5 1
11014.5 0
11015.5 -0.454545
11016.5 0
11017.5 0
11018.5 0
11019.5 0
11020.5 0
11021.5 0
11022.5 0
11023.5 0
11024.5 0
11025.5 0
11026.5 -0.454545
11027.5 0
11028.5 0
11029.5 0
11030.5 1
11031.5 0
11032.5 0
11033.5 0
11034.5 1
11035.5 0
11036.5 0
11037.5 0
11038.5 -0.454545
11039.5 -0.454545
11040.5 0
11041.5 0
11042.5 0
11043.5 0
11044.5 0
11045.5 -0.454545
11046.5 0
11047.5 0
11048.5 0
11049.5 0
11050.5 0
11051.5 0
11052.5 -0.454545
11053.5 0
11054.5 0
11055.5 0.545455
11056.5 0
11057.5 0
11058.5 0
11059.5 0
11060.5 0
11061.5 0
11062.5 0
11063.5 0
11064.5 -0.454545
11065.5 0
11066.5 0
11067.5 0
11068.5 0
11069.5 0
11070.5 0
11071.5 0
11072.5 0
11073.5 -0.454545
11074.5 0
11075.5 0
11076.5 0
11077.5 0
11078.5 0
11079.5 0.545455
11080.5 0
11081.5 0
11082.5 0
11083.5 0
11084.5 0
11085.5 0
11086.5 0
11087.5 0
11088.5 0
11089.5 0
11090.5 0
11091.5 0
11092.5 0
11093.5 0
11094.5 -0.909091
11095.5 0
11096.5 0
11097.5 0
11098.5 0
11099.5 0
11100.5 0
11101.5 0
11102.5 0
11103.5 -0.454545
11104.5 0
11105.5 0
11106.5 0
11107.5 0
11108.5 0
11109.5 1
11110.5 0
11111.5 0
11112.5 0
11113.5 0
11114.5 0
11115.5 0
11116.5 1
11117.5 -0.454545
11118.5 0
11119.5 0
11120.5 0
11121.5 1
11122.5 0
11123.5 0
11124.5 0
11125.5 0
11126.5 0
11127.5 0
11128.5 0
11129.5 0
11130.5 0
11131.5 0
11132.5 0
11133.5 0
11134.5 0
11135.5 0
11136.5 0
11137.5 0
11138.5 0
11139.5 0
11140.5 0
11141.5 0
11142.5 0
11143.5 0
11144.5 0
11145.5 0
11146.5 0
11147.5 -0.454545
11148.5 -0.454545
11149.5 0
11150.5 1
11151.5 0
11152.5 0
11153.5 0
11154.5 0
11155.5 0
11156.5 0
11157.5 0
11158.5 1
11159.5 0
11160.5 0
11161.5 -0.454545
11162.5 1
11163.5 0
11164.5 0
11165.5 0
11166.5 0
11167.5 0
11168.5 0
11169.5 0
11170.5 0
11171.5 0
11172.5 -0.454545
11173.5 0
11174.5 0
11175.5 0
11176.5 0
11177.5 0
11178.5 0
11179.5 0
11180.5 0
11181.5 0
11182.5 0
11183.5 -0.454545
11184.5 0
11185.5 0
11186.5 0
11187.5 0
11188.5 0
11189.5 -0.454545
11190.5 0
11191.5 0
11192.5 0
11193.5 0
11194.5 -0.454545
11195.5 -0.454545
11196.5 -0.454545
11197.5 0
11198.5 0
11199.5 0
11200.5 0
11201.5 0
11202.5 0
11203.5 0
11204.5 0
11205.5 0
11206.5 0
11207.5 0
11208.5 1
11209.5 0
11210.5 0
11211.5 0
11212.5 -0.454545
11213.5 -0.454545
11214.5 0
11215.5 0
11216.5 0
11217.5 0
11218.5 0
11219.5 0
11220.5 0
11221.5 -0.454545
11222.5 0
11223.5 0
11224.5 0
11225.5 0
11226.5 0
11227.5 0
11228.5 0
11229.5 -0.454545
11230.5 0
11231.5 0
11232.5 0
11233.5 0
11234.5 0
11235.5 0
11236.5 0
11237.5 0
11238.5 0
11239.5 0
11240.5 0
11241.5 0
11242.5 0
11243.5 0
11244.5 0
11245.5 0
11246.5 0
11247.5 0
11248.5 0
11249.5 1
11250.5 0
11251.5 0
11252.5 0
11253.5 0
11254.5 0.545455
11255.5 0
11256.5 0
11257.5 0
11258.5 0
11259.5 0
11260.5 0
11261.5 0
11262.5 0
11263.5 0
11264.5 0
11265.5 0
11266.5 1
11267.5 0
11268.5 1
11269.5 0
11270.5 1
11271.5 0
11272.5 0
11273.5 1
11274.5 0
11275.5 0
11276.5 0
11277.5 0
11278.5 0
11279.5 0
11280.5 0
11281.5 0
11282.5 1
11283.5 -0.454545
11284.5 0
11285.5 0
11286.5 0
11287.5 0
11288.5 0
11289.5 0
11290.5 0
11291.5 0
11292.5 0
11293.5 0
11294.5 0
11295.5 0
11296.5 0
11297.5 0
11298.5 0
11299.5 0
11300.5 0
11301.5 0
11302.5 0
11303.5 0
11304.5 0
11305.5 0
11306.5 0
11307.5 0
11308.5 0
11309.5 1
11310.5 0
11311.5 0
11312.5 0
11313.5 0
11314.5 0
11315.5 0
11316.5 0
11317.5 0
11318.5 0
11319.5 0
11320.5 0
11321.5 0
11322.5 0
11323.5 0
11324.5 0
11325.5 0
11326.5 0
11327.5 0
11328.5 0
11329.5 0
11330.5 0
11331.5 0
11332.5 0
11333.5 0
11334.5 0
11335.5 0
11336.5 0
11337.5 0
11338.5 0
11339.5 0
11340.5 0
11341.5 0
11342.5 0
11343.5 0
11344.5 0
11345.5 0.545455
11346.5 0
11347.5 0
11348.5 0
11349.5 0
11350.5 -0.454545
11351.5 0
11352.5 0
11353.5 -0.454545
11354.5 0
11355.5 0
11356.5 0
11357.5 0
11358.5 0
11359.5 0
11360.5 0
11361.5 0
11362.5 0
11363.5 0
11364.5 0
11365.5 0
11366.5 0
11367.5 0
11368.5 0
11369.5 -0.454545
11370.5 0
11371.5 0
11372.5 0
11373.5 0
11374.5 0
11375.5 0
11376.5 0
11377.5 0
11378.5 0
11379.5 0
11380.5 0
11381.5 0
11382.5 0
11383.5 0
11384.5 0
11385.5 0
11386.5 0
11387.5 0
11388.5 -0.454545
11389.5 0
11390.5 0
11391.5 0
11392.5 0
11393.5 0
11394.5 0
11395.5 0
11396.5 0
11397.5 0
11398.5 0
11399.5 0
11400.5 0
11401.5 -0.454545
11402.5 0
11403.5 0
11404.5 0
11405.5 0
11406.5 0
11407.5 0
11408.5 0
11409.5 0
11410.5 -0.454545
11411.5 0
11412.5 0
11413.5 -0.454545
11414.5 -0.454545
11415.5 0
11416.5 0
11417.5 0
11418.5 0
11419.5 0
11420.5 -0.454545
11421.5 1
11422.5 0
11423.5 0
11424.5 0
11425.5 0
11426.5 0
11427.5 0
11428.5 0
11429.5 0
11430.5 0
11431.5 0
11432.5 -0.454545
11433.5 0
11434.5 -0.454545
11435.5 0
11436.5 0
11437.5 0
11438.5 0
11439.5 0
11440.5 0
11441.5 0
11442.5 0
11443.5 0
11444.5 0
11445.5 0
11446.5 0
11447.5 1
11448.5 0
11449.5 0
11450.5 0
11451.5 0
11452.5 0
11453.5 0
11454.5 0
11455.5 0
11456.5 0
11457.5 0
11458.5 0
11459.5 0
11460.5 0
11461.5 0
11462.5 0
11463.5 0
11464.5 0
11465.5 0
11466.5 0
11467.5 0
11468.5 -0.454545
11469.5 0
11470.5 0
11471.5 0
11472.5 0
11473.5 0
11474.5 0
11475.5 0
11476.5 0
11477.5 0
11478.5 0
11479.5 0
11480.5 0
11481.5 0
11482.5 0
11483.5 0
11484.5 0
11485.5 0
11486.5 0
11487.5 0
11488.5 0
11489.5 -0.454545
11490.5 0
11491.5 0
11492.5 0
11493.5 0
11494.5 0
11495.5 0
11496.5 0
11497.5 0
11498.5 0
11499.5 0.0909091
11500.5 0
11501.5 0
11502.5 0
11503.5 0
11504.5 0
11505.5 0
11506.5 0
11507.5 0
11508.5 0
11509.5 0
11510.5 0
11511.5 0
11512.5 0
11513.5 0
11514.5 0
11515.5 -0.454545
11516.5 0
11517.5 0
11518.5 0
11519.5 0
11520.5 0
11521.5 0
11522.5 0
11523.5 -0.454545
11524.5 0
11525.5 0
11526.5 0
11527.5 0
11528.5 0
11529.5 0
11530.5 0
11531.5 0
11532.5 0
11533.5 0
11534.5 0
11535.5 0
11536.5 0
11537.5 0
11538.5 0
11539.5 0
11540.5 0
11541.5 0
11542.5 0
11543.5 0
11544.5 0
11545.5 0
11546.5 0
11547.5 0
11548.5 0
11549.5 0
11550.5 0
11551.5 0
11552.5 0
11553.5 0
11554.5 1
11555.5 0
11556.5 0
11557.5 0
11558.5 0
11559.5 0
11560.5 0
11561.5 0
11562.5 0
11563.5 0
11564.5 0
11565.5 0
11566.5 0
11567.5 0
11568.5 0
11569.5 0
11570.5 0
11571.5 0
11572.5 0
11573.5 0
11574.5 0
11575.5 0
11576.5 0
11577.5 0
11578.5 0
11579.5 0
11580.5 0
11581.5 0
11582.5 0
11583.5 0
11584.5 0
11585.5 0
11586.5 0
11587.5 0
11588.5 0
11589.5 0
11590.5 -0.454545
11591.5 0
11592.5 0
11593.5 0
11594.5 0
11595.5 0
11596.5 1
11597.5 0
11598.5 0
11599.5 0
11600.5 0
11601.5 0
11602.5 0
11603.5 0
11604.5 0
11605.5 0
11606.5 0
11607.5 0
11608.5 0
11609.5 0
11610.5 0
11611.5 0
11612.5 0
11613.5 0
11614.5 0
11615.5 0
11616.5 0
11617.5 0
11618.5 0
11619.5 0
11620.5 0
11621.5 0
11622.5 0
11623.5 0
11624.5 0
11625.5 0
11626.5 0
11627.5 0
11628.5 0
11629.5 0
11630.5 0
11631.5 0
11632.5 0
11633.5 0
11634.5 0
11635.5 0
11636.5 0
11637.5 0
11638.5 1
11639.5 0
11640.5 0
11641.5 0
11642.5 0
11643.5 0
11644.5 0
11645.5 0
11646.5 0
11647.5 0
11648.5 0
11649.5 0
11650.5 -0.454545
11651.5 0
11652.5 0
11653.5 0
11654.5 0
11655.5 0
11656.5 0
11657.5 0
11658.5 0
11659.5 0
11660.5 0
11661.5 0
11662.5 0
11663.5 0
11664.5 0
11665.5 0
11666.5 0
11667.5 0
11668.5 0
11669.5 0
11670.5 -0.454545
11671.5 0
11672.5 0
11673.5 0
11674.5 -0.454545
11675.5 0
11676.5 0
11677.5 0
11678.5 1
11679.5 0
11680.5 0.545455
11681.5 0
11682.5 0
11683.5 0
11684.5 0
11685.5 0
11686.5 -0.454545
11687.5 0
11688.5 0
11689.5 0
11690.5 0
11691.5 0
11692.5 0
11693.5 0
11694.5 0
11695.5 0
11696.5 0
11697.5 0
11698.5 0
11699.5 0
11700.5 0
11701.5 0
11702.5 0
11703.5 0
11704.5 0
11705.5 0
11706.5 -0.454545
11707.5 0
11708.5 0.545455
11709.5 -0.454545
11710.5 0
11711.5 0
11712.5 0
11713.5 0
11714.5 0
11715.5 0
11716.5 0
11717.5 0
11718.5 0
11719.5 0
11720.5 0
11721.5 0
11722.5 0
11723.5 0
11724.5 0
11725.5 0
11726.5 0
11727.5 0
11728.5 0
11729.5 1
11730.5 0
11731.5 0
11732.5 0
11733.5 0
11734.5 0
11735.5 0
11736.5 0
11737.5 0
11738.5 0
11739.5 -0.454545
11740.5 0
11741.5 0
11742.5 0
11743.5 0
11744.5 0
11745.5 1
11746.5 0
11747.5 0
11748.5 -0.454545
11749.5 0
11750.5 0
11751.5 0
11752.5 0
11753.5 0
11754.5 0
11755.5 -0.454545
11756.5 0
11757.5 0
11758.5 0
11759.5 0
11760.5 0
11761.5 0
11762.5 0
11763.5 1
11764.5 0
11765.5 0
11766.5 0
11767.5 0
11768.5 0
11769.5 1
11770.5 0
11771.5 -0.909091
11772.5 0
11773.5 0
11774.5 0
11775.5 0
11776.5 0
11777.5 0
11778.5 0
11779.5 0
11780.5 0
11781.5 0
11782.5 0
11783.5 0
11784.5 0
11785.5 0
11786.5 0
11787.5 0
11788.5 0
11789.5 0
11790.5 0
11791.5 0
11792.5 0
11793.5 0
11794.5 0
11795.5 0
11796.5 0
11797.5 0
11798.5 0
11799.5 0
11800.5 0
11801.5 1
11802.5 0
11803.5 0
11804.5 0
11805.5 0
11806.5 0
11807.5 0
11808.5 0
11809.5 0
11810.5 0
11811.5 0
11812.5 0
11813.5 0
11814.5 -0.454545
11815.5 0
11816.5 0
11817.5 0
11818.5 0
11819.5 0
11820.5 0
11821.5 0
11822.5 0
11823.5 0
11824.5 0
11825.5 0
11826.5 0
11827.5 0
11828.5 0
11829.5 0
11830.5 0
11831.5 1
11832.5 0
11833.5 0
11834.5 0
11835.5 0
11836.5 -0.454545
11837.5 0
11838.5 0
11839.5 0
11840.5 0
11841.5 0
11842.5 0
11843.5 0
11844.5 0
11845.5 0
11846.5 0
11847.5 0
11848.5 0
11849.5 0
11850.5 0
11851.5 0
11852.5 -0.454545
11853.5 0
11854.5 0
11855.5 0
11856.5 0
11857.5 0
11858.5 0
11859.5 0
11860.5 0
11861.5 0
11862.5 0
11863.5 0
11864.5 0
11865.5 0
11866.5 0
11867.5 0
11868.5 0
11869.5 0
11870.5 0
11871.5 0
11872.5 0
11873.5 0
11874.5 0
11875.5 0
11876.5 0
11877.5 0
11878.5 0
11879.5 0
11880.5 0
11881.5 0
11882.5 0
11883.5 0
11884.5 -0.454545
11885.5 -0.454545
11886.5 0
11887.5 0
11888.5 0
11889.5 0
11890.5 0
11891.5 0
11892.5 0
11893.5 0
11894.5 0
11895.5 0
11896.5 0
11897.5 0
11898.5 0
11899.5 0
11900.5 0
11901.5 0
11902.5 0
11903.5 0
11904.5 0
11905.5 0
11906.5 0
11907.5 0
11908.5 0
11909.5 0
11910.5 0
11911.5 0
11912.5 0
11913.5 0
11914.5 0
11915.5 0
11916.5 0
11917.5 0
11918.5 0
11919.5 0
11920.5 0
11921.5 0
11922.5 -0.454545
11923.5 0
11924.5 0
11925.5 0
11926.5 0
11927.5 0
11928.5 0
11929.5 0
11930.5 0
11931.5 0
11932.5 0
11933.5 0
11934.5 0
11935.5 0
11936.5 0
11937.5 0
11938.5 0
11939.5 0
11940.5 0
11941.5 0
11942.5 0
11943.5 0
11944.5 0
11945.5 0
11946.5 0
11947.5 0
11948.5 0
11949.5 0
11950.5 0
11951.5 0
11952.5 0
11953.5 0
11954.5 0
11955.5 1
11956.5 0
11957.5 0
11958.5 0
11959.5 0
11960.5 0
11961.5 0
11962.5 0
11963.5 0
11964.5 0
11965.5 0
11966.5 0
11967.5 0
11968.5 0
11969.5 0
11970.5 0
11971.5 0
11972.5 0
11973.5 0
11974.5 0
11975.5 0
11976.5 0
11977.5 0
11978.5 0
11979.5 0
11980.5 0
11981.5 0
11982.5 0
11983.5 0
11984.5 0
11985.5 0
11986.5 0
11987.5 0
11988.5 1
11989.5 0
11990.5 -0.454545
11991.5 0
11992.5 0
11993.5 0
11994.5 0
11995.5 0
11996.5 0
11997.5 0
11998.5 0
11999.5 0
