# EGG_ProjY_E4981.0(11.0)_B4966.0(3.0)_B5054.5(3.5)
# X axis : Energy (keV) [Y axis]
# Y axis : Counts/1 keV
# N Bins : 12000
# X Min : 0
# X Max : 12000
# X value at the center of the bins
0.5 0
1.5 0
2.5 0
3.5 0
4.5 0
5.5 82.1538
6.5 139.154
7.5 37.2308
8.5 42.7692
9.5 100.462
10.5 45.1538
11.5 25
12.5 54.8461
13.5 66.3077
14.5 78.2308
15.5 103.462
16.5 168.692
17.5 269.692
18.5 216.692
19.5 287.923
20.5 289.154
21.5 391.769
22.5 477.462
23.5 463.846
24.5 471
25.5 562.308
26.5 567.692
27.5 707.077
28.5 740.615
29.5 879.077
30.5 974.769
31.5 986
32.5 1029.46
33.5 842.462
34.5 840.846
35.5 865.615
36.5 1082.46
37.5 1189.69
38.5 1096.85
39.5 968.231
40.5 1115.92
41.5 1245.62
42.5 1058
43.5 1030.54
44.5 1197.46
45.5 1112.62
46.5 1199.92
47.5 1139.23
48.5 1101.31
49.5 1313.92
50.5 1388.23
51.5 1303.15
52.5 1097.77
53.5 1040.08
54.5 1220.31
55.5 1338.46
56.5 1351.38
57.5 1316.69
58.5 1618.77
59.5 1749.46
60.5 1494.46
61.5 1185.46
62.5 1285.54
63.5 1165.62
64.5 1189.54
65.5 1273.69
66.5 1356.85
67.5 1471.62
68.5 1271.38
69.5 1504.08
70.5 1437.38
71.5 1370
72.5 1493.46
73.5 1776.69
74.5 2009.54
75.5 2109.15
76.5 2395.54
77.5 2757.15
78.5 1732.69
79.5 1483.92
80.5 1183.31
81.5 1264.46
82.5 1277.77
83.5 1464.08
84.5 1565.62
85.5 1625.62
86.5 1598.92
87.5 2252.54
88.5 1673.38
89.5 1487.08
90.5 1424.38
91.5 1309.15
92.5 1270.46
93.5 1590.85
94.5 1443.62
95.5 1420.92
96.5 1325
97.5 1491.38
98.5 1432.92
99.5 1424.23
100.5 1440.85
101.5 1290.69
102.5 1537.77
103.5 1271.77
104.5 1545.85
105.5 1455.08
106.5 1495.15
107.5 1455.15
108.5 1476.15
109.5 1644.08
110.5 1688.62
111.5 1560.08
112.5 1498.77
113.5 1485.38
114.5 1633.38
115.5 1527.08
116.5 1810.69
117.5 1555.77
118.5 1636.31
119.5 1554.85
120.5 1673
121.5 1788.31
122.5 1505.77
123.5 1564.69
124.5 1551.92
125.5 1695.15
126.5 1584.46
127.5 1661
128.5 1859.92
129.5 1458.85
130.5 1677
131.5 1715.77
132.5 1646.15
133.5 1702.69
134.5 1697.15
135.5 1513.77
136.5 1729.62
137.5 1617.69
138.5 1520.69
139.5 2044.77
140.5 1921.85
141.5 1846.46
142.5 1748.62
143.5 1813.77
144.5 1730.77
145.5 1944.77
146.5 1900.23
147.5 2138.38
148.5 1809.08
149.5 1586.92
150.5 1533.23
151.5 1951.77
152.5 1575.38
153.5 1936.23
154.5 1738
155.5 1872.31
156.5 1820.46
157.5 1959.62
158.5 2146.69
159.5 2133.62
160.5 1780
161.5 1804
162.5 1980.38
163.5 1827.77
164.5 1778.23
165.5 1838
166.5 1746.15
167.5 1808
168.5 1772.08
169.5 1667.62
170.5 2057.77
171.5 2278.31
172.5 2199.77
173.5 2137.31
174.5 2259
175.5 2034.77
176.5 2190
177.5 2344.46
178.5 2384.85
179.5 2440.85
180.5 2208
181.5 2309.69
182.5 2304.92
183.5 2296.15
184.5 2179
185.5 2149.54
186.5 2462.08
187.5 2075.38
188.5 2373.46
189.5 2369.15
190.5 1947.46
191.5 1690.23
192.5 2070
193.5 2077.46
194.5 2156.77
195.5 2094.92
196.5 1997.46
197.5 2162.92
198.5 2281.85
199.5 2091.77
200.5 2285.92
201.5 2459
202.5 2567.38
203.5 2193.54
204.5 2216.77
205.5 2310.08
206.5 2054.62
207.5 2003.77
208.5 2351.08
209.5 2295.77
210.5 2608
211.5 2467.77
212.5 2786.85
213.5 2440.15
214.5 2802.23
215.5 2566.23
216.5 2765.77
217.5 2422.46
218.5 2442.15
219.5 2566.69
220.5 2688.08
221.5 2569.38
222.5 2362.69
223.5 2246.31
224.5 2370.15
225.5 2106.23
226.5 1951.54
227.5 2036.31
228.5 2269.23
229.5 2154.62
230.5 2235
231.5 2291.77
232.5 2330.54
233.5 2184.77
234.5 2348.15
235.5 2346
236.5 2448.92
237.5 2026.46
238.5 2352.54
239.5 2463.92
240.5 2220.31
241.5 2402.38
242.5 2502.31
243.5 2261.85
244.5 2190.69
245.5 2333.92
246.5 2306.92
247.5 2197.46
248.5 2216.85
249.5 2328.23
250.5 2117.85
251.5 2230.31
252.5 2218.15
253.5 2209.38
254.5 1962.69
255.5 1924.69
256.5 1917.46
257.5 1985.38
258.5 1767.62
259.5 2174.62
260.5 1882.69
261.5 1838.62
262.5 1848.92
263.5 1887.62
264.5 1917.77
265.5 1925.31
266.5 1765.62
267.5 1660.46
268.5 1870.54
269.5 2003.38
270.5 1884.23
271.5 1756
272.5 1934.77
273.5 1841.85
274.5 1883.69
275.5 1762.08
276.5 1791.77
277.5 1845.31
278.5 2140.77
279.5 1992.69
280.5 2169.46
281.5 1857
282.5 2074
283.5 2090.54
284.5 2092.92
285.5 2042.77
286.5 2058.62
287.5 1992.15
288.5 2112.69
289.5 2012.38
290.5 2199.92
291.5 1973.69
292.5 1681.23
293.5 1583.23
294.5 1347
295.5 997.692
296.5 1134.69
297.5 1124.15
298.5 1049.54
299.5 1148.23
300.5 1291.69
301.5 1168
302.5 1437.92
303.5 1500.54
304.5 1872.69
305.5 1807.15
306.5 1761.85
307.5 2076.38
308.5 1699.54
309.5 1685.77
310.5 1599.46
311.5 1713.31
312.5 1701.31
313.5 1713.77
314.5 1677.62
315.5 1554.38
316.5 1854.15
317.5 1846.46
318.5 1700.85
319.5 1724.92
320.5 1615.77
321.5 1792.15
322.5 1775.69
323.5 1659.77
324.5 1712.08
325.5 1670.31
326.5 1636.54
327.5 1492.69
328.5 1290.85
329.5 1047
330.5 935.769
331.5 706.308
332.5 560.308
333.5 783.308
334.5 869.769
335.5 755.308
336.5 753.846
337.5 636.538
338.5 699.923
339.5 557.231
340.5 752.538
341.5 548.308
342.5 715.231
343.5 807.769
344.5 1062.69
345.5 1103.77
346.5 1266
347.5 1438.69
348.5 1521.08
349.5 1569
350.5 1382.69
351.5 1488.15
352.5 1365.69
353.5 1452.23
354.5 1604.38
355.5 1452.08
356.5 1490.46
357.5 1546.15
358.5 1467.08
359.5 1581.77
360.5 1659.38
361.5 1473
362.5 1792.23
363.5 1790.69
364.5 1800.23
365.5 1713.77
366.5 1928
367.5 1858.85
368.5 1837.15
369.5 1660.31
370.5 1908.85
371.5 1812.69
372.5 1855.31
373.5 1798
374.5 1748.23
375.5 1872
376.5 1618.54
377.5 1787.15
378.5 1597.08
379.5 1684.31
380.5 1390.85
381.5 1404.85
382.5 1403.46
383.5 1007.46
384.5 1057.92
385.5 759.154
386.5 741.538
387.5 521.077
388.5 523
389.5 625.923
390.5 912.846
391.5 1059.31
392.5 1140.62
393.5 1389.69
394.5 1362.31
395.5 1436.08
396.5 1491.23
397.5 1628
398.5 1516.62
399.5 1556.23
400.5 1781.46
401.5 1744.15
402.5 2571.69
403.5 4135.54
404.5 4390.62
405.5 2673.77
406.5 2222
407.5 2128.62
408.5 1948.77
409.5 2264.69
410.5 2163.23
411.5 2144.69
412.5 2324
413.5 2375.69
414.5 2088.54
415.5 1959.77
416.5 1636.69
417.5 1624.54
418.5 1430
419.5 1231.54
420.5 1070.69
421.5 1008.31
422.5 958.385
423.5 1067.69
424.5 832.615
425.5 844.692
426.5 623.231
427.5 431.308
428.5 376.846
429.5 -47.1539
430.5 101.231
431.5 264.154
432.5 322.846
433.5 412.154
434.5 569.923
435.5 711.769
436.5 784.846
437.5 929.769
438.5 819
439.5 885.538
440.5 1028.23
441.5 1017.23
442.5 945.385
443.5 968.308
444.5 966.154
445.5 989.615
446.5 949.692
447.5 1037.31
448.5 889.769
449.5 854.538
450.5 807.077
451.5 862.923
452.5 922.077
453.5 826.308
454.5 741.615
455.5 627.462
456.5 686.154
457.5 643.769
458.5 592.462
459.5 672.846
460.5 569.462
461.5 682.538
462.5 881.846
463.5 726.923
464.5 815.385
465.5 679.769
466.5 815.385
467.5 754.846
468.5 615.846
469.5 751.231
470.5 949.846
471.5 885.231
472.5 913.385
473.5 1020.23
474.5 938.923
475.5 962.462
476.5 968.385
477.5 996.923
478.5 1164.15
479.5 995.692
480.5 799.231
481.5 927.538
482.5 887.538
483.5 862.308
484.5 860.692
485.5 884.538
486.5 942.692
487.5 892.692
488.5 1062.23
489.5 928.769
490.5 903.923
491.5 959.231
492.5 940.077
493.5 1080.38
494.5 1130.38
495.5 1097
496.5 1025.38
497.5 977.615
498.5 1196.62
499.5 1087.08
500.5 1147.31
501.5 1114.62
502.5 1069.15
503.5 1187.62
504.5 1678.38
505.5 3193.31
506.5 6493.31
507.5 10954.2
508.5 13513.4
509.5 13511.5
510.5 12516.1
511.5 9805.46
512.5 5810
513.5 3043.23
514.5 1819.23
515.5 1973.31
516.5 3176.92
517.5 3248.46
518.5 1624.23
519.5 946.615
520.5 941.923
521.5 787.308
522.5 796.077
523.5 707.923
524.5 780.615
525.5 736.923
526.5 875.308
527.5 837.077
528.5 800.385
529.5 862.231
530.5 816.462
531.5 1021.92
532.5 969.769
533.5 853.692
534.5 1033.15
535.5 907.615
536.5 967.769
537.5 926.615
538.5 818
539.5 897.538
540.5 834.692
541.5 868.923
542.5 827.692
543.5 870.308
544.5 771.385
545.5 672.385
546.5 751.538
547.5 784.538
548.5 818.846
549.5 522.077
550.5 765.769
551.5 722.538
552.5 836.231
553.5 782.308
554.5 805.846
555.5 585.846
556.5 833.154
557.5 836.231
558.5 806.846
559.5 894.692
560.5 887.385
561.5 831.769
562.5 794.923
563.5 747.615
564.5 707.846
565.5 875.538
566.5 723.769
567.5 785.077
568.5 645.846
569.5 767.846
570.5 642
571.5 765.154
572.5 636.462
573.5 634.385
574.5 841.308
575.5 796.077
576.5 756.923
577.5 825.769
578.5 734
579.5 715.154
580.5 863.769
581.5 904.077
582.5 1043.15
583.5 1120.92
584.5 933.385
585.5 870.923
586.5 913.615
587.5 864.538
588.5 819.923
589.5 900.923
590.5 811.154
591.5 734.308
592.5 691.923
593.5 782.769
594.5 728.077
595.5 691.769
596.5 927.077
597.5 861.692
598.5 793.231
599.5 950
600.5 928
601.5 939
602.5 935.462
603.5 836.615
604.5 831.308
605.5 904.615
606.5 901.154
607.5 799.615
608.5 838.308
609.5 774.385
610.5 820.846
611.5 826.923
612.5 814.231
613.5 732.154
614.5 736.692
615.5 671.077
616.5 633.077
617.5 739.462
618.5 703.846
619.5 651.308
620.5 834.231
621.5 826.154
622.5 761.846
623.5 731.769
624.5 819.154
625.5 829.692
626.5 795.769
627.5 964.615
628.5 1296.08
629.5 1025.46
630.5 829.846
631.5 778.692
632.5 744.077
633.5 759.385
634.5 806.615
635.5 791
636.5 1145.69
637.5 1239.54
638.5 1092.77
639.5 901.231
640.5 775.308
641.5 712.615
642.5 843.538
643.5 753.692
644.5 730.769
645.5 791.385
646.5 740.385
647.5 729.692
648.5 750.154
649.5 865.462
650.5 1343.38
651.5 1100.31
652.5 803.308
653.5 761.385
654.5 679
655.5 727.308
656.5 816.154
657.5 712.154
658.5 706.769
659.5 693.692
660.5 667
661.5 695.385
662.5 801.923
663.5 747.385
664.5 742.154
665.5 856.923
666.5 847.231
667.5 736.846
668.5 803.231
669.5 769.615
670.5 632.692
671.5 748.846
672.5 629.538
673.5 820.615
674.5 697.154
675.5 741.769
676.5 744
677.5 655.923
678.5 754.846
679.5 798.385
680.5 675.385
681.5 685.385
682.5 695.308
683.5 737.692
684.5 704.846
685.5 708.385
686.5 719.538
687.5 722.231
688.5 797.385
689.5 690.231
690.5 796.077
691.5 694.692
692.5 707.846
693.5 803.692
694.5 738.923
695.5 722.077
696.5 691.538
697.5 685.385
698.5 660.769
699.5 724.308
700.5 736.385
701.5 667.231
702.5 800.923
703.5 795.846
704.5 783.692
705.5 843.615
706.5 687.308
707.5 698
708.5 745.077
709.5 621.846
710.5 697.923
711.5 740.923
712.5 740.692
713.5 758.462
714.5 790
715.5 771.462
716.5 688.923
717.5 686.154
718.5 636.077
719.5 665.077
720.5 701.846
721.5 733.154
722.5 771
723.5 681.077
724.5 767.385
725.5 765.846
726.5 745.154
727.5 605.538
728.5 683.538
729.5 831.846
730.5 802
731.5 663.923
732.5 713.462
733.5 742.538
734.5 731.923
735.5 750.077
736.5 728
737.5 791.154
738.5 814.615
739.5 561.154
740.5 758.615
741.5 747.308
742.5 785.846
743.5 734.154
744.5 749.385
745.5 792
746.5 668
747.5 847.769
748.5 773.231
749.5 785.538
750.5 674.154
751.5 793.615
752.5 793.923
753.5 786.846
754.5 693.538
755.5 734.385
756.5 797.923
757.5 758.308
758.5 837.923
759.5 1074.31
760.5 1937.62
761.5 1892.31
762.5 1440.38
763.5 861.385
764.5 858.923
765.5 807.385
766.5 816.692
767.5 835.615
768.5 779.769
769.5 855.769
770.5 672.308
771.5 868.846
772.5 718.615
773.5 749.385
774.5 752.462
775.5 865.308
776.5 673.231
777.5 734.538
778.5 781.385
779.5 829.385
780.5 732.462
781.5 870.538
782.5 677.077
783.5 747.462
784.5 973.538
785.5 1425.62
786.5 1611.38
787.5 1662.08
788.5 1658.38
789.5 1104.62
790.5 840.846
791.5 765.385
792.5 850.077
793.5 739.308
794.5 798.923
795.5 798.692
796.5 719.462
797.5 702.154
798.5 832.769
799.5 770.769
800.5 637.385
801.5 791.308
802.5 838.538
803.5 1076.38
804.5 1498.15
805.5 4472.46
806.5 9011.85
807.5 8279.92
808.5 3673.85
809.5 1463.08
810.5 825.846
811.5 778.308
812.5 846.154
813.5 869.769
814.5 765.077
815.5 763.769
816.5 721
817.5 672.769
818.5 841.154
819.5 749.846
820.5 745.462
821.5 879.385
822.5 961.769
823.5 882.385
824.5 802.923
825.5 772.923
826.5 683.231
827.5 753.846
828.5 715.308
829.5 782.692
830.5 723.154
831.5 657.154
832.5 779.077
833.5 846.385
834.5 703.769
835.5 797.538
836.5 724.846
837.5 764.846
838.5 835.308
839.5 667.077
840.5 802.385
841.5 688.077
842.5 792.846
843.5 597.462
844.5 750.308
845.5 575.615
846.5 700
847.5 800.692
848.5 667.846
849.5 814.077
850.5 845.077
851.5 860.846
852.5 877.692
853.5 730
854.5 740.615
855.5 910.692
856.5 1288.77
857.5 1605.46
858.5 1396
859.5 981.308
860.5 885
861.5 846.538
862.5 764.154
863.5 761.615
864.5 826.692
865.5 796.154
866.5 884.385
867.5 859.923
868.5 1106.85
869.5 1143.92
870.5 988.846
871.5 825.692
872.5 813.462
873.5 886.538
874.5 880.231
875.5 872.308
876.5 981.385
877.5 1286.38
878.5 1193
879.5 1019.15
880.5 926.615
881.5 905.231
882.5 1066.92
883.5 1027.08
884.5 1016.85
885.5 887.769
886.5 882.385
887.5 772.154
888.5 869.538
889.5 926.923
890.5 985.077
891.5 955.538
892.5 743.615
893.5 965.385
894.5 979.692
895.5 975.154
896.5 992.538
897.5 950.385
898.5 983.769
899.5 1028.54
900.5 951.385
901.5 1048.69
902.5 1095.77
903.5 1132.15
904.5 991.462
905.5 1144.92
906.5 1177.46
907.5 1146.54
908.5 1195.62
909.5 1189.08
910.5 1205.08
911.5 1103
912.5 1037.77
913.5 1022.77
914.5 1191.92
915.5 1061.15
916.5 1169.31
917.5 1119.92
918.5 1037.69
919.5 1013.31
920.5 887.769
921.5 923
922.5 981.462
923.5 958.692
924.5 1000.46
925.5 883.385
926.5 890.923
927.5 831.077
928.5 868.385
929.5 676.077
930.5 733.231
931.5 901.308
932.5 772.846
933.5 795.846
934.5 834.923
935.5 899.231
936.5 841.154
937.5 1074.69
938.5 858.692
939.5 772.231
940.5 891.615
941.5 848.615
942.5 978.077
943.5 796.308
944.5 856.538
945.5 904.154
946.5 795.769
947.5 705.308
948.5 631.615
949.5 719.538
950.5 655.923
951.5 656.615
952.5 658.462
953.5 795.077
954.5 714.308
955.5 716.615
956.5 637.538
957.5 773.077
958.5 648.846
959.5 640.846
960.5 693.846
961.5 719.769
962.5 658.385
963.5 646.538
964.5 663.615
965.5 697.308
966.5 648.846
967.5 689.077
968.5 661.923
969.5 617.385
970.5 629.846
971.5 629.538
972.5 655.385
973.5 478
974.5 599.308
975.5 606.846
976.5 578
977.5 518.923
978.5 600.769
979.5 611.231
980.5 634.154
981.5 699.769
982.5 685.846
983.5 666.692
984.5 702.231
985.5 509.385
986.5 539.385
987.5 542.308
988.5 574.077
989.5 537.846
990.5 613
991.5 575.462
992.5 623.154
993.5 577.462
994.5 542.846
995.5 581.462
996.5 447.615
997.5 666.538
998.5 880.462
999.5 2071.54
1000.5 6029.54
1001.5 11933.3
1002.5 10675.2
1003.5 4352.92
1004.5 1242.62
1005.5 510.615
1006.5 559.462
1007.5 509.538
1008.5 520.923
1009.5 653.769
1010.5 563.462
1011.5 534.615
1012.5 573.231
1013.5 526
1014.5 574
1015.5 768.846
1016.5 1154
1017.5 1115.46
1018.5 749.231
1019.5 584.846
1020.5 490.846
1021.5 467.154
1022.5 544.923
1023.5 666.538
1024.5 798
1025.5 546.385
1026.5 521.769
1027.5 429.077
1028.5 460.077
1029.5 447.769
1030.5 412.692
1031.5 478.385
1032.5 474.462
1033.5 411.538
1034.5 373.538
1035.5 380.846
1036.5 422.231
1037.5 374.231
1038.5 361.231
1039.5 406.769
1040.5 351.538
1041.5 356.231
1042.5 365.692
1043.5 448.538
1044.5 390.154
1045.5 349.923
1046.5 362.846
1047.5 436.385
1048.5 320.846
1049.5 287.538
1050.5 275.462
1051.5 315.846
1052.5 341.462
1053.5 308.538
1054.5 305.692
1055.5 195.462
1056.5 183.769
1057.5 323
1058.5 266.077
1059.5 415.308
1060.5 414.385
1061.5 277.385
1062.5 305.462
1063.5 258.846
1064.5 298.692
1065.5 270.692
1066.5 353.462
1067.5 207.154
1068.5 188.077
1069.5 320.769
1070.5 383.846
1071.5 516.923
1072.5 1226.08
1073.5 2754.62
1074.5 3383.08
1075.5 2113.38
1076.5 733.077
1077.5 378.615
1078.5 260
1079.5 281.692
1080.5 269.615
1081.5 312.538
1082.5 310.154
1083.5 237.692
1084.5 284.615
1085.5 247.923
1086.5 310.231
1087.5 221
1088.5 342.769
1089.5 234
1090.5 340.385
1091.5 243.538
1092.5 348.154
1093.5 359.923
1094.5 339.923
1095.5 227.308
1096.5 255.462
1097.5 331
1098.5 222.154
1099.5 339.308
1100.5 215.692
1101.5 208.692
1102.5 273.385
1103.5 299.231
1104.5 238.462
1105.5 323.769
1106.5 311.615
1107.5 246.077
1108.5 310.231
1109.5 361.154
1110.5 341.615
1111.5 309.385
1112.5 271.538
1113.5 269.077
1114.5 334.769
1115.5 243.846
1116.5 418.615
1117.5 315.923
1118.5 344.538
1119.5 371.615
1120.5 310.846
1121.5 570.462
1122.5 1220.46
1123.5 3861.31
1124.5 12962.9
1125.5 30701.6
1126.5 34511.9
1127.5 15847.6
1128.5 3907.62
1129.5 1223.85
1130.5 1438.23
1131.5 1672.77
1132.5 966.231
1133.5 436.462
1134.5 367.385
1135.5 195.154
1136.5 258.692
1137.5 305.538
1138.5 224.769
1139.5 290.692
1140.5 403.538
1141.5 322.615
1142.5 228.769
1143.5 201.154
1144.5 158.769
1145.5 168.846
1146.5 154.154
1147.5 201.077
1148.5 207.308
1149.5 237.231
1150.5 198.308
1151.5 292.308
1152.5 464.308
1153.5 1510.46
1154.5 4731.15
1155.5 15286.1
1156.5 33170.1
1157.5 34222.5
1158.5 14219.5
1159.5 3126.23
1160.5 657.538
1161.5 312.538
1162.5 341.692
1163.5 565
1164.5 643.769
1165.5 704
1166.5 275.077
1167.5 132.692
1168.5 105.846
1169.5 126.846
1170.5 51.1538
1171.5 107.462
1172.5 117
1173.5 108.077
1174.5 101.923
1175.5 135.538
1176.5 80.3846
1177.5 137.846
1178.5 168.385
1179.5 177.538
1180.5 58.6923
1181.5 64.1538
1182.5 25.8461
1183.5 167.769
1184.5 101.385
1185.5 68.7692
1186.5 167.385
1187.5 35.3846
1188.5 92.0769
1189.5 81.7692
1190.5 131.923
1191.5 50.6923
1192.5 88.5385
1193.5 101.154
1194.5 145.846
1195.5 130.615
1196.5 130
1197.5 148.615
1198.5 110.077
1199.5 123.615
1200.5 136.308
1201.5 122.923
1202.5 131.538
1203.5 121.231
1204.5 104
1205.5 102.923
1206.5 150.462
1207.5 104.769
1208.5 97.6923
1209.5 128.615
1210.5 116.769
1211.5 135.231
1212.5 53.3846
1213.5 84.5385
1214.5 179.846
1215.5 118.923
1216.5 112.538
1217.5 177.077
1218.5 273.769
1219.5 215.692
1220.5 210.692
1221.5 78.2308
1222.5 79.8461
1223.5 145.077
1224.5 385.385
1225.5 775.077
1226.5 773.231
1227.5 393.769
1228.5 201.385
1229.5 137.923
1230.5 134.308
1231.5 70.9231
1232.5 96.3846
1233.5 143.462
1234.5 99
1235.5 124.769
1236.5 125.615
1237.5 107.846
1238.5 80.4615
1239.5 115.385
1240.5 85.9231
1241.5 125
1242.5 201.154
1243.5 203
1244.5 141.231
1245.5 124.462
1246.5 80.5385
1247.5 80.6154
1248.5 84.7692
1249.5 177.462
1250.5 94
1251.5 169.692
1252.5 117.077
1253.5 75.9231
1254.5 64
1255.5 113.077
1256.5 137.692
1257.5 116.923
1258.5 40.7692
1259.5 95.8461
1260.5 119.385
1261.5 113.769
1262.5 117.308
1263.5 113.538
1264.5 105.846
1265.5 68.9231
1266.5 105.385
1267.5 104.692
1268.5 148.385
1269.5 79.9231
1270.5 64.7692
1271.5 143
1272.5 86.6154
1273.5 93.5385
1274.5 28.3846
1275.5 99.3077
1276.5 135.846
1277.5 126.769
1278.5 143.462
1279.5 70
1280.5 118.615
1281.5 168.308
1282.5 104.077
1283.5 92.6154
1284.5 137.308
1285.5 171.231
1286.5 90.1538
1287.5 70.2308
1288.5 157.846
1289.5 114.538
1290.5 73.4615
1291.5 110.385
1292.5 84.4615
1293.5 96.6154
1294.5 82.5385
1295.5 59.3077
1296.5 203.462
1297.5 131.692
1298.5 39.1538
1299.5 159.846
1300.5 95.8462
1301.5 81.2308
1302.5 105.385
1303.5 58.3846
1304.5 134.308
1305.5 63.1538
1306.5 135.692
1307.5 48.3846
1308.5 76.3846
1309.5 90.1538
1310.5 219.615
1311.5 126.231
1312.5 122.846
1313.5 123.615
1314.5 98.6923
1315.5 77.0769
1316.5 107.692
1317.5 105
1318.5 89.8462
1319.5 87.5385
1320.5 68.4615
1321.5 165.462
1322.5 121.385
1323.5 93.5385
1324.5 119.462
1325.5 122.769
1326.5 82.6923
1327.5 158
1328.5 131.923
1329.5 13.4615
1330.5 104.231
1331.5 103.308
1332.5 82.8461
1333.5 140.615
1334.5 135.308
1335.5 102.077
1336.5 116.077
1337.5 94.0769
1338.5 170.385
1339.5 113
1340.5 169.154
1341.5 141.769
1342.5 89.7692
1343.5 142.923
1344.5 118.692
1345.5 90.7692
1346.5 159.231
1347.5 122.308
1348.5 114.462
1349.5 113.769
1350.5 106.385
1351.5 96.3077
1352.5 119.538
1353.5 158.231
1354.5 162.231
1355.5 66.4615
1356.5 56.9231
1357.5 134.385
1358.5 78.8462
1359.5 106
1360.5 93.5385
1361.5 86.3077
1362.5 76.8462
1363.5 75.5385
1364.5 138.846
1365.5 168
1366.5 73.9231
1367.5 47.6154
1368.5 92.9231
1369.5 80.8462
1370.5 80.1538
1371.5 111.615
1372.5 57.8462
1373.5 149.231
1374.5 101.846
1375.5 112.462
1376.5 129.308
1377.5 130.077
1378.5 99.8461
1379.5 62.5385
1380.5 45
1381.5 -28.6154
1382.5 29.3846
1383.5 85.9231
1384.5 99.5385
1385.5 75.5385
1386.5 131.923
1387.5 37.3846
1388.5 -163.077
1389.5 -484.308
1390.5 -445.923
1391.5 -77.2308
1392.5 47.8462
1393.5 46.3077
1394.5 79.7692
1395.5 107.692
1396.5 93.3846
1397.5 104
1398.5 140.308
1399.5 115.538
1400.5 104.462
1401.5 128.923
1402.5 135.923
1403.5 122.769
1404.5 90.6923
1405.5 138.462
1406.5 90.2308
1407.5 136.385
1408.5 67.4615
1409.5 88.6923
1410.5 66.6923
1411.5 97.5385
1412.5 88.9231
1413.5 111.077
1414.5 106.538
1415.5 76.6923
1416.5 119.769
1417.5 159.077
1418.5 141.692
1419.5 128.462
1420.5 108.385
1421.5 110.615
1422.5 53.0769
1423.5 97.6154
1424.5 117.077
1425.5 77.8461
1426.5 271.692
1427.5 501.769
1428.5 694.231
1429.5 597.692
1430.5 260.231
1431.5 136.692
1432.5 109.769
1433.5 130.154
1434.5 70.9231
1435.5 95.9231
1436.5 129.615
1437.5 115.308
1438.5 157.231
1439.5 125.231
1440.5 196.462
1441.5 192.769
1442.5 161.077
1443.5 132.923
1444.5 104.769
1445.5 146.385
1446.5 146.923
1447.5 89.8462
1448.5 141.615
1449.5 83.0769
1450.5 103.308
1451.5 85
1452.5 81.8462
1453.5 18.6923
1454.5 44.9231
1455.5 77
1456.5 112.923
1457.5 120.077
1458.5 135.538
1459.5 188.231
1460.5 56.2308
1461.5 111.077
1462.5 57.6154
1463.5 105.154
1464.5 105.923
1465.5 145.923
1466.5 122.385
1467.5 66.9231
1468.5 85.9231
1469.5 110.308
1470.5 92.0769
1471.5 61
1472.5 124.154
1473.5 70.3077
1474.5 135.231
1475.5 71.3077
1476.5 105.308
1477.5 123.154
1478.5 71
1479.5 105.846
1480.5 102.462
1481.5 110.385
1482.5 161
1483.5 147
1484.5 116.615
1485.5 3
1486.5 127.923
1487.5 120.615
1488.5 71.5385
1489.5 23.1538
1490.5 88.3077
1491.5 107.462
1492.5 171.615
1493.5 126.462
1494.5 95.9231
1495.5 103.615
1496.5 116.846
1497.5 37.2308
1498.5 -25.9231
1499.5 -30
1500.5 -60.8462
1501.5 49.1538
1502.5 116.462
1503.5 124.308
1504.5 121.923
1505.5 70.6154
1506.5 116.462
1507.5 118.769
1508.5 148.385
1509.5 62.0769
1510.5 105.923
1511.5 179.538
1512.5 192.231
1513.5 198.923
1514.5 310.154
1515.5 200.154
1516.5 136.923
1517.5 105.231
1518.5 72.6923
1519.5 127.923
1520.5 146.923
1521.5 101.154
1522.5 157
1523.5 73.6154
1524.5 73.2308
1525.5 65.3846
1526.5 163.923
1527.5 112
1528.5 120.154
1529.5 92.9231
1530.5 113.308
1531.5 131.385
1532.5 149.846
1533.5 100.692
1534.5 133
1535.5 40.2308
1536.5 102.615
1537.5 69.7692
1538.5 84.3846
1539.5 151.538
1540.5 185.538
1541.5 238.231
1542.5 254.692
1543.5 277.846
1544.5 243.769
1545.5 155.923
1546.5 170.077
1547.5 136.385
1548.5 76.9231
1549.5 129.692
1550.5 112.385
1551.5 98.1538
1552.5 134.846
1553.5 72
1554.5 136.077
1555.5 136.385
1556.5 120.077
1557.5 156.692
1558.5 156.231
1559.5 195.077
1560.5 179.769
1561.5 238.846
1562.5 181.385
1563.5 145.615
1564.5 162.077
1565.5 149.462
1566.5 103.462
1567.5 108
1568.5 145
1569.5 94.3846
1570.5 192.769
1571.5 342.692
1572.5 305.308
1573.5 246.154
1574.5 221.615
1575.5 209.077
1576.5 165.231
1577.5 210.462
1578.5 110.308
1579.5 195.538
1580.5 146.692
1581.5 298.538
1582.5 256.692
1583.5 210.385
1584.5 133.077
1585.5 59
1586.5 116.615
1587.5 112.692
1588.5 174.846
1589.5 112.154
1590.5 131.923
1591.5 170.615
1592.5 181.077
1593.5 79.0769
1594.5 123.231
1595.5 154.615
1596.5 83.5385
1597.5 145.154
1598.5 77.8462
1599.5 135.308
1600.5 100.923
1601.5 159.538
1602.5 111.385
1603.5 142.154
1604.5 95.5385
1605.5 108.231
1606.5 127.692
1607.5 101.692
1608.5 134.385
1609.5 78.9231
1610.5 106.538
1611.5 153.769
1612.5 74.3077
1613.5 74.7692
1614.5 107.154
1615.5 84.0769
1616.5 123.462
1617.5 151
1618.5 120.846
1619.5 104.769
1620.5 124.538
1621.5 135.077
1622.5 130.923
1623.5 153.923
1624.5 181.923
1625.5 157.308
1626.5 153.846
1627.5 114.231
1628.5 146.538
1629.5 118.846
1630.5 105.385
1631.5 141.846
1632.5 117.231
1633.5 173.615
1634.5 150.231
1635.5 129.615
1636.5 161.154
1637.5 223
1638.5 355.923
1639.5 421
1640.5 398.308
1641.5 329.462
1642.5 179.077
1643.5 115.615
1644.5 186.769
1645.5 103.769
1646.5 281.462
1647.5 481.692
1648.5 405.769
1649.5 316.692
1650.5 217.692
1651.5 121.077
1652.5 134.231
1653.5 55.9231
1654.5 67.3077
1655.5 76.3077
1656.5 87.4615
1657.5 91.6923
1658.5 96.6923
1659.5 59.3846
1660.5 58.5385
1661.5 93.1538
1662.5 101.385
1663.5 107.385
1664.5 159.154
1665.5 77.0769
1666.5 136.231
1667.5 111.231
1668.5 95.6923
1669.5 146.385
1670.5 94
1671.5 98.4615
1672.5 96.6154
1673.5 153.846
1674.5 70.4615
1675.5 129.923
1676.5 129.846
1677.5 107.923
1678.5 81.5385
1679.5 72.9231
1680.5 113
1681.5 124
1682.5 152.308
1683.5 77.6923
1684.5 72.0769
1685.5 92.6154
1686.5 84.3846
1687.5 96.3077
1688.5 106
1689.5 137.077
1690.5 68.3077
1691.5 88.2308
1692.5 65.4615
1693.5 152
1694.5 140.615
1695.5 139.462
1696.5 97.0769
1697.5 126.385
1698.5 139.308
1699.5 74.1538
1700.5 147.077
1701.5 126
1702.5 136.077
1703.5 102.231
1704.5 101.769
1705.5 121.615
1706.5 113.538
1707.5 116.769
1708.5 141.538
1709.5 46.2308
1710.5 92.2308
1711.5 123.692
1712.5 101.077
1713.5 153.077
1714.5 114.385
1715.5 105.077
1716.5 102.231
1717.5 142.692
1718.5 130.769
1719.5 154.154
1720.5 154
1721.5 128.231
1722.5 101.846
1723.5 137.077
1724.5 100.077
1725.5 26
1726.5 109.462
1727.5 208.385
1728.5 172.308
1729.5 122.077
1730.5 112.308
1731.5 128.846
1732.5 149.308
1733.5 110.077
1734.5 108
1735.5 88.6154
1736.5 133.769
1737.5 40.4615
1738.5 98.4615
1739.5 135.308
1740.5 55.6154
1741.5 105.923
1742.5 127.692
1743.5 101.154
1744.5 76
1745.5 88.6154
1746.5 102.154
1747.5 74.7692
1748.5 116.538
1749.5 108.231
1750.5 71.6923
1751.5 99.6923
1752.5 107.538
1753.5 70.2308
1754.5 96.3077
1755.5 130.154
1756.5 105.077
1757.5 112.385
1758.5 124.462
1759.5 134.462
1760.5 107.154
1761.5 131.923
1762.5 114.846
1763.5 129.538
1764.5 113.769
1765.5 145.385
1766.5 124.231
1767.5 93.6923
1768.5 137.615
1769.5 224.615
1770.5 411.308
1771.5 616.154
1772.5 768.615
1773.5 529.769
1774.5 299.154
1775.5 147.308
1776.5 93.6154
1777.5 152.231
1778.5 130.692
1779.5 91.4615
1780.5 126.615
1781.5 103.308
1782.5 108.923
1783.5 123.769
1784.5 158.769
1785.5 94.6923
1786.5 109.538
1787.5 113.231
1788.5 112.692
1789.5 138.308
1790.5 145.923
1791.5 104.154
1792.5 50.1538
1793.5 69.7692
1794.5 94.8462
1795.5 182.462
1796.5 168.462
1797.5 108.538
1798.5 128.538
1799.5 105.538
1800.5 148.462
1801.5 110
1802.5 87
1803.5 161.462
1804.5 128
1805.5 236.538
1806.5 712.077
1807.5 1524.77
1808.5 2481.85
1809.5 1990.92
1810.5 866.077
1811.5 335.923
1812.5 141.154
1813.5 155.462
1814.5 182.231
1815.5 199.615
1816.5 231.308
1817.5 115.923
1818.5 166
1819.5 138.231
1820.5 107.231
1821.5 124.077
1822.5 164.077
1823.5 224.846
1824.5 159.154
1825.5 130.923
1826.5 147.462
1827.5 139.923
1828.5 81.7692
1829.5 93.1538
1830.5 105
1831.5 86.8462
1832.5 110.538
1833.5 119.846
1834.5 111.231
1835.5 123.538
1836.5 99.8462
1837.5 61.3846
1838.5 144.154
1839.5 189.231
1840.5 145.923
1841.5 79.6154
1842.5 93.8462
1843.5 112.154
1844.5 139
1845.5 122.692
1846.5 107.769
1847.5 101.769
1848.5 111.538
1849.5 57.3846
1850.5 92.0769
1851.5 69.4615
1852.5 137.846
1853.5 104
1854.5 70.1538
1855.5 121.769
1856.5 104.692
1857.5 81.4615
1858.5 104.846
1859.5 150.923
1860.5 116.923
1861.5 79.5385
1862.5 100.846
1863.5 69.4615
1864.5 72.2308
1865.5 36.4615
1866.5 80.9231
1867.5 111.385
1868.5 151.077
1869.5 39.2308
1870.5 68.7692
1871.5 -27.3846
1872.5 57.7692
1873.5 26.6923
1874.5 67.3077
1875.5 34.3077
1876.5 65.2308
1877.5 94.7692
1878.5 115.846
1879.5 134.385
1880.5 119.692
1881.5 97.1538
1882.5 113
1883.5 87.1538
1884.5 129.308
1885.5 362.923
1886.5 644.769
1887.5 630.308
1888.5 380.923
1889.5 179.769
1890.5 106.692
1891.5 97.3077
1892.5 85.2308
1893.5 81.4615
1894.5 105.538
1895.5 87.2308
1896.5 103.385
1897.5 123.615
1898.5 68.2308
1899.5 69.5385
1900.5 88.8461
1901.5 118.154
1902.5 67.3077
1903.5 105
1904.5 67.5385
1905.5 105.308
1906.5 137.231
1907.5 68.6154
1908.5 146.308
1909.5 99.5385
1910.5 87.5385
1911.5 81.2308
1912.5 83.4615
1913.5 140.154
1914.5 47.4615
1915.5 117.615
1916.5 91.4615
1917.5 121.692
1918.5 96.1538
1919.5 117.769
1920.5 135.846
1921.5 149.538
1922.5 95.0769
1923.5 93.3077
1924.5 69
1925.5 133.385
1926.5 112.308
1927.5 109.308
1928.5 92.9231
1929.5 126.308
1930.5 125.846
1931.5 101.231
1932.5 118.385
1933.5 172.538
1934.5 123.462
1935.5 73.5385
1936.5 115
1937.5 39.9231
1938.5 25.7692
1939.5 21.3077
1940.5 46.4615
1941.5 -77.6154
1942.5 38.3077
1943.5 12.3077
1944.5 84.1538
1945.5 54.3846
1946.5 107.462
1947.5 89.5385
1948.5 263.769
1949.5 493.692
1950.5 771
1951.5 684.538
1952.5 340.692
1953.5 153.923
1954.5 91.5385
1955.5 125.615
1956.5 131.769
1957.5 197.231
1958.5 276
1959.5 351.231
1960.5 200.692
1961.5 181.615
1962.5 127.462
1963.5 92.4615
1964.5 144
1965.5 89.6154
1966.5 14.0769
1967.5 60.6154
1968.5 51.3846
1969.5 42.6154
1970.5 30.3077
1971.5 105.154
1972.5 48.6923
1973.5 79.5385
1974.5 36.1538
1975.5 38
1976.5 60.8462
1977.5 18.2308
1978.5 28.3846
1979.5 74.5385
1980.5 84.1538
1981.5 121.385
1982.5 108.846
1983.5 154.538
1984.5 106.923
1985.5 80.5385
1986.5 87.3846
1987.5 83.1538
1988.5 84.6923
1989.5 124.077
1990.5 54.3846
1991.5 33.7692
1992.5 61.4615
1993.5 75.1538
1994.5 39.2308
1995.5 104.308
1996.5 46.6923
1997.5 65.7692
1998.5 88.9231
1999.5 37
2000.5 70.8462
2001.5 93
2002.5 80.7692
2003.5 32.6923
2004.5 51.3077
2005.5 55.3846
2006.5 13.3846
2007.5 -63.4615
2008.5 -210.462
2009.5 -325.615
2010.5 -271.615
2011.5 -85.9231
2012.5 17.5385
2013.5 36.4615
2014.5 114.462
2015.5 37.0769
2016.5 38.4615
2017.5 75.4615
2018.5 65.8462
2019.5 93.5385
2020.5 86.1538
2021.5 77.8462
2022.5 74.2308
2023.5 57.1538
2024.5 92.2308
2025.5 50.3846
2026.5 102.615
2027.5 110.308
2028.5 76.1538
2029.5 88.3846
2030.5 82.9231
2031.5 61.2308
2032.5 92.6154
2033.5 42.8462
2034.5 103.769
2035.5 66.9231
2036.5 104.923
2037.5 73.0769
2038.5 37.2308
2039.5 83.5385
2040.5 87.7692
2041.5 82
2042.5 66.2308
2043.5 104.923
2044.5 111.308
2045.5 62.2308
2046.5 95.2308
2047.5 52.4615
2048.5 130.615
2049.5 164.538
2050.5 334.769
2051.5 903.615
2052.5 2825.92
2053.5 5299.23
2054.5 5846.08
2055.5 3583.54
2056.5 1314.77
2057.5 380.231
2058.5 167.692
2059.5 91.2308
2060.5 81.4615
2061.5 69.6154
2062.5 59.1538
2063.5 88.7692
2064.5 104
2065.5 78
2066.5 56.3077
2067.5 51.2308
2068.5 24.6923
2069.5 47.2308
2070.5 13.3077
2071.5 6.46154
2072.5 69.6923
2073.5 80.6923
2074.5 88.9231
2075.5 103.077
2076.5 72.6154
2077.5 71.0769
2078.5 83.6923
2079.5 45.6154
2080.5 106.154
2081.5 58.4615
2082.5 72.6923
2083.5 50.8462
2084.5 90.3077
2085.5 97.9231
2086.5 97.3846
2087.5 56.1538
2088.5 30.3077
2089.5 4.84615
2090.5 42.2308
2091.5 62.9231
2092.5 76.7692
2093.5 36.5385
2094.5 45.2308
2095.5 65.4615
2096.5 41.7692
2097.5 16.3846
2098.5 81.6923
2099.5 91.2308
2100.5 22.3077
2101.5 36.2308
2102.5 74.9231
2103.5 90.9231
2104.5 43.4615
2105.5 63.6923
2106.5 104.385
2107.5 79.3077
2108.5 54.1538
2109.5 -2.38462
2110.5 78.3846
2111.5 71.4615
2112.5 78.4615
2113.5 24.5385
2114.5 26.3846
2115.5 41.0769
2116.5 79
2117.5 20.4615
2118.5 51.6154
2119.5 29.1538
2120.5 93
2121.5 63.6923
2122.5 57.3846
2123.5 59.1538
2124.5 11.7692
2125.5 32.9231
2126.5 96.4615
2127.5 96.5385
2128.5 46.0769
2129.5 68.1538
2130.5 61.3077
2131.5 53.3077
2132.5 79.7692
2133.5 89.6154
2134.5 104.308
2135.5 94.8462
2136.5 62.9231
2137.5 88
2138.5 70.0769
2139.5 39.3846
2140.5 19.6154
2141.5 125.846
2142.5 142.692
2143.5 105.615
2144.5 112.462
2145.5 137.538
2146.5 74.9231
2147.5 148.077
2148.5 350.385
2149.5 462.231
2150.5 479.769
2151.5 518.154
2152.5 121.154
2153.5 15.6154
2154.5 15.6154
2155.5 5.30769
2156.5 16.7692
2157.5 44.6154
2158.5 39
2159.5 88
2160.5 91.2308
2161.5 36.6923
2162.5 40.5385
2163.5 40.3846
2164.5 7.15384
2165.5 80.3846
2166.5 22
2167.5 85.6154
2168.5 26
2169.5 49.8462
2170.5 46.4615
2171.5 70.2308
2172.5 37.6154
2173.5 68.2308
2174.5 63.3846
2175.5 48.3077
2176.5 32.6923
2177.5 102.538
2178.5 101.615
2179.5 66.8462
2180.5 57.2308
2181.5 26.3077
2182.5 53.8462
2183.5 75
2184.5 20.7692
2185.5 49.8461
2186.5 21.3077
2187.5 69.1538
2188.5 81.5385
2189.5 61.6923
2190.5 51.9231
2191.5 59.1538
2192.5 73.1538
2193.5 48.6154
2194.5 93.8462
2195.5 90.6154
2196.5 55.2308
2197.5 177.231
2198.5 233.769
2199.5 404.308
2200.5 383.615
2201.5 244.769
2202.5 115.154
2203.5 58.9231
2204.5 62.4615
2205.5 30.1538
2206.5 68.8462
2207.5 61.9231
2208.5 42.3846
2209.5 60.4615
2210.5 45.6923
2211.5 29
2212.5 65.7692
2213.5 15.3846
2214.5 46.3077
2215.5 43.1538
2216.5 38.5385
2217.5 33.1538
2218.5 79.4615
2219.5 58.3846
2220.5 114.462
2221.5 190.231
2222.5 393.846
2223.5 522.538
2224.5 343.231
2225.5 219.154
2226.5 80
2227.5 115.923
2228.5 96.1538
2229.5 55.6923
2230.5 85.7692
2231.5 72.2308
2232.5 100.846
2233.5 86.6154
2234.5 71.9231
2235.5 52.0769
2236.5 41.6154
2237.5 36.3077
2238.5 67.1538
2239.5 47.0769
2240.5 39
2241.5 57.6154
2242.5 82.3077
2243.5 87.3846
2244.5 83.6154
2245.5 19.8462
2246.5 -1.53846
2247.5 18
2248.5 -11.3846
2249.5 8.61538
2250.5 -3
2251.5 43.8462
2252.5 -6.61539
2253.5 -47
2254.5 20.3846
2255.5 71.2308
2256.5 21.3077
2257.5 71.3846
2258.5 54.3077
2259.5 52.8462
2260.5 69.0769
2261.5 110.231
2262.5 62.6923
2263.5 64.1538
2264.5 71.2308
2265.5 71.9231
2266.5 42.5385
2267.5 81.0769
2268.5 80.6923
2269.5 43.3846
2270.5 63.7692
2271.5 18.5385
2272.5 73.9231
2273.5 40.0769
2274.5 57.3077
2275.5 90.5385
2276.5 91
2277.5 145.692
2278.5 109.769
2279.5 190.615
2280.5 130.538
2281.5 115.385
2282.5 62.4615
2283.5 75.3077
2284.5 95.2308
2285.5 33.0769
2286.5 42.6923
2287.5 42.9231
2288.5 91.1538
2289.5 56.6154
2290.5 57.3846
2291.5 32.0769
2292.5 43.6923
2293.5 44.9231
2294.5 43.5385
2295.5 51.8462
2296.5 40.1538
2297.5 54.0769
2298.5 79.9231
2299.5 64.3846
2300.5 88.9231
2301.5 55.8462
2302.5 95.8462
2303.5 61.0769
2304.5 78.2308
2305.5 40.6923
2306.5 49.0769
2307.5 21.6923
2308.5 38.6923
2309.5 47.3077
2310.5 42.7692
2311.5 72.9231
2312.5 32.8462
2313.5 53.6923
2314.5 39.0769
2315.5 63
2316.5 57.4615
2317.5 66.6923
2318.5 70.7692
2319.5 42.4615
2320.5 21.0769
2321.5 67
2322.5 40.5385
2323.5 87.3077
2324.5 49
2325.5 25.1538
2326.5 48.5385
2327.5 88.3077
2328.5 102.231
2329.5 54.9231
2330.5 54.8462
2331.5 57.3077
2332.5 58.3077
2333.5 136.538
2334.5 180.923
2335.5 143.769
2336.5 148.462
2337.5 118.385
2338.5 50.6154
2339.5 71
2340.5 78.7692
2341.5 64.8462
2342.5 31.5385
2343.5 78.6154
2344.5 60.2308
2345.5 21.1538
2346.5 86
2347.5 78.0769
2348.5 100.462
2349.5 157.538
2350.5 127.769
2351.5 122.308
2352.5 88.7692
2353.5 -7.84616
2354.5 37.3077
2355.5 52.7692
2356.5 4.84615
2357.5 9.69231
2358.5 1.69231
2359.5 52
2360.5 88.4615
2361.5 43.0769
2362.5 41.8462
2363.5 65.5385
2364.5 15.7692
2365.5 53.6923
2366.5 21.1538
2367.5 56.4615
2368.5 15.7692
2369.5 54.4615
2370.5 23.0769
2371.5 22.6154
2372.5 56.6923
2373.5 60.7692
2374.5 69.3077
2375.5 8.53846
2376.5 54.5385
2377.5 45.4615
2378.5 30.7692
2379.5 59.7692
2380.5 63.7692
2381.5 58.6923
2382.5 54.9231
2383.5 28.4615
2384.5 34.2308
2385.5 40
2386.5 57.2308
2387.5 62.4615
2388.5 108.154
2389.5 42.7692
2390.5 60.4615
2391.5 73.0769
2392.5 88.1538
2393.5 50.9231
2394.5 38.6923
2395.5 58.5385
2396.5 58.6154
2397.5 58.2308
2398.5 49.0769
2399.5 56.1538
2400.5 69.3846
2401.5 39.7692
2402.5 53
2403.5 27.6923
2404.5 58.2308
2405.5 55.3077
2406.5 60.3846
2407.5 57.5385
2408.5 52.6154
2409.5 38.6154
2410.5 47
2411.5 38.6923
2412.5 77.6154
2413.5 48
2414.5 92.7692
2415.5 46.4615
2416.5 67.7692
2417.5 59.0769
2418.5 57.7692
2419.5 65.3077
2420.5 59.9231
2421.5 48.8462
2422.5 52.9231
2423.5 58.6154
2424.5 90
2425.5 45.3846
2426.5 68.6923
2427.5 77
2428.5 130.077
2429.5 104.923
2430.5 100.923
2431.5 130.615
2432.5 74.4615
2433.5 96.4615
2434.5 121.385
2435.5 101.923
2436.5 103.769
2437.5 112.077
2438.5 105.077
2439.5 51.5385
2440.5 76.4615
2441.5 168.385
2442.5 268.538
2443.5 509.692
2444.5 644.077
2445.5 473.308
2446.5 325.769
2447.5 166.385
2448.5 68
2449.5 116.923
2450.5 33
2451.5 19.3077
2452.5 36.7692
2453.5 17.3846
2454.5 9.15384
2455.5 35.0769
2456.5 43.7692
2457.5 57.1538
2458.5 68.5385
2459.5 69
2460.5 68.6154
2461.5 57.3846
2462.5 66.3846
2463.5 81.9231
2464.5 52.1538
2465.5 73.0769
2466.5 88.4615
2467.5 76.6923
2468.5 91.5385
2469.5 116.154
2470.5 71.7692
2471.5 77.1538
2472.5 78.8462
2473.5 144.462
2474.5 52.2308
2475.5 55.0769
2476.5 86
2477.5 37.6923
2478.5 33.2308
2479.5 68.6154
2480.5 55.9231
2481.5 32.7692
2482.5 27.5385
2483.5 39.8462
2484.5 67.1538
2485.5 54.6923
2486.5 40.5385
2487.5 45
2488.5 38
2489.5 22.2308
2490.5 26.6923
2491.5 40.0769
2492.5 58.9231
2493.5 23.9231
2494.5 52.4615
2495.5 67.0769
2496.5 38.0769
2497.5 65.3846
2498.5 39.4615
2499.5 34.8462
2500.5 66.6154
2501.5 46.5385
2502.5 43.7692
2503.5 43.4615
2504.5 38.0769
2505.5 36.7692
2506.5 99.1538
2507.5 104.692
2508.5 71.6923
2509.5 94.1538
2510.5 85
2511.5 42.9231
2512.5 70.7692
2513.5 26.9231
2514.5 38
2515.5 49.3077
2516.5 56.3846
2517.5 32.3077
2518.5 16.9231
2519.5 -8.38462
2520.5 45.0769
2521.5 17.4615
2522.5 83.2308
2523.5 72.8462
2524.5 73.9231
2525.5 73.0769
2526.5 102.615
2527.5 65.6923
2528.5 66.3077
2529.5 101
2530.5 45.1538
2531.5 49.6154
2532.5 72.3077
2533.5 78
2534.5 47.5385
2535.5 62.5385
2536.5 56.6154
2537.5 68.7692
2538.5 73.7692
2539.5 57.1538
2540.5 84.5385
2541.5 49.1538
2542.5 52.2308
2543.5 51.6923
2544.5 59.9231
2545.5 53
2546.5 45.7692
2547.5 20.8462
2548.5 30.6923
2549.5 52.1538
2550.5 44.1538
2551.5 106.846
2552.5 88.0769
2553.5 101.846
2554.5 58.3846
2555.5 62.4615
2556.5 59.0769
2557.5 70.3077
2558.5 64.6154
2559.5 73.3846
2560.5 73.3077
2561.5 60.6154
2562.5 68.7692
2563.5 46.7692
2564.5 78.5385
2565.5 47.0769
2566.5 26.6923
2567.5 13.2308
2568.5 49
2569.5 74.3846
2570.5 55.4615
2571.5 67.6923
2572.5 96.2308
2573.5 81.2308
2574.5 47.1538
2575.5 37.4615
2576.5 43.1538
2577.5 82.3846
2578.5 77
2579.5 79.2308
2580.5 84.3846
2581.5 104.462
2582.5 85.8462
2583.5 102.462
2584.5 58.7692
2585.5 104.231
2586.5 60.6154
2587.5 93.7692
2588.5 103.692
2589.5 109.077
2590.5 70.5385
2591.5 87.2308
2592.5 93
2593.5 84
2594.5 81.5385
2595.5 50.7692
2596.5 78.0769
2597.5 52
2598.5 57.7692
2599.5 49.3077
2600.5 88.6923
2601.5 79.9231
2602.5 86.7692
2603.5 102.692
2604.5 41.3846
2605.5 71.3077
2606.5 68.4615
2607.5 82.3077
2608.5 81.6923
2609.5 38.5385
2610.5 65.9231
2611.5 81.7692
2612.5 96.9231
2613.5 51.7692
2614.5 47.6154
2615.5 55.3077
2616.5 70.0769
2617.5 24.3846
2618.5 43.5385
2619.5 37.3077
2620.5 79.6154
2621.5 74
2622.5 36.2308
2623.5 43.5385
2624.5 66.3077
2625.5 89.2308
2626.5 28.3077
2627.5 54.8462
2628.5 53.9231
2629.5 66.3846
2630.5 57.3846
2631.5 55.3846
2632.5 50.8462
2633.5 67.7692
2634.5 73.3077
2635.5 99.3077
2636.5 69.0769
2637.5 89.6923
2638.5 66.3077
2639.5 33.5385
2640.5 82.3846
2641.5 89.3077
2642.5 48.3846
2643.5 55.3077
2644.5 69.9231
2645.5 56.6923
2646.5 36
2647.5 47.9231
2648.5 80.9231
2649.5 58.9231
2650.5 45.9231
2651.5 58.3846
2652.5 80.3846
2653.5 66.4615
2654.5 77.5385
2655.5 38.9231
2656.5 49.9231
2657.5 48.3077
2658.5 18.9231
2659.5 42.7692
2660.5 79.0769
2661.5 36
2662.5 12
2663.5 75.2308
2664.5 29.6154
2665.5 64.4615
2666.5 10.2308
2667.5 27.1538
2668.5 47.1538
2669.5 53.6923
2670.5 74.2308
2671.5 68.1538
2672.5 62.3077
2673.5 63.4615
2674.5 58
2675.5 38.9231
2676.5 52.0769
2677.5 52
2678.5 39.6154
2679.5 19
2680.5 69.9231
2681.5 40.6154
2682.5 66.0769
2683.5 70.3077
2684.5 74.6154
2685.5 67.6154
2686.5 59.1538
2687.5 55.2308
2688.5 47.2308
2689.5 16.6923
2690.5 63.3077
2691.5 34
2692.5 38.0769
2693.5 80.6154
2694.5 55
2695.5 -8.61539
2696.5 34.0769
2697.5 30.3077
2698.5 51.4615
2699.5 50.8462
2700.5 59.6154
2701.5 64.4615
2702.5 37.3077
2703.5 54.7692
2704.5 34.6923
2705.5 40.0769
2706.5 81.2308
2707.5 59.7692
2708.5 62.6923
2709.5 57.6923
2710.5 66.8462
2711.5 40.7692
2712.5 16.9231
2713.5 67.0769
2714.5 67.1538
2715.5 21.9231
2716.5 46.6154
2717.5 23.6154
2718.5 32.1538
2719.5 -6.15385
2720.5 63.2308
2721.5 36.3077
2722.5 91.2308
2723.5 118.231
2724.5 38.6154
2725.5 60.6923
2726.5 40.3846
2727.5 37.2308
2728.5 41.6923
2729.5 58.0769
2730.5 0.153843
2731.5 -8.84616
2732.5 73.6154
2733.5 72
2734.5 53.4615
2735.5 35.2308
2736.5 28.2308
2737.5 26.6154
2738.5 23.6154
2739.5 62.4615
2740.5 46.6154
2741.5 88.9231
2742.5 37.7692
2743.5 18.7692
2744.5 28.6154
2745.5 66.6923
2746.5 31.0769
2747.5 32.5385
2748.5 36.9231
2749.5 34.1538
2750.5 46.0769
2751.5 22.5385
2752.5 55.2308
2753.5 53.2308
2754.5 60.6923
2755.5 61.4615
2756.5 22.6154
2757.5 46.7692
2758.5 20.6154
2759.5 35.0769
2760.5 13.6923
2761.5 34.8462
2762.5 -34.3846
2763.5 -15
2764.5 -84.5385
2765.5 -81.3077
2766.5 -34.6154
2767.5 16.5385
2768.5 -3.15385
2769.5 6.30769
2770.5 30.4615
2771.5 20.3846
2772.5 48
2773.5 32.6154
2774.5 11.1538
2775.5 45.9231
2776.5 36.5385
2777.5 37
2778.5 52.1538
2779.5 42.3846
2780.5 34.3077
2781.5 34.1538
2782.5 59.6154
2783.5 33.3077
2784.5 100.308
2785.5 117.385
2786.5 277.923
2787.5 467.923
2788.5 800.692
2789.5 941
2790.5 753.231
2791.5 349.692
2792.5 142.231
2793.5 111.462
2794.5 65.5385
2795.5 58.0769
2796.5 73.1538
2797.5 57
2798.5 104.692
2799.5 76.2308
2800.5 114.692
2801.5 107.154
2802.5 82.3846
2803.5 33.3077
2804.5 23.6923
2805.5 48.5385
2806.5 39.1538
2807.5 20.8462
2808.5 80.1538
2809.5 106.462
2810.5 162.385
2811.5 165.692
2812.5 116.538
2813.5 53
2814.5 66.4615
2815.5 38.0769
2816.5 14.8462
2817.5 7.61538
2818.5 23
2819.5 29.1538
2820.5 37.7692
2821.5 46.3846
2822.5 42.7692
2823.5 45.1538
2824.5 27.3846
2825.5 41.3846
2826.5 9.23077
2827.5 84
2828.5 103.231
2829.5 130.846
2830.5 136.385
2831.5 110.077
2832.5 101.385
2833.5 68
2834.5 52.3846
2835.5 29.3846
2836.5 43.5385
2837.5 105.077
2838.5 99.3846
2839.5 168.385
2840.5 198
2841.5 235.538
2842.5 316.538
2843.5 434.308
2844.5 704.615
2845.5 1018.46
2846.5 1289.38
2847.5 1163.46
2848.5 751.385
2849.5 353.462
2850.5 67.1538
2851.5 72.3077
2852.5 76.6154
2853.5 37.7692
2854.5 33.8462
2855.5 57.4615
2856.5 81.6154
2857.5 102.692
2858.5 213.769
2859.5 462.692
2860.5 770.692
2861.5 1004.54
2862.5 903.462
2863.5 470
2864.5 147
2865.5 119.231
2866.5 27.4615
2867.5 50.5385
2868.5 54
2869.5 165.308
2870.5 203.154
2871.5 231.538
2872.5 194.769
2873.5 157.077
2874.5 89.6923
2875.5 35.6154
2876.5 12.6154
2877.5 48
2878.5 55
2879.5 39.6923
2880.5 44.3077
2881.5 1.92308
2882.5 36.4615
2883.5 24.4615
2884.5 40.3846
2885.5 38.9231
2886.5 35.4615
2887.5 29.6154
2888.5 12.0769
2889.5 31.2308
2890.5 8.30769
2891.5 -4.61539
2892.5 12.5385
2893.5 11
2894.5 17.2308
2895.5 47.6154
2896.5 52.9231
2897.5 38.6923
2898.5 5.61538
2899.5 30.6154
2900.5 8
2901.5 25
2902.5 12.2308
2903.5 31.1538
2904.5 30.1538
2905.5 31.6154
2906.5 10.6154
2907.5 25.3077
2908.5 56.2308
2909.5 25.9231
2910.5 20.6923
2911.5 9.23077
2912.5 52.8462
2913.5 12.0769
2914.5 40.6923
2915.5 16
2916.5 18.9231
2917.5 40.2308
2918.5 -5.30769
2919.5 11.1538
2920.5 16
2921.5 15.8462
2922.5 25.0769
2923.5 40.3077
2924.5 -0.923078
2925.5 38.3077
2926.5 20
2927.5 39.3077
2928.5 24.6154
2929.5 8.69231
2930.5 21.1538
2931.5 26.8462
2932.5 44
2933.5 34.8462
2934.5 72
2935.5 58.5385
2936.5 81.0769
2937.5 19
2938.5 59.1538
2939.5 4.69231
2940.5 46.6923
2941.5 21.2308
2942.5 18.1538
2943.5 -18
2944.5 -20.9231
2945.5 -37
2946.5 -9.23078
2947.5 -65.6154
2948.5 -96.0769
2949.5 66.7692
2950.5 37.9231
2951.5 76.3077
2952.5 81.2308
2953.5 34.6923
2954.5 33.8462
2955.5 25.0769
2956.5 32.3077
2957.5 46.3846
2958.5 14.6154
2959.5 55.7692
2960.5 49.6923
2961.5 36.3846
2962.5 36.3846
2963.5 43.3846
2964.5 16.0769
2965.5 9.23077
2966.5 32.3077
2967.5 23.3846
2968.5 53.4615
2969.5 19.5385
2970.5 22.3077
2971.5 14.0769
2972.5 44.2308
2973.5 11.3846
2974.5 30.9231
2975.5 48.1538
2976.5 29.1538
2977.5 38
2978.5 28.5385
2979.5 26.6923
2980.5 27.4615
2981.5 21.6154
2982.5 59.1538
2983.5 41.8462
2984.5 29.3846
2985.5 27.3077
2986.5 15.4615
2987.5 5.38461
2988.5 20.2308
2989.5 19.6154
2990.5 9.15385
2991.5 17.0769
2992.5 -12
2993.5 -56.0769
2994.5 -38
2995.5 -78.3846
2996.5 -54.0769
2997.5 -92
2998.5 -22.6154
2999.5 -19
3000.5 27
3001.5 37.2308
3002.5 97.6923
3003.5 110.692
3004.5 130.308
3005.5 189.538
3006.5 179.923
3007.5 107.154
3008.5 51.1538
3009.5 59.6923
3010.5 13.6923
3011.5 40
3012.5 39.8462
3013.5 53.3846
3014.5 35.6154
3015.5 18.0769
3016.5 38.7692
3017.5 8.84615
3018.5 23.2308
3019.5 56
3020.5 30.5385
3021.5 30.0769
3022.5 33.0769
3023.5 26.7692
3024.5 36.0769
3025.5 27.3077
3026.5 56.9231
3027.5 50.9231
3028.5 5.84615
3029.5 -51.8462
3030.5 -14.9231
3031.5 -41.6923
3032.5 -37.3846
3033.5 -23.3077
3034.5 -1.23077
3035.5 46.3077
3036.5 30.1538
3037.5 18.9231
3038.5 46.8462
3039.5 39.3846
3040.5 88.7692
3041.5 6.23077
3042.5 27.7692
3043.5 55
3044.5 52.5385
3045.5 23
3046.5 28
3047.5 35.1538
3048.5 25.3077
3049.5 -1
3050.5 11.2308
3051.5 35.3846
3052.5 29.2308
3053.5 37.7692
3054.5 30.0769
3055.5 29.8462
3056.5 51.0769
3057.5 47.8462
3058.5 30.5385
3059.5 34.4615
3060.5 26.8462
3061.5 13.8462
3062.5 19.0769
3063.5 20.7692
3064.5 20.5385
3065.5 6.07692
3066.5 19.5385
3067.5 -18.6923
3068.5 14.3077
3069.5 20.9231
3070.5 14.1538
3071.5 29
3072.5 24.1538
3073.5 13.0769
3074.5 65.2308
3075.5 57.9231
3076.5 34.3846
3077.5 26.8462
3078.5 36.0769
3079.5 41.3846
3080.5 29.6154
3081.5 32.6923
3082.5 37.5385
3083.5 35.7692
3084.5 35.3846
3085.5 45.7692
3086.5 57.6923
3087.5 35.9231
3088.5 62.3077
3089.5 54.4615
3090.5 1.15385
3091.5 41.8462
3092.5 31.3077
3093.5 18.2308
3094.5 7.15385
3095.5 58.6154
3096.5 41.6154
3097.5 65.0769
3098.5 74.3077
3099.5 143.077
3100.5 251.692
3101.5 360.538
3102.5 355.538
3103.5 236.154
3104.5 121.462
3105.5 111.692
3106.5 45.2308
3107.5 89.9231
3108.5 104.308
3109.5 87.9231
3110.5 59.4615
3111.5 84
3112.5 45
3113.5 7.07692
3114.5 78.2308
3115.5 50.1538
3116.5 49
3117.5 16.8462
3118.5 23.9231
3119.5 7.76923
3120.5 16.3846
3121.5 41.3077
3122.5 30.2308
3123.5 33.3846
3124.5 36.4615
3125.5 68
3126.5 24.2308
3127.5 30.6923
3128.5 43.0769
3129.5 37.1538
3130.5 48.2308
3131.5 27.3077
3132.5 50.7692
3133.5 23.9231
3134.5 25.2308
3135.5 53.0769
3136.5 27.3077
3137.5 38.3846
3138.5 36
3139.5 3.38461
3140.5 33.0769
3141.5 27.6154
3142.5 21.3077
3143.5 13.5385
3144.5 29.6923
3145.5 53.0769
3146.5 13.1538
3147.5 14.0769
3148.5 24.0769
3149.5 16
3150.5 52.4615
3151.5 41.1538
3152.5 20
3153.5 33.6923
3154.5 39.6923
3155.5 36.8462
3156.5 55.3077
3157.5 32.7692
3158.5 31.8462
3159.5 48.7692
3160.5 56
3161.5 29.2308
3162.5 42.9231
3163.5 20.4615
3164.5 41.6923
3165.5 41.3846
3166.5 48.0769
3167.5 34.4615
3168.5 28.3846
3169.5 20.5385
3170.5 59.3077
3171.5 75.1538
3172.5 13.0769
3173.5 55.8462
3174.5 6.53846
3175.5 40.4615
3176.5 74.0769
3177.5 38.6154
3178.5 68.5385
3179.5 30.1538
3180.5 51.5385
3181.5 43.1538
3182.5 26.7692
3183.5 43
3184.5 30.1538
3185.5 44.2308
3186.5 22.4615
3187.5 27.7692
3188.5 34.4615
3189.5 30.6923
3190.5 27.3077
3191.5 19.3077
3192.5 10
3193.5 37.6923
3194.5 45.8462
3195.5 62
3196.5 57
3197.5 30.2308
3198.5 5.15385
3199.5 12.5385
3200.5 48
3201.5 27.3077
3202.5 13.7692
3203.5 50.3846
3204.5 21.9231
3205.5 26.7692
3206.5 17.8462
3207.5 48.8462
3208.5 28.3077
3209.5 42.7692
3210.5 38.4615
3211.5 26.5385
3212.5 28.6923
3213.5 34.8462
3214.5 46.7692
3215.5 27
3216.5 19.0769
3217.5 35
3218.5 34.5385
3219.5 30.6154
3220.5 43.6154
3221.5 24.8462
3222.5 14.2308
3223.5 30.0769
3224.5 -4.53846
3225.5 46.0769
3226.5 40.8462
3227.5 42.8462
3228.5 17.6154
3229.5 43.6923
3230.5 48
3231.5 54.0769
3232.5 38.8462
3233.5 49.7692
3234.5 22.8462
3235.5 18.5385
3236.5 48.8462
3237.5 28.2308
3238.5 8.69231
3239.5 45.6923
3240.5 26.4615
3241.5 -5.69231
3242.5 44.6923
3243.5 52.9231
3244.5 39.3846
3245.5 26.1538
3246.5 8
3247.5 57.0769
3248.5 50.7692
3249.5 14.0769
3250.5 20
3251.5 22
3252.5 19.1538
3253.5 26.7692
3254.5 36.0769
3255.5 25.9231
3256.5 29
3257.5 12.4615
3258.5 10.2308
3259.5 38.3077
3260.5 -8
3261.5 41.4615
3262.5 7.38461
3263.5 25.2308
3264.5 44.0769
3265.5 31.1538
3266.5 17.0769
3267.5 37.1538
3268.5 44.2308
3269.5 5.46154
3270.5 6.84615
3271.5 41.5385
3272.5 51.2308
3273.5 45.6154
3274.5 25.3077
3275.5 27.3846
3276.5 29.8462
3277.5 -6
3278.5 20.0769
3279.5 22.8462
3280.5 23.4615
3281.5 27.2308
3282.5 25.0769
3283.5 57.7692
3284.5 25.1538
3285.5 17.8462
3286.5 39.8462
3287.5 33.4615
3288.5 32.8462
3289.5 34.2308
3290.5 32.4615
3291.5 42.0769
3292.5 24.1538
3293.5 36.1538
3294.5 40.3077
3295.5 50.5385
3296.5 -1.15385
3297.5 69.8462
3298.5 30.6923
3299.5 93.0769
3300.5 24.0769
3301.5 79.1538
3302.5 74.6154
3303.5 31.3846
3304.5 31.8462
3305.5 41.2308
3306.5 40.2308
3307.5 48.4615
3308.5 48
3309.5 35.2308
3310.5 38.0769
3311.5 16.8462
3312.5 56.0769
3313.5 12.1538
3314.5 32.7692
3315.5 36
3316.5 35.3846
3317.5 44.8462
3318.5 46.5385
3319.5 36.6923
3320.5 13.4615
3321.5 59.3846
3322.5 26.8462
3323.5 80.8462
3324.5 -2.30769
3325.5 10.3077
3326.5 32.4615
3327.5 30.9231
3328.5 32.4615
3329.5 29.0769
3330.5 27.8462
3331.5 47.2308
3332.5 29.1538
3333.5 57
3334.5 52.1538
3335.5 42.5385
3336.5 37.6154
3337.5 47.6154
3338.5 58.6154
3339.5 43.2308
3340.5 27.3846
3341.5 58.8462
3342.5 61.6154
3343.5 33.9231
3344.5 47.5385
3345.5 54.4615
3346.5 88.5385
3347.5 128.923
3348.5 217.231
3349.5 297.923
3350.5 368.308
3351.5 421.462
3352.5 434.462
3353.5 364.538
3354.5 236
3355.5 116.308
3356.5 85
3357.5 69.0769
3358.5 46.0769
3359.5 35.9231
3360.5 54.6154
3361.5 72.3077
3362.5 34
3363.5 27.9231
3364.5 38.0769
3365.5 24.3846
3366.5 5.46154
3367.5 -9.30769
3368.5 -10.7692
3369.5 -1.30769
3370.5 15.5385
3371.5 22.6923
3372.5 16.6923
3373.5 46.1538
3374.5 25.7692
3375.5 20.6154
3376.5 -2.46154
3377.5 38.0769
3378.5 48.8462
3379.5 31.1538
3380.5 30.3077
3381.5 36.7692
3382.5 43.6154
3383.5 41.2308
3384.5 32.1538
3385.5 32.5385
3386.5 37.7692
3387.5 41.9231
3388.5 25.4615
3389.5 46.6923
3390.5 42.8462
3391.5 55.3846
3392.5 30.5385
3393.5 46.6154
3394.5 26.4615
3395.5 44
3396.5 35.1538
3397.5 32.2308
3398.5 42.5385
3399.5 54.7692
3400.5 33.6154
3401.5 27.2308
3402.5 34
3403.5 38.9231
3404.5 36.3846
3405.5 51.2308
3406.5 63.1538
3407.5 44.4615
3408.5 45.5385
3409.5 29.3846
3410.5 39.2308
3411.5 26.7692
3412.5 16.2308
3413.5 35.2308
3414.5 29.4615
3415.5 47.2308
3416.5 29.0769
3417.5 27.2308
3418.5 34.6923
3419.5 47.4615
3420.5 45.6154
3421.5 25.0769
3422.5 53.7692
3423.5 52.6923
3424.5 71.7692
3425.5 63.6154
3426.5 73.5385
3427.5 153.385
3428.5 66.2308
3429.5 16.9231
3430.5 26.0769
3431.5 45.8462
3432.5 58.4615
3433.5 25
3434.5 35.6154
3435.5 45.7692
3436.5 52.3846
3437.5 13
3438.5 32.8462
3439.5 28.8462
3440.5 31.2308
3441.5 33.2308
3442.5 29.8462
3443.5 30.7692
3444.5 19.0769
3445.5 43.3077
3446.5 32.2308
3447.5 -20.9231
3448.5 -3.61539
3449.5 29.6923
3450.5 68
3451.5 76.6923
3452.5 43.1538
3453.5 21.5385
3454.5 32
3455.5 29.8462
3456.5 51.1538
3457.5 71.1538
3458.5 78.3846
3459.5 95.9231
3460.5 115.615
3461.5 132
3462.5 132.769
3463.5 72.8462
3464.5 67.7692
3465.5 59
3466.5 50.8462
3467.5 37.0769
3468.5 42.6923
3469.5 40.4615
3470.5 18.7692
3471.5 7.46154
3472.5 20.6923
3473.5 37.6923
3474.5 40.4615
3475.5 39.7692
3476.5 22.8462
3477.5 36.3077
3478.5 61.9231
3479.5 20.0769
3480.5 33.3077
3481.5 16.1538
3482.5 2.23077
3483.5 39.6923
3484.5 29
3485.5 29.6923
3486.5 48.1538
3487.5 29.4615
3488.5 40.3846
3489.5 81.4615
3490.5 25.3846
3491.5 -6.53847
3492.5 115.231
3493.5 49.2308
3494.5 49.8462
3495.5 60.1538
3496.5 65.2308
3497.5 55.8462
3498.5 36.2308
3499.5 18.2308
3500.5 44.6154
3501.5 33.6923
3502.5 43.6923
3503.5 25.2308
3504.5 18
3505.5 28
3506.5 7.53846
3507.5 -24.1538
3508.5 -16.6154
3509.5 -5.07692
3510.5 11.3077
3511.5 46.0769
3512.5 32.2308
3513.5 27.3077
3514.5 44.0769
3515.5 29.6154
3516.5 40.0769
3517.5 33
3518.5 36.3077
3519.5 57.0769
3520.5 59.3077
3521.5 47.1538
3522.5 66.4615
3523.5 30
3524.5 36
3525.5 27.4615
3526.5 37.6923
3527.5 40
3528.5 36.6154
3529.5 41.8462
3530.5 71.7692
3531.5 58.5385
3532.5 46.2308
3533.5 5.69231
3534.5 47.2308
3535.5 39.0769
3536.5 41
3537.5 31
3538.5 48
3539.5 45.3846
3540.5 50.0769
3541.5 56.1538
3542.5 52.3077
3543.5 39.1538
3544.5 46.1538
3545.5 27.9231
3546.5 68.9231
3547.5 33.0769
3548.5 26.3077
3549.5 63.8462
3550.5 51.8462
3551.5 36
3552.5 50.6923
3553.5 34.8462
3554.5 39.6923
3555.5 61.9231
3556.5 42.7692
3557.5 43.5385
3558.5 60.7692
3559.5 40.5385
3560.5 37.9231
3561.5 45.3077
3562.5 47.3077
3563.5 53.3846
3564.5 37.9231
3565.5 48.3077
3566.5 58.9231
3567.5 40.0769
3568.5 71.1538
3569.5 43.8462
3570.5 45.2308
3571.5 45
3572.5 63.5385
3573.5 60.5385
3574.5 46.1538
3575.5 5.53846
3576.5 47.4615
3577.5 54.6154
3578.5 42.4615
3579.5 44.0769
3580.5 79.9231
3581.5 59.3846
3582.5 64.6154
3583.5 45.7692
3584.5 88.7692
3585.5 89.8462
3586.5 38.8462
3587.5 50.0769
3588.5 54.3077
3589.5 54.3846
3590.5 49.6923
3591.5 43.9231
3592.5 23.8462
3593.5 74.6923
3594.5 37.6154
3595.5 75.5385
3596.5 100.615
3597.5 113.692
3598.5 207.538
3599.5 183.923
3600.5 162.692
3601.5 123.615
3602.5 79.0769
3603.5 64.0769
3604.5 92.7692
3605.5 71.4615
3606.5 74.1538
3607.5 49.6923
3608.5 53.0769
3609.5 72.6923
3610.5 40.6923
3611.5 69.1538
3612.5 60.3077
3613.5 80.6923
3614.5 52.6154
3615.5 88.6923
3616.5 34.1538
3617.5 64.7692
3618.5 72
3619.5 81.3846
3620.5 95
3621.5 63.7692
3622.5 40.9231
3623.5 58.3077
3624.5 61.3077
3625.5 65.1538
3626.5 60.2308
3627.5 34.8462
3628.5 33.0769
3629.5 37.3077
3630.5 55.3077
3631.5 41.3077
3632.5 47.2308
3633.5 47.4615
3634.5 48.8462
3635.5 24.0769
3636.5 35.0769
3637.5 36.2308
3638.5 28.9231
3639.5 54.0769
3640.5 42
3641.5 26.2308
3642.5 57.9231
3643.5 33.6923
3644.5 33.6154
3645.5 38.6923
3646.5 49
3647.5 64
3648.5 44.6154
3649.5 46.1538
3650.5 50.2308
3651.5 46.0769
3652.5 35.8462
3653.5 43.7692
3654.5 42.9231
3655.5 28.4615
3656.5 46.7692
3657.5 48.5385
3658.5 24.0769
3659.5 43.9231
3660.5 59.7692
3661.5 42.6923
3662.5 40.3077
3663.5 71.7692
3664.5 36.5385
3665.5 44.4615
3666.5 35.8462
3667.5 24.0769
3668.5 38.6923
3669.5 40.1538
3670.5 62.7692
3671.5 45.1538
3672.5 16
3673.5 47.5385
3674.5 49.4615
3675.5 48
3676.5 59.5385
3677.5 24.7692
3678.5 60.5385
3679.5 47.3846
3680.5 39.2308
3681.5 33.5385
3682.5 41.7692
3683.5 56.3846
3684.5 34.5385
3685.5 31.9231
3686.5 42.6923
3687.5 52.9231
3688.5 38.1538
3689.5 54.5385
3690.5 40.4615
3691.5 36.4615
3692.5 29.6923
3693.5 37.7692
3694.5 26.7692
3695.5 45.5385
3696.5 59.6923
3697.5 52.1538
3698.5 39.5385
3699.5 38.8462
3700.5 43.3846
3701.5 49
3702.5 46.4615
3703.5 67.6923
3704.5 43.7692
3705.5 37
3706.5 27.4615
3707.5 49.4615
3708.5 48.9231
3709.5 34.3077
3710.5 50.9231
3711.5 56.5385
3712.5 57.3846
3713.5 28.9231
3714.5 38.5385
3715.5 48.6923
3716.5 33.1538
3717.5 41.5385
3718.5 46.3077
3719.5 43.3846
3720.5 56.3846
3721.5 34.6154
3722.5 51.3846
3723.5 40.3846
3724.5 40.6923
3725.5 53.0769
3726.5 27.3077
3727.5 37.6923
3728.5 26.6923
3729.5 45.8462
3730.5 51.3846
3731.5 27.3077
3732.5 58.9231
3733.5 36.0769
3734.5 21.1538
3735.5 34.7692
3736.5 30.7692
3737.5 56.9231
3738.5 31.3077
3739.5 18.8462
3740.5 44.2308
3741.5 18.6154
3742.5 25.0769
3743.5 -3.53846
3744.5 32.9231
3745.5 71.6923
3746.5 11.4615
3747.5 44.2308
3748.5 36.3077
3749.5 34
3750.5 28.5385
3751.5 16.4615
3752.5 48.7692
3753.5 20.1538
3754.5 28.2308
3755.5 53.8462
3756.5 37.5385
3757.5 7.61538
3758.5 23.8462
3759.5 31.7692
3760.5 46
3761.5 37.2308
3762.5 -4.46154
3763.5 14.0769
3764.5 40.6923
3765.5 9
3766.5 23.0769
3767.5 20.8462
3768.5 21.2308
3769.5 18.0769
3770.5 15.3846
3771.5 49.3846
3772.5 34.3077
3773.5 13.6154
3774.5 13.2308
3775.5 28.4615
3776.5 31.6923
3777.5 11.7692
3778.5 4.38461
3779.5 5.69231
3780.5 19.7692
3781.5 11.6923
3782.5 16.8462
3783.5 5.84615
3784.5 -1.84615
3785.5 1.76923
3786.5 -15.8462
3787.5 1.53846
3788.5 6.76923
3789.5 13.9231
3790.5 26.4615
3791.5 12
3792.5 33.9231
3793.5 14.4615
3794.5 11.6923
3795.5 6.15385
3796.5 11.4615
3797.5 11.3077
3798.5 28.3077
3799.5 9.53846
3800.5 16.4615
3801.5 9.84615
3802.5 21.6923
3803.5 23.1538
3804.5 14.6154
3805.5 29.0769
3806.5 15.4615
3807.5 16.3077
3808.5 1.38461
3809.5 25.4615
3810.5 35.5385
3811.5 28.8462
3812.5 12.8462
3813.5 13.0769
3814.5 -10.7692
3815.5 1.69231
3816.5 9.84615
3817.5 27.2308
3818.5 8.07692
3819.5 19.0769
3820.5 14.6923
3821.5 10.8462
3822.5 -0.692308
3823.5 16
3824.5 29.3846
3825.5 7
3826.5 13.5385
3827.5 21.3846
3828.5 10.6923
3829.5 14
3830.5 11.3077
3831.5 13.2308
3832.5 5.69231
3833.5 7.46154
3834.5 9.46154
3835.5 -4.76837e-07
3836.5 8.69231
3837.5 25.6923
3838.5 29.6923
3839.5 12.4615
3840.5 34
3841.5 -0.307693
3842.5 17.8462
3843.5 -0.0769236
3844.5 16.0769
3845.5 33.0769
3846.5 11.7692
3847.5 35.9231
3848.5 39.3846
3849.5 41.5385
3850.5 25.9231
3851.5 21.7692
3852.5 17.9231
3853.5 15.7692
3854.5 49.0769
3855.5 71.7692
3856.5 142.692
3857.5 277.231
3858.5 522.077
3859.5 848.538
3860.5 1230.08
3861.5 1685.77
3862.5 2135.92
3863.5 2402.92
3864.5 2016
3865.5 1135.85
3866.5 494.923
3867.5 156.846
3868.5 70.3077
3869.5 17.8462
3870.5 24.0769
3871.5 39.0769
3872.5 83.3846
3873.5 107.462
3874.5 82.6923
3875.5 22.2308
3876.5 38.9231
3877.5 3.23077
3878.5 -9.15385
3879.5 10.1538
3880.5 -8.76923
3881.5 5.53846
3882.5 -2.69231
3883.5 9.76923
3884.5 9.07692
3885.5 -6.23077
3886.5 4.84615
3887.5 14.3077
3888.5 -9.61539
3889.5 16.6154
3890.5 -12.6923
3891.5 -11.6154
3892.5 -4.84615
3893.5 8.84615
3894.5 4.23077
3895.5 5.61538
3896.5 -12.5385
3897.5 18.2308
3898.5 0.153846
3899.5 -9.38462
3900.5 -1.92308
3901.5 1.61538
3902.5 -6.38462
3903.5 -16.1538
3904.5 12.8462
3905.5 2.76923
3906.5 6.23077
3907.5 -5.23077
3908.5 -7.53846
3909.5 -4.53846
3910.5 7.23077
3911.5 0.923077
3912.5 11.9231
3913.5 -4.15385
3914.5 5.92308
3915.5 -8.84615
3916.5 13.0769
3917.5 4.15385
3918.5 -15.5385
3919.5 4.84615
3920.5 -2.61539
3921.5 6.76923
3922.5 -7.92308
3923.5 -9.69231
3924.5 12.2308
3925.5 13.2308
3926.5 6.69231
3927.5 -2.38462
3928.5 1.53846
3929.5 -15.3077
3930.5 8.30769
3931.5 -9.84615
3932.5 5.46154
3933.5 13.9231
3934.5 -8.76923
3935.5 2.69231
3936.5 3.76923
3937.5 -9.61539
3938.5 -4.84615
3939.5 5.53846
3940.5 12.5385
3941.5 -0.846154
3942.5 -13.3077
3943.5 14.5385
3944.5 -1.53846
3945.5 -10
3946.5 7.46154
3947.5 8.84615
3948.5 -21.3077
3949.5 -11.9231
3950.5 0.230769
3951.5 8.92308
3952.5 14.6923
3953.5 18
3954.5 -18.7692
3955.5 10.5385
3956.5 15.4615
3957.5 11.5385
3958.5 10.9231
3959.5 -3.46154
3960.5 -11.9231
3961.5 0.0769227
3962.5 -3.92308
3963.5 -20.4615
3964.5 -1.23077
3965.5 14.3077
3966.5 46.4615
3967.5 60.2308
3968.5 140.923
3969.5 223.385
3970.5 395.385
3971.5 546.154
3972.5 677.538
3973.5 606.462
3974.5 471.077
3975.5 212.231
3976.5 60.0769
3977.5 7.61538
3978.5 7.69231
3979.5 -4.30769
3980.5 -16.3846
3981.5 -18.4615
3982.5 -49.1538
3983.5 -86.3846
3984.5 -41.5385
3985.5 -71.6154
3986.5 -23.2308
3987.5 -16.2308
3988.5 7.07692
3989.5 -9
3990.5 -23.9231
3991.5 -9.46154
3992.5 -8.53846
3993.5 -4
3994.5 -10.1538
3995.5 -5.84615
3996.5 11.4615
3997.5 13.3846
3998.5 -0.153847
3999.5 9.07692
4000.5 3.23077
4001.5 6
4002.5 8.61538
4003.5 7.61538
4004.5 1.84615
4005.5 4.69231
4006.5 -7.38462
4007.5 -17.9231
4008.5 -4.84615
4009.5 -12.8462
4010.5 -3.69231
4011.5 -5.38462
4012.5 15.6923
4013.5 -6.46154
4014.5 -2.38462
4015.5 -3.15385
4016.5 -2.23077
4017.5 -15.2308
4018.5 -3.38462
4019.5 -1
4020.5 -20.9231
4021.5 16.6923
4022.5 -2.07692
4023.5 -10.2308
4024.5 7.92308
4025.5 -2.46154
4026.5 4.23077
4027.5 -5.30769
4028.5 -1.76923
4029.5 -1.69231
4030.5 -11.9231
4031.5 -4.84615
4032.5 -21.7692
4033.5 -0.461539
4034.5 -7
4035.5 -16.1538
4036.5 -4.92308
4037.5 -17.8462
4038.5 7
4039.5 -13.8462
4040.5 -8.84615
4041.5 -12.6154
4042.5 4.15385
4043.5 5
4044.5 -14.6154
4045.5 5.23077
4046.5 4.46154
4047.5 5.30769
4048.5 3.30769
4049.5 -4.46154
4050.5 20.1538
4051.5 1.07692
4052.5 12
4053.5 -3.15385
4054.5 -7.84615
4055.5 -5.38462
4056.5 2.30769
4057.5 -3.76923
4058.5 -2.07692
4059.5 -8.07692
4060.5 -18.3077
4061.5 -7.23077
4062.5 -7.07692
4063.5 -4.30769
4064.5 3.38461
4065.5 -7.07692
4066.5 2.07692
4067.5 -8
4068.5 -20
4069.5 -2.38462
4070.5 9.92308
4071.5 6.46154
4072.5 -3.23077
4073.5 4.46154
4074.5 -4
4075.5 -15.7692
4076.5 -8
4077.5 -19.3077
4078.5 9.69231
4079.5 -8.84615
4080.5 17.1538
4081.5 -14.2308
4082.5 4.38462
4083.5 -2.69231
4084.5 14.0769
4085.5 -1.84615
4086.5 -8.15385
4087.5 -5.76923
4088.5 -5.76923
4089.5 -12.6154
4090.5 -12.7692
4091.5 0.153846
4092.5 8.46154
4093.5 -2.38462
4094.5 -14.6154
4095.5 -2.15385
4096.5 0.923077
4097.5 -5.61538
4098.5 0.538461
4099.5 -10.7692
4100.5 -5.38462
4101.5 -13.6154
4102.5 -7.15385
4103.5 -18.0769
4104.5 -0.461539
4105.5 -9.07692
4106.5 -10.6154
4107.5 -15.1538
4108.5 0.307692
4109.5 -12.5385
4110.5 10.3846
4111.5 3.30769
4112.5 -5.53846
4113.5 8.30769
4114.5 1.76923
4115.5 -9.76923
4116.5 7.15385
4117.5 -11
4118.5 -0.153847
4119.5 1.84615
4120.5 -12.6154
4121.5 -3.30769
4122.5 -7.84615
4123.5 -4.76923
4124.5 0.230769
4125.5 0.923077
4126.5 -14.2308
4127.5 6.23077
4128.5 -16.6154
4129.5 -18.1538
4130.5 -4.69231
4131.5 4.69231
4132.5 -26.2308
4133.5 -4.69231
4134.5 -11.0769
4135.5 -8.61539
4136.5 -9.07692
4137.5 -12.2308
4138.5 -24.1538
4139.5 -4.23077
4140.5 -3.38462
4141.5 0.538461
4142.5 13.9231
4143.5 3.46154
4144.5 2.84615
4145.5 -10.2308
4146.5 -3.46154
4147.5 -1
4148.5 -11.4615
4149.5 7.61538
4150.5 -10.1538
4151.5 -6.84615
4152.5 -9.84615
4153.5 10.6923
4154.5 -5.46154
4155.5 -14.6154
4156.5 2.07692
4157.5 -2.30769
4158.5 6.38462
4159.5 -8.07692
4160.5 -4.46154
4161.5 -12.6154
4162.5 -12.7692
4163.5 -16.2308
4164.5 -1.84615
4165.5 7.23077
4166.5 -13.0769
4167.5 5
4168.5 15.2308
4169.5 0.461538
4170.5 -16.2308
4171.5 -4.30769
4172.5 0.538461
4173.5 -14.3846
4174.5 0.461538
4175.5 -11.9231
4176.5 -19.8462
4177.5 -23
4178.5 -4.46154
4179.5 -14.5385
4180.5 -0.692308
4181.5 7.84615
4182.5 -7.15385
4183.5 -15.0769
4184.5 -12.7692
4185.5 6.92308
4186.5 -14
4187.5 -7.84615
4188.5 -14.8462
4189.5 -11.5385
4190.5 -13.9231
4191.5 3.23077
4192.5 -16.8462
4193.5 -8
4194.5 0.307692
4195.5 -14.8462
4196.5 -10.5385
4197.5 -9.07692
4198.5 2.61538
4199.5 1.30769
4200.5 -2.15385
4201.5 -2.07692
4202.5 -6.84615
4203.5 8.61538
4204.5 -7.53846
4205.5 15.7692
4206.5 -23.6923
4207.5 -1.15385
4208.5 -2.76923
4209.5 4.84615
4210.5 -4.46154
4211.5 -13
4212.5 -17.0769
4213.5 2.61538
4214.5 4
4215.5 -8.38462
4216.5 2.69231
4217.5 -24.9231
4218.5 -49.7692
4219.5 -48.8462
4220.5 -19.0769
4221.5 -5
4222.5 7.23077
4223.5 -14.5385
4224.5 4.61538
4225.5 -5.07692
4226.5 0.307692
4227.5 -13.9231
4228.5 11.1538
4229.5 -4.76923
4230.5 2.07692
4231.5 -7.76923
4232.5 -17.2308
4233.5 -11.4615
4234.5 -6.38462
4235.5 -10.1538
4236.5 -10.0769
4237.5 -15.1538
4238.5 -1.76923
4239.5 8.38462
4240.5 -2.38462
4241.5 -8.38462
4242.5 -6.38462
4243.5 -9.07692
4244.5 -18.3077
4245.5 -28
4246.5 -11.8462
4247.5 -14.8462
4248.5 -3.30769
4249.5 -5.46154
4250.5 -10.7692
4251.5 -5.15385
4252.5 5.69231
4253.5 -14.8462
4254.5 -17.8462
4255.5 -5.15385
4256.5 7
4257.5 -4.07692
4258.5 -22.6154
4259.5 4.61538
4260.5 2.61538
4261.5 0.230769
4262.5 -5.69231
4263.5 -14.1538
4264.5 -16.4615
4265.5 -2.15385
4266.5 3.61538
4267.5 -3.69231
4268.5 -12.3077
4269.5 3
4270.5 10.0769
4271.5 -5.69231
4272.5 -16.1538
4273.5 -13.3846
4274.5 16.3077
4275.5 -0.769231
4276.5 -17.9231
4277.5 0.307692
4278.5 -12.0769
4279.5 -22.3846
4280.5 6.30769
4281.5 -6.92308
4282.5 -10.6154
4283.5 -12.0769
4284.5 -16
4285.5 -1.07692
4286.5 10.6923
4287.5 -2.23077
4288.5 2.30769
4289.5 -12.1538
4290.5 -15.8462
4291.5 -2.38419e-07
4292.5 -7.76923
4293.5 9.30769
4294.5 -5.30769
4295.5 2.92308
4296.5 -6.30769
4297.5 9.84615
4298.5 13.0769
4299.5 -18.2308
4300.5 -24
4301.5 17.2308
4302.5 1.23077
4303.5 2.23077
4304.5 -8.23077
4305.5 -4
4306.5 -5.69231
4307.5 -3.30769
4308.5 -1.38462
4309.5 -0.307693
4310.5 1.61538
4311.5 0.307692
4312.5 -3.07692
4313.5 -5.15385
4314.5 -2.76923
4315.5 -6.46154
4316.5 11.3077
4317.5 -7.38462
4318.5 10.9231
4319.5 5.15385
4320.5 -15.1538
4321.5 -13.8462
4322.5 2.69231
4323.5 -15.1538
4324.5 1.61538
4325.5 9.30769
4326.5 -4.69231
4327.5 -7.46154
4328.5 2
4329.5 2.76923
4330.5 2.38462
4331.5 4.07692
4332.5 -12.8462
4333.5 -17.8462
4334.5 -9.76923
4335.5 -9
4336.5 -8.38462
4337.5 0.692307
4338.5 -2.84615
4339.5 -12.1538
4340.5 -11.8462
4341.5 0.846153
4342.5 -21
4343.5 -35.3077
4344.5 -2.38462
4345.5 0.846153
4346.5 -10.5385
4347.5 -8.15385
4348.5 -5.76923
4349.5 -8.46154
4350.5 -11.3077
4351.5 -2.38462
4352.5 -14.1538
4353.5 -7.76923
4354.5 3.69231
4355.5 -9.76923
4356.5 -5.15385
4357.5 -4.69231
4358.5 7.76923
4359.5 -5
4360.5 3.38462
4361.5 4.69231
4362.5 0.615384
4363.5 1.46154
4364.5 -8.07692
4365.5 3.07692
4366.5 3.69231
4367.5 -7.69231
4368.5 1
4369.5 3.07692
4370.5 -6.07692
4371.5 -4.69231
4372.5 -5.38462
4373.5 -7.84615
4374.5 -5.07692
4375.5 -2.38419e-07
4376.5 -13.5385
4377.5 -1.69231
4378.5 -6.38462
4379.5 -4.07692
4380.5 -6.30769
4381.5 -3.30769
4382.5 -3.69231
4383.5 -3.84615
4384.5 10.9231
4385.5 -9.84615
4386.5 -0.461539
4387.5 -8.84615
4388.5 -4.84615
4389.5 -12
4390.5 12.5385
4391.5 -31.1538
4392.5 3.53846
4393.5 -24.7692
4394.5 13
4395.5 17.6154
4396.5 1.23077
4397.5 -10.4615
4398.5 -10.7692
4399.5 -1.92308
4400.5 -5.69231
4401.5 0.769231
4402.5 4.38462
4403.5 -17.1538
4404.5 -6.69231
4405.5 4.76923
4406.5 -2.61538
4407.5 -6.46154
4408.5 -2.53846
4409.5 -11.3846
4410.5 -6.07692
4411.5 -13.4615
4412.5 -7.76923
4413.5 -12
4414.5 -8
4415.5 -6.30769
4416.5 5.38462
4417.5 -15.3846
4418.5 -7
4419.5 -8
4420.5 1
4421.5 8.46154
4422.5 -9.38462
4423.5 4.69231
4424.5 -4.07692
4425.5 -7.38462
4426.5 -11.7692
4427.5 -2
4428.5 -2
4429.5 2.30769
4430.5 -7.46154
4431.5 -15.2308
4432.5 -2.38462
4433.5 -25.5385
4434.5 6.38461
4435.5 -11.6154
4436.5 -1.07692
4437.5 4.53846
4438.5 4.84615
4439.5 -12
4440.5 3.38462
4441.5 4.38462
4442.5 3.76923
4443.5 2.15385
4444.5 -4
4445.5 7.46154
4446.5 -7
4447.5 -5.69231
4448.5 -3
4449.5 10.8462
4450.5 -0.615385
4451.5 -19.9231
4452.5 -3.30769
4453.5 -4.69231
4454.5 4.38462
4455.5 3
4456.5 -8.76923
4457.5 -2.15385
4458.5 2
4459.5 0.307692
4460.5 4.07692
4461.5 -25.2308
4462.5 -13.4615
4463.5 8.69231
4464.5 7.15385
4465.5 1.76923
4466.5 3.69231
4467.5 -6.69231
4468.5 -14.0769
4469.5 -1
4470.5 -1.23077
4471.5 0.153846
4472.5 -4.38462
4473.5 -0.307693
4474.5 -3.23077
4475.5 -4.92308
4476.5 -8.38462
4477.5 6.38462
4478.5 2.15385
4479.5 -2.61538
4480.5 11.1538
4481.5 0.769231
4482.5 -6.38462
4483.5 11.7692
4484.5 -9.76923
4485.5 8.46154
4486.5 0.769231
4487.5 -8.07692
4488.5 -9.46154
4489.5 -14.0769
4490.5 -30.5385
4491.5 -88.2308
4492.5 -108.538
4493.5 -158
4494.5 -225.462
4495.5 -223.615
4496.5 -181.077
4497.5 -143.462
4498.5 -103.077
4499.5 -46.3846
4500.5 -51.9231
4501.5 -62.1538
4502.5 -48.5385
4503.5 -51.8462
4504.5 -1.38462
4505.5 -6.76923
4506.5 -3.30769
4507.5 -9.07692
4508.5 -3
4509.5 7.53846
4510.5 -8.30769
4511.5 0.769231
4512.5 -2.38419e-07
4513.5 -0.615385
4514.5 -0.230769
4515.5 -6.07692
4516.5 9.53846
4517.5 2.53846
4518.5 2.07692
4519.5 -4.61538
4520.5 5.15385
4521.5 -6.30769
4522.5 -4.30769
4523.5 -9.30769
4524.5 -1.61538
4525.5 -8.38462
4526.5 1.76923
4527.5 -7.69231
4528.5 -0.923077
4529.5 5.76923
4530.5 -8
4531.5 -5
4532.5 -10
4533.5 9.92308
4534.5 -9
4535.5 -9.61538
4536.5 -2.69231
4537.5 1.15385
4538.5 -14.0769
4539.5 -2.84615
4540.5 -1.92308
4541.5 3.46154
4542.5 -12.0769
4543.5 2.46154
4544.5 -15.3846
4545.5 -11
4546.5 2.15385
4547.5 -4.92308
4548.5 -2.23077
4549.5 3.84615
4550.5 -14.0769
4551.5 3.15385
4552.5 -7.30769
4553.5 -1.69231
4554.5 -6.92308
4555.5 5.61538
4556.5 -4.07692
4557.5 -19.9231
4558.5 -6.76923
4559.5 -9.38462
4560.5 5.15385
4561.5 5.53846
4562.5 -8.61538
4563.5 -1.92308
4564.5 2.15385
4565.5 -5.61538
4566.5 4.76923
4567.5 -5.61538
4568.5 -12.6923
4569.5 -1.92308
4570.5 -13.3846
4571.5 -6.69231
4572.5 -8.53846
4573.5 13.2308
4574.5 -14.3077
4575.5 -4.46154
4576.5 -22.2308
4577.5 -19.6923
4578.5 6.69231
4579.5 -8.84615
4580.5 -10.8462
4581.5 2.76923
4582.5 -5.30769
4583.5 0.846154
4584.5 -9
4585.5 -12
4586.5 -1.61538
4587.5 -3.53846
4588.5 1.07692
4589.5 -8.69231
4590.5 -12.6154
4591.5 -5.61538
4592.5 -22.0769
4593.5 3.53846
4594.5 4.15385
4595.5 -3.61538
4596.5 3.84615
4597.5 -2.07692
4598.5 -0.615385
4599.5 -1.92308
4600.5 -7.61538
4601.5 -11
4602.5 4.84615
4603.5 -8
4604.5 -1.23077
4605.5 -4.23077
4606.5 -1.92308
4607.5 -2.23077
4608.5 -3.92308
4609.5 -2.15385
4610.5 4.84615
4611.5 6.76923
4612.5 -1.30769
4613.5 -3.07692
4614.5 3.92308
4615.5 -18.9231
4616.5 8
4617.5 -37.6923
4618.5 -39.1538
4619.5 -22.7692
4620.5 -17.2308
4621.5 -29.2308
4622.5 0.461538
4623.5 5.84615
4624.5 -18.0769
4625.5 22.3077
4626.5 -9.69231
4627.5 9.15385
4628.5 1.15385
4629.5 3.30769
4630.5 -6.92308
4631.5 -19.9231
4632.5 1.46154
4633.5 8.23077
4634.5 -0.230769
4635.5 -3.61538
4636.5 -10
4637.5 -10.3077
4638.5 -12.0769
4639.5 0.384615
4640.5 -9.07692
4641.5 -4.07692
4642.5 4.76923
4643.5 -7.69231
4644.5 0.461538
4645.5 2.07692
4646.5 -4.15385
4647.5 -16
4648.5 34.8462
4649.5 -22.0769
4650.5 -21.2308
4651.5 -6.69231
4652.5 -27.7692
4653.5 -12.6154
4654.5 -10.0769
4655.5 -5.61538
4656.5 -6.23077
4657.5 0.153846
4658.5 -1.23077
4659.5 3.53846
4660.5 -1.23077
4661.5 5.23077
4662.5 -5.53846
4663.5 -5.53846
4664.5 0.846154
4665.5 -9.23077
4666.5 -0.153846
4667.5 -5.23077
4668.5 -0.461539
4669.5 -8.30769
4670.5 -0.461539
4671.5 -14.3077
4672.5 -4.23077
4673.5 -3.92308
4674.5 1.53846
4675.5 -0.769231
4676.5 -0.153846
4677.5 -4.15385
4678.5 6.23077
4679.5 -11
4680.5 -6.92308
4681.5 -9
4682.5 -5
4683.5 -17.2308
4684.5 -2.53846
4685.5 7.53846
4686.5 7
4687.5 -1.53846
4688.5 -5.76923
4689.5 -3.69231
4690.5 -3.61538
4691.5 -2.53846
4692.5 -6.53846
4693.5 -5.30769
4694.5 -21.4615
4695.5 4.84615
4696.5 -2.53846
4697.5 -4.92308
4698.5 -13.6154
4699.5 -6.23077
4700.5 -14.6154
4701.5 -9.92308
4702.5 -0.846154
4703.5 -9
4704.5 0.538461
4705.5 0.461538
4706.5 -16.3846
4707.5 -13.3077
4708.5 -9.61538
4709.5 -2.84615
4710.5 -0.230769
4711.5 -11
4712.5 1.53846
4713.5 -13.3846
4714.5 3.46154
4715.5 -9.92308
4716.5 -1.15385
4717.5 -1.46154
4718.5 -0.769231
4719.5 -0.230769
4720.5 -4.23077
4721.5 -6.61538
4722.5 -4.53846
4723.5 -7.84615
4724.5 -5.92308
4725.5 -31.2308
4726.5 2.23077
4727.5 -12.6154
4728.5 -8.53846
4729.5 -4.23077
4730.5 4.46154
4731.5 -0.615385
4732.5 -6.53846
4733.5 2.23077
4734.5 -8.07692
4735.5 -4
4736.5 -8.69231
4737.5 2.76923
4738.5 -2.53846
4739.5 -11.0769
4740.5 -3.15385
4741.5 -8.61538
4742.5 -7.92308
4743.5 -4.53846
4744.5 -6.23077
4745.5 -1.23077
4746.5 -10.2308
4747.5 -10
4748.5 0.692307
4749.5 -1.23077
4750.5 -8.30769
4751.5 -9.61538
4752.5 -4.92308
4753.5 -7.61538
4754.5 -0.0769231
4755.5 -9.23077
4756.5 -9.92308
4757.5 -16
4758.5 -16.0769
4759.5 -6.23077
4760.5 -6.92308
4761.5 -4.53846
4762.5 -4.84615
4763.5 -23.0769
4764.5 -13
4765.5 -3.53846
4766.5 7.84615
4767.5 -5.53846
4768.5 -13.6923
4769.5 -6.84615
4770.5 2.46154
4771.5 -1.61538
4772.5 -3.38462
4773.5 8.69231
4774.5 -6
4775.5 -7.23077
4776.5 -1.76923
4777.5 3.53846
4778.5 -8.15385
4779.5 -1.07692
4780.5 -2.30769
4781.5 -3.84615
4782.5 7.23077
4783.5 10.2308
4784.5 -0.461539
4785.5 -13
4786.5 -5.23077
4787.5 -0.846154
4788.5 -4.84615
4789.5 -7.53846
4790.5 -4.53846
4791.5 -0.461539
4792.5 -1.76923
4793.5 -3.15385
4794.5 1.15385
4795.5 -11
4796.5 -3.84615
4797.5 -1.46154
4798.5 -11.9231
4799.5 -5.92308
4800.5 -4.15385
4801.5 2.15385
4802.5 2.46154
4803.5 -16.4615
4804.5 2.30769
4805.5 13.3846
4806.5 -18
4807.5 -7.61539
4808.5 16.0769
4809.5 0.846153
4810.5 -12.7692
4811.5 2.76923
4812.5 1.15385
4813.5 -0.230769
4814.5 -0.846154
4815.5 -1.92308
4816.5 3.23077
4817.5 -0.230769
4818.5 -6.23077
4819.5 -1.15385
4820.5 -7.84615
4821.5 -2.15385
4822.5 -5.15385
4823.5 -5.15385
4824.5 -6.53846
4825.5 -1.15385
4826.5 -12.6154
4827.5 0.230769
4828.5 -8.84615
4829.5 4.61538
4830.5 -3.76923
4831.5 -0.153846
4832.5 3.23077
4833.5 -1.07692
4834.5 -4.76923
4835.5 -11.3077
4836.5 12
4837.5 -6.23077
4838.5 -9.30769
4839.5 -1.07692
4840.5 -3.53846
4841.5 -5.53846
4842.5 2.84615
4843.5 -0.153846
4844.5 -1.15385
4845.5 2.23077
4846.5 -4.15385
4847.5 0.461538
4848.5 7.23077
4849.5 2.15385
4850.5 2.15385
4851.5 3.53846
4852.5 -4.84615
4853.5 -7.92308
4854.5 -18.7692
4855.5 2.69231
4856.5 3.46154
4857.5 -2.23077
4858.5 -11.3077
4859.5 -12.6154
4860.5 -2.53846
4861.5 -3.84615
4862.5 5.61538
4863.5 -13.3077
4864.5 -9.53846
4865.5 -2.15385
4866.5 -1.46154
4867.5 -3.84615
4868.5 -6.23077
4869.5 2.46154
4870.5 -11.6154
4871.5 -19.0769
4872.5 5.15385
4873.5 -8.92308
4874.5 2.53846
4875.5 -8.23077
4876.5 -10.6154
4877.5 -4.53846
4878.5 -1.46154
4879.5 -6.84615
4880.5 -1.15385
4881.5 -6.92308
4882.5 3.84615
4883.5 4.84615
4884.5 1.76923
4885.5 10.5385
4886.5 5.84615
4887.5 -2.30769
4888.5 -7.23077
4889.5 -2.53846
4890.5 2.46154
4891.5 3.53846
4892.5 -1.15385
4893.5 -3.84615
4894.5 0.923077
4895.5 -5.15385
4896.5 6.61538
4897.5 -4.15385
4898.5 0.923077
4899.5 -5.15385
4900.5 2.15385
4901.5 -4.23077
4902.5 -0.923077
4903.5 -7.92308
4904.5 -9.61538
4905.5 16.2308
4906.5 4.61538
4907.5 1.53846
4908.5 -5.84615
4909.5 -0.153846
4910.5 6.23077
4911.5 -3.76923
4912.5 -2.46154
4913.5 -24.0769
4914.5 -5.15385
4915.5 3.23077
4916.5 8.61538
4917.5 -12.6154
4918.5 1.84615
4919.5 -2.23077
4920.5 -1.46154
4921.5 -3.84615
4922.5 -1.46154
4923.5 2.92308
4924.5 0.538461
4925.5 -4.76923
4926.5 -0.0769231
4927.5 -1.07692
4928.5 2.92308
4929.5 -6.53846
4930.5 0.230769
4931.5 -0.0769231
4932.5 -5.15385
4933.5 4.30769
4934.5 0.230769
4935.5 -1.76923
4936.5 -15.6154
4937.5 2.30769
4938.5 3.92308
4939.5 0.230769
4940.5 7.30769
4941.5 -5.15385
4942.5 -2.84615
4943.5 2.46154
4944.5 -11.9231
4945.5 4.23077
4946.5 4.92308
4947.5 8.61538
4948.5 -9.53846
4949.5 3.92308
4950.5 0.230769
4951.5 3.53846
4952.5 -0.769231
4953.5 -3.46154
4954.5 -1.07692
4955.5 2.61538
4956.5 -3.07692
4957.5 2.61538
4958.5 -2.15385
4959.5 0.230769
4960.5 0.538461
4961.5 -2.15385
4962.5 3.92308
4963.5 -3.15385
4964.5 5.53846
4965.5 2.23077
4966.5 4.84615
4967.5 0.153846
4968.5 -1.84615
4969.5 4.23077
4970.5 0.923077
4971.5 0.230769
4972.5 1.92308
4973.5 -0.769231
4974.5 2.61538
4975.5 0.846154
4976.5 3.23077
4977.5 1.53846
4978.5 -10.6154
4979.5 12.6154
4980.5 9.23077
4981.5 -1.23077
4982.5 16.6154
4983.5 -2.92308
4984.5 15.9231
4985.5 8.53846
4986.5 6.23077
4987.5 10.6154
4988.5 6.23077
4989.5 2.53846
4990.5 4.23077
4991.5 7.30769
4992.5 5.92308
4993.5 3.53846
4994.5 1.53846
4995.5 1.07692
4996.5 -3.30769
4997.5 -4.92308
4998.5 -10.2308
4999.5 -18.3846
5000.5 -36.0769
5001.5 -84.4615
5002.5 -132.231
5003.5 -208.769
5004.5 -293.231
5005.5 -394.154
5006.5 -372.385
5007.5 -280.769
5008.5 -202.923
5009.5 -92.2308
5010.5 -53.2308
5011.5 -28.2308
5012.5 -8.23077
5013.5 -7.23077
5014.5 -0.769231
5015.5 -0.153846
5016.5 2.23077
5017.5 9.23077
5018.5 4.30769
5019.5 6.23077
5020.5 -1.84615
5021.5 -3.53846
5022.5 7.92308
5023.5 1.15385
5024.5 9.23077
5025.5 -0.153846
5026.5 3.92308
5027.5 3.92308
5028.5 -1.15385
5029.5 1.23077
5030.5 3.61538
5031.5 1.92308
5032.5 1.92308
5033.5 0.846154
5034.5 0.923077
5035.5 -3.46154
5036.5 3.61538
5037.5 12
5038.5 5
5039.5 -0.769231
5040.5 -2.38462
5041.5 -0.461539
5042.5 3.61538
5043.5 -2.76923
5044.5 -0.769231
5045.5 1.92308
5046.5 1.92308
5047.5 5.61538
5048.5 5.30769
5049.5 5.61538
5050.5 5.23077
5051.5 -1.07692
5052.5 -0.0769231
5053.5 -0.769231
5054.5 0.615385
5055.5 5.30769
5056.5 0.307692
5057.5 0.307692
5058.5 -4.07692
5059.5 3.61538
5060.5 -2.07692
5061.5 1.61538
5062.5 5
5063.5 -2.76923
5064.5 -0.384615
5065.5 4.30769
5066.5 5.30769
5067.5 7.30769
5068.5 -4.15385
5069.5 -3.46154
5070.5 -4.76923
5071.5 1.61538
5072.5 2.61538
5073.5 -2.15385
5074.5 -2.07692
5075.5 6
5076.5 5.30769
5077.5 0.923077
5078.5 -0.461539
5079.5 0.538461
5080.5 -5.46154
5081.5 -0.153846
5082.5 3.23077
5083.5 0.230769
5084.5 1.23077
5085.5 -4.53846
5086.5 4.92308
5087.5 6.30769
5088.5 5.30769
5089.5 3.23077
5090.5 -5.15385
5091.5 5.30769
5092.5 0.538461
5093.5 -2.38462
5094.5 -1.46154
5095.5 4.61538
5096.5 -4.76923
5097.5 -3.76923
5098.5 1.61538
5099.5 3.61538
5100.5 2.30769
5101.5 -3.46154
5102.5 -2.46154
5103.5 4.30769
5104.5 5.30769
5105.5 2.61538
5106.5 3.61538
5107.5 0.230769
5108.5 6.30769
5109.5 6
5110.5 -6.15385
5111.5 4.30769
5112.5 -3.76923
5113.5 -4.46154
5114.5 -2.07692
5115.5 -1.76923
5116.5 9.30769
5117.5 -6.46154
5118.5 5.61538
5119.5 -3.15385
5120.5 0.615385
5121.5 8.92308
5122.5 1.92308
5123.5 -2.76923
5124.5 0.230769
5125.5 0.923077
5126.5 2.92308
5127.5 5.61538
5128.5 3.23077
5129.5 -2.76923
5130.5 -0.769231
5131.5 -8.53846
5132.5 2.61538
5133.5 -2.76923
5134.5 -4.53846
5135.5 -2.07692
5136.5 4.30769
5137.5 0.615385
5138.5 -2.07692
5139.5 -4.15385
5140.5 -3.46154
5141.5 0.923077
5142.5 2.61538
5143.5 -6.15385
5144.5 3.23077
5145.5 7.92308
5146.5 1.61538
5147.5 -4.46154
5148.5 4.30769
5149.5 7
5150.5 0.615385
5151.5 3.30769
5152.5 5.30769
5153.5 3
5154.5 -1.38462
5155.5 2.61538
5156.5 6.61538
5157.5 3
5158.5 2.92308
5159.5 -5.46154
5160.5 -3.15385
5161.5 7.30769
5162.5 -11.9231
5163.5 2.92308
5164.5 -1.46154
5165.5 -5.15385
5166.5 -0.0769231
5167.5 0.615385
5168.5 -1.38462
5169.5 5.30769
5170.5 1.30769
5171.5 -0.0769231
5172.5 -2.38462
5173.5 2.61538
5174.5 2.61538
5175.5 -1.76923
5176.5 4.61538
5177.5 -0.769231
5178.5 4.92308
5179.5 -0.0769231
5180.5 -2.07692
5181.5 -0.461539
5182.5 2.61538
5183.5 0.615385
5184.5 -1.76923
5185.5 6
5186.5 -3.07692
5187.5 -3.84615
5188.5 1.61538
5189.5 4
5190.5 0.923077
5191.5 -7.15385
5192.5 3.30769
5193.5 -3.15385
5194.5 0.307692
5195.5 2.61538
5196.5 -1.07692
5197.5 2.92308
5198.5 0.230769
5199.5 -5.84615
5200.5 7
5201.5 -4.76923
5202.5 -2.15385
5203.5 10
5204.5 0.230769
5205.5 3
5206.5 6.30769
5207.5 5.92308
5208.5 -1.07692
5209.5 4.30769
5210.5 -1.76923
5211.5 8.30769
5212.5 -4.76923
5213.5 -1.76923
5214.5 3.92308
5215.5 5.30769
5216.5 7.23077
5217.5 2.30769
5218.5 4
5219.5 4
5220.5 7.61538
5221.5 -4.76923
5222.5 5
5223.5 -2.46154
5224.5 9
5225.5 5.30769
5226.5 -4.76923
5227.5 5
5228.5 -0.0769231
5229.5 -4.15385
5230.5 -0.0769231
5231.5 1.23077
5232.5 2.30769
5233.5 -1.38462
5234.5 -4.46154
5235.5 -0.384615
5236.5 2.30769
5237.5 1.23077
5238.5 0.538461
5239.5 2.61538
5240.5 6
5241.5 6.30769
5242.5 5.23077
5243.5 -3.15385
5244.5 -1.76923
5245.5 -2.84615
5246.5 -0.461539
5247.5 4.30769
5248.5 6.30769
5249.5 -3.46154
5250.5 -4.07692
5251.5 -0.0769231
5252.5 1.92308
5253.5 -2.07692
5254.5 2.30769
5255.5 3.61538
5256.5 -0.0769231
5257.5 4.30769
5258.5 -1.76923
5259.5 1.23077
5260.5 4.61538
5261.5 1.23077
5262.5 -4.84615
5263.5 -0.846154
5264.5 4.84615
5265.5 -8.23077
5266.5 -5.53846
5267.5 -13
5268.5 -4.76923
5269.5 -15
5270.5 -16.3846
5271.5 -22.7692
5272.5 -0.461539
5273.5 -1.07692
5274.5 -2.76923
5275.5 5.61538
5276.5 -4.07692
5277.5 -0.384615
5278.5 6.30769
5279.5 7
5280.5 5.61538
5281.5 -7.15385
5282.5 3.30769
5283.5 0.923077
5284.5 1.61538
5285.5 -5.15385
5286.5 0.615385
5287.5 2.61538
5288.5 -0.384615
5289.5 1.61538
5290.5 -1.76923
5291.5 -1.07692
5292.5 -4.46154
5293.5 0.923077
5294.5 7.30769
5295.5 0.923077
5296.5 2.23077
5297.5 3.23077
5298.5 0.153846
5299.5 5.61538
5300.5 0.923077
5301.5 -3.84615
5302.5 -0.0769231
5303.5 5.30769
5304.5 1.92308
5305.5 -0.0769231
5306.5 8
5307.5 -0.0769231
5308.5 2.30769
5309.5 -0.384615
5310.5 -2.15385
5311.5 1.61538
5312.5 0.307692
5313.5 5
5314.5 1.61538
5315.5 -0.384615
5316.5 3.23077
5317.5 -0.0769231
5318.5 -0.0769231
5319.5 3.92308
5320.5 7.30769
5321.5 -4.76923
5322.5 1.61538
5323.5 3.30769
5324.5 3.92308
5325.5 -2.07692
5326.5 -0.0769231
5327.5 6.61538
5328.5 1.61538
5329.5 3.61538
5330.5 6.30769
5331.5 -0.0769231
5332.5 6.61538
5333.5 -0.384615
5334.5 2.92308
5335.5 -3.07692
5336.5 -0.0769231
5337.5 4
5338.5 -4.07692
5339.5 0.307692
5340.5 1.61538
5341.5 -0.0769231
5342.5 -2.38462
5343.5 -3.07692
5344.5 -6.46154
5345.5 1.30769
5346.5 2.92308
5347.5 4.61538
5348.5 -2.46154
5349.5 2.53846
5350.5 1.61538
5351.5 -1.46154
5352.5 3.53846
5353.5 3.46154
5354.5 7.53846
5355.5 7.84615
5356.5 -3.53846
5357.5 0.230769
5358.5 5.92308
5359.5 3.61538
5360.5 8.61538
5361.5 1.61538
5362.5 2.61538
5363.5 0.615385
5364.5 -2.07692
5365.5 -5.07692
5366.5 4.30769
5367.5 -2.76923
5368.5 0.307692
5369.5 4.30769
5370.5 4
5371.5 -1.38462
5372.5 3.30769
5373.5 1.61538
5374.5 -0.0769231
5375.5 0.923077
5376.5 -0.461539
5377.5 -6.15385
5378.5 3.92308
5379.5 5.61538
5380.5 -0.461539
5381.5 4.61538
5382.5 2.61538
5383.5 -1.46154
5384.5 -0.153846
5385.5 -1.07692
5386.5 -2.84615
5387.5 3.23077
5388.5 6.84615
5389.5 3.76923
5390.5 8.23077
5391.5 5.23077
5392.5 0.538461
5393.5 4.23077
5394.5 0.538461
5395.5 5.23077
5396.5 9.76923
5397.5 5.15385
5398.5 9.53846
5399.5 -2.84615
5400.5 1.92308
5401.5 -1.07692
5402.5 0.615385
5403.5 -0.769231
5404.5 5
5405.5 -0.461539
5406.5 3.30769
5407.5 1.30769
5408.5 -3.07692
5409.5 6
5410.5 0.307692
5411.5 4
5412.5 -0.0769231
5413.5 -0.384615
5414.5 0.615385
5415.5 5.30769
5416.5 1.30769
5417.5 2.30769
5418.5 0.615385
5419.5 4
5420.5 5.30769
5421.5 4
5422.5 1.61538
5423.5 4
5424.5 -2.07692
5425.5 1.30769
5426.5 4.61538
5427.5 -2.07692
5428.5 7
5429.5 -1.07692
5430.5 2.92308
5431.5 1.61538
5432.5 4
5433.5 -1.38462
5434.5 0.615385
5435.5 -1.76923
5436.5 3.30769
5437.5 2.30769
5438.5 -0.384615
5439.5 -2.07692
5440.5 4
5441.5 1
5442.5 0.615385
5443.5 0.307692
5444.5 -2.38462
5445.5 7.30769
5446.5 2.61538
5447.5 -1.07692
5448.5 4.30769
5449.5 -2.38462
5450.5 0.923077
5451.5 3
5452.5 -7.46154
5453.5 3
5454.5 0.615385
5455.5 -2.07692
5456.5 8
5457.5 1.61538
5458.5 -4.46154
5459.5 -0.0769231
5460.5 -1.07692
5461.5 7
5462.5 0.307692
5463.5 3
5464.5 -1.07692
5465.5 -3.07692
5466.5 -2.76923
5467.5 1.61538
5468.5 -10.8462
5469.5 3.30769
5470.5 1.92308
5471.5 -3.07692
5472.5 -0.0769231
5473.5 -0.0769231
5474.5 -1.07692
5475.5 2.30769
5476.5 0.923077
5477.5 -2.07692
5478.5 -0.692308
5479.5 2
5480.5 0.307692
5481.5 -0.384615
5482.5 0.615385
5483.5 -1.07692
5484.5 1.61538
5485.5 1.92308
5486.5 4.30769
5487.5 -7.84615
5488.5 2.92308
5489.5 -2.07692
5490.5 4.61538
5491.5 8.30769
5492.5 3.61538
5493.5 -3.07692
5494.5 0.307692
5495.5 -2.76923
5496.5 2
5497.5 1.30769
5498.5 -0.692308
5499.5 3.30769
5500.5 4.30769
5501.5 2
5502.5 4.30769
5503.5 4.61538
5504.5 10
5505.5 1.61538
5506.5 4.30769
5507.5 4.30769
5508.5 11
5509.5 7.30769
5510.5 4.30769
5511.5 1.92308
5512.5 -1.07692
5513.5 3.61538
5514.5 -0.384615
5515.5 1.53846
5516.5 4.61538
5517.5 3.61538
5518.5 1.61538
5519.5 7
5520.5 -0.769231
5521.5 -5.46154
5522.5 -0.769231
5523.5 -1.07692
5524.5 -2.46154
5525.5 1.61538
5526.5 -2.76923
5527.5 2.23077
5528.5 5.30769
5529.5 4.30769
5530.5 4.23077
5531.5 -2.84615
5532.5 -4.92308
5533.5 -8.92308
5534.5 0.461538
5535.5 6.46154
5536.5 -6.07692
5537.5 7.15385
5538.5 -3.69231
5539.5 -0.615385
5540.5 -2.84615
5541.5 6.61538
5542.5 -4.76923
5543.5 -0.769231
5544.5 0.307692
5545.5 1.30769
5546.5 2.30769
5547.5 -7.84615
5548.5 -0.384615
5549.5 4
5550.5 3
5551.5 1.61538
5552.5 2.61538
5553.5 2.30769
5554.5 1.61538
5555.5 4
5556.5 0.615385
5557.5 6.30769
5558.5 1.92308
5559.5 -0.461539
5560.5 0.846154
5561.5 -0.0769231
5562.5 0.923077
5563.5 2.23077
5564.5 -1.46154
5565.5 2.30769
5566.5 -4.76923
5567.5 1.30769
5568.5 1.61538
5569.5 4.30769
5570.5 -0.0769231
5571.5 4.30769
5572.5 3
5573.5 3.61538
5574.5 3
5575.5 2.30769
5576.5 0.615385
5577.5 1.30769
5578.5 1.92308
5579.5 1.30769
5580.5 5.92308
5581.5 6.30769
5582.5 2.23077
5583.5 6.61538
5584.5 -1.07692
5585.5 -2.76923
5586.5 -3.07692
5587.5 0.615385
5588.5 3.61538
5589.5 -5.84615
5590.5 -2.23077
5591.5 10.2308
5592.5 -9
5593.5 0.769231
5594.5 1.15385
5595.5 1.53846
5596.5 -4.15385
5597.5 0.615385
5598.5 1.61538
5599.5 2.30769
5600.5 3.61538
5601.5 6.61538
5602.5 1.92308
5603.5 -2.38462
5604.5 -6.15385
5605.5 4
5606.5 1.30769
5607.5 2
5608.5 0.923077
5609.5 -2.76923
5610.5 4.30769
5611.5 4
5612.5 -0.384615
5613.5 4.61538
5614.5 -3.07692
5615.5 11
5616.5 -3.46154
5617.5 7
5618.5 4.61538
5619.5 -1.76923
5620.5 3
5621.5 1.30769
5622.5 5.30769
5623.5 4.30769
5624.5 -0.0769231
5625.5 3.61538
5626.5 0.307692
5627.5 0.230769
5628.5 2.30769
5629.5 5.30769
5630.5 9
5631.5 3.30769
5632.5 4.61538
5633.5 6.30769
5634.5 10.3077
5635.5 4
5636.5 5
5637.5 4.30769
5638.5 1.30769
5639.5 -0.384615
5640.5 -1.38462
5641.5 2.30769
5642.5 3
5643.5 5.61538
5644.5 1
5645.5 -5.46154
5646.5 -1.07692
5647.5 5
5648.5 -1.07692
5649.5 -0.384615
5650.5 1.30769
5651.5 6.30769
5652.5 -0.0769231
5653.5 -1.07692
5654.5 7
5655.5 2.61538
5656.5 2.30769
5657.5 3.61538
5658.5 0.615385
5659.5 3.61538
5660.5 -3.46154
5661.5 -0.384615
5662.5 -1.69231
5663.5 2
5664.5 3
5665.5 0.307692
5666.5 6.30769
5667.5 4
5668.5 3.30769
5669.5 3
5670.5 0.230769
5671.5 -0.692308
5672.5 7.30769
5673.5 1
5674.5 6.61538
5675.5 -3.07692
5676.5 -1.38462
5677.5 3
5678.5 -3.76923
5679.5 -0.692308
5680.5 3.30769
5681.5 4
5682.5 1.30769
5683.5 2
5684.5 4.61538
5685.5 3
5686.5 -2.38462
5687.5 0.615385
5688.5 2.30769
5689.5 0.307692
5690.5 3.30769
5691.5 -7.15385
5692.5 -4.07692
5693.5 0.307692
5694.5 2.30769
5695.5 2
5696.5 3
5697.5 3.30769
5698.5 3
5699.5 2
5700.5 5
5701.5 4.30769
5702.5 4
5703.5 0.307692
5704.5 5
5705.5 0.307692
5706.5 -4.07692
5707.5 0.615385
5708.5 2.61538
5709.5 -2.38462
5710.5 2.30769
5711.5 1.30769
5712.5 2.30769
5713.5 1.30769
5714.5 -2.07692
5715.5 8.61538
5716.5 3
5717.5 4
5718.5 4.30769
5719.5 3
5720.5 -0.384615
5721.5 -2.07692
5722.5 2
5723.5 1.30769
5724.5 5.30769
5725.5 4.30769
5726.5 3
5727.5 4.61538
5728.5 5
5729.5 3.30769
5730.5 1.61538
5731.5 2.61538
5732.5 5.30769
5733.5 1.30769
5734.5 3.30769
5735.5 -7.84615
5736.5 3.30769
5737.5 -1.76923
5738.5 2.30769
5739.5 -4.76923
5740.5 5
5741.5 5
5742.5 -2.07692
5743.5 -0.384615
5744.5 -3.07692
5745.5 4
5746.5 -3.38462
5747.5 1.61538
5748.5 -0.692308
5749.5 1.30769
5750.5 0.615385
5751.5 1.92308
5752.5 2.30769
5753.5 -0.769231
5754.5 -3.53846
5755.5 6.23077
5756.5 -2.76923
5757.5 5.61538
5758.5 4
5759.5 -0.0769231
5760.5 -0.692308
5761.5 2
5762.5 0.307692
5763.5 6
5764.5 1.30769
5765.5 2.30769
5766.5 5.30769
5767.5 2.30769
5768.5 3
5769.5 -3.07692
5770.5 2.30769
5771.5 -0.384615
5772.5 0.307692
5773.5 1
5774.5 -3.07692
5775.5 -7.46154
5776.5 2.30769
5777.5 -1.76923
5778.5 3
5779.5 4
5780.5 2.61538
5781.5 3.30769
5782.5 -4.07692
5783.5 -1.38462
5784.5 -0.384615
5785.5 3
5786.5 6.30769
5787.5 0.307692
5788.5 0.615385
5789.5 0.615385
5790.5 -3.38462
5791.5 -0.692308
5792.5 5
5793.5 0.615385
5794.5 -2.38462
5795.5 4
5796.5 1.61538
5797.5 0
5798.5 1.61538
5799.5 1
5800.5 4.30769
5801.5 2.30769
5802.5 -4.07692
5803.5 1.30769
5804.5 4
5805.5 0.923077
5806.5 2.30769
5807.5 0.615385
5808.5 -0.384615
5809.5 -1.69231
5810.5 -1.69231
5811.5 2
5812.5 -0.692308
5813.5 2
5814.5 -1.38462
5815.5 -1.07692
5816.5 2.30769
5817.5 -0.692308
5818.5 -2.07692
5819.5 2
5820.5 2.30769
5821.5 3
5822.5 2
5823.5 -1.38462
5824.5 -0.384615
5825.5 2.30769
5826.5 3.30769
5827.5 5.30769
5828.5 2.61538
5829.5 4.61538
5830.5 2.30769
5831.5 -2.07692
5832.5 3.30769
5833.5 -0.0769231
5834.5 3.61538
5835.5 2.30769
5836.5 2.30769
5837.5 1.30769
5838.5 -1.76923
5839.5 0.923077
5840.5 1.30769
5841.5 4
5842.5 4.61538
5843.5 6.61538
5844.5 4.61538
5845.5 12
5846.5 2
5847.5 -3.76923
5848.5 0.615385
5849.5 4.30769
5850.5 1.30769
5851.5 -2.38462
5852.5 0.307692
5853.5 3
5854.5 1
5855.5 1
5856.5 -1.69231
5857.5 4
5858.5 -4.07692
5859.5 -0.384615
5860.5 0
5861.5 3.30769
5862.5 1.30769
5863.5 3
5864.5 2.61538
5865.5 3.30769
5866.5 6
5867.5 3
5868.5 -5.07692
5869.5 3
5870.5 3
5871.5 -1.38462
5872.5 3
5873.5 1
5874.5 1.30769
5875.5 -0.384615
5876.5 2.30769
5877.5 -2.07692
5878.5 -3.76923
5879.5 3.30769
5880.5 0.615385
5881.5 1.30769
5882.5 -0.692308
5883.5 -0.692308
5884.5 2.30769
5885.5 2.92308
5886.5 1.30769
5887.5 0.615385
5888.5 4
5889.5 1.30769
5890.5 -3.76923
5891.5 -2.38462
5892.5 2
5893.5 -2.76923
5894.5 1.61538
5895.5 -0.461539
5896.5 11
5897.5 4.23077
5898.5 -4.92308
5899.5 14.8462
5900.5 -3.61538
5901.5 6.15385
5902.5 1.84615
5903.5 8.61538
5904.5 -1.07692
5905.5 2.61538
5906.5 2.30769
5907.5 7
5908.5 6.30769
5909.5 -2.38462
5910.5 0.307692
5911.5 3
5912.5 0.615385
5913.5 2.30769
5914.5 -0.692308
5915.5 3
5916.5 0
5917.5 -0.692308
5918.5 2.30769
5919.5 6
5920.5 0.615385
5921.5 5
5922.5 2.61538
5923.5 2
5924.5 -1.07692
5925.5 1
5926.5 4
5927.5 1.30769
5928.5 1
5929.5 3
5930.5 2
5931.5 2.30769
5932.5 -4.07692
5933.5 -0.384615
5934.5 5
5935.5 1.61538
5936.5 1.61538
5937.5 2
5938.5 1
5939.5 1.30769
5940.5 0.307692
5941.5 1.61538
5942.5 -1.69231
5943.5 -1.07692
5944.5 0.307692
5945.5 0.307692
5946.5 4
5947.5 3
5948.5 1.30769
5949.5 6
5950.5 2
5951.5 0
5952.5 2.30769
5953.5 0.307692
5954.5 2
5955.5 5
5956.5 0.307692
5957.5 2
5958.5 0.307692
5959.5 1.30769
5960.5 -3.07692
5961.5 2
5962.5 3
5963.5 -4.76923
5964.5 4.30769
5965.5 0.307692
5966.5 -4.07692
5967.5 0.615385
5968.5 -6.15385
5969.5 6.61538
5970.5 8.30769
5971.5 5
5972.5 2.30769
5973.5 3.30769
5974.5 -0.384615
5975.5 1
5976.5 0.307692
5977.5 0.307692
5978.5 5.30769
5979.5 2
5980.5 -3.76923
5981.5 -0.384615
5982.5 3
5983.5 1
5984.5 3
5985.5 -1.69231
5986.5 -1.38462
5987.5 2.30769
5988.5 1.30769
5989.5 5
5990.5 -1.69231
5991.5 2.30769
5992.5 0.307692
5993.5 -3.38462
5994.5 0.923077
5995.5 -0.692308
5996.5 0.307692
5997.5 5
5998.5 -2.53846
5999.5 5.23077
6000.5 -0.846154
6001.5 6.23077
6002.5 2.53846
6003.5 5.92308
6004.5 -0.0769231
6005.5 -2.38462
6006.5 2.30769
6007.5 2
6008.5 2.30769
6009.5 -4.76923
6010.5 1
6011.5 -0.692308
6012.5 5
6013.5 -1.38462
6014.5 0.615385
6015.5 5
6016.5 -2.07692
6017.5 -1.07692
6018.5 -1.07692
6019.5 7.30769
6020.5 2.30769
6021.5 2.30769
6022.5 -0.692308
6023.5 2
6024.5 2
6025.5 6
6026.5 0.923077
6027.5 4
6028.5 -3.38462
6029.5 1.30769
6030.5 5.30769
6031.5 1.61538
6032.5 1.53846
6033.5 3.61538
6034.5 10.6154
6035.5 2.23077
6036.5 6
6037.5 -0.384615
6038.5 2
6039.5 3
6040.5 -2.38462
6041.5 -0.692308
6042.5 1.30769
6043.5 1
6044.5 -0.692308
6045.5 4.30769
6046.5 0.307692
6047.5 2.30769
6048.5 1
6049.5 -2.07692
6050.5 0
6051.5 0.307692
6052.5 2.30769
6053.5 3
6054.5 4
6055.5 1
6056.5 3
6057.5 2
6058.5 -0.692308
6059.5 0.923077
6060.5 -0.692308
6061.5 3.61538
6062.5 0.307692
6063.5 2
6064.5 -4.07692
6065.5 3
6066.5 2.30769
6067.5 -2.38462
6068.5 -0.692308
6069.5 2
6070.5 0.307692
6071.5 -0.692308
6072.5 -0.692308
6073.5 -0.692308
6074.5 -1.38462
6075.5 1.30769
6076.5 -1.38462
6077.5 -1.69231
6078.5 -1.69231
6079.5 -1.07692
6080.5 2
6081.5 0
6082.5 -1.69231
6083.5 -2.38462
6084.5 1
6085.5 1
6086.5 -0.692308
6087.5 -0.692308
6088.5 4
6089.5 2
6090.5 3
6091.5 0.615385
6092.5 -1.38462
6093.5 3
6094.5 0.307692
6095.5 -0.384615
6096.5 4
6097.5 0.615385
6098.5 -0.692308
6099.5 0.307692
6100.5 3.61538
6101.5 -2.76923
6102.5 -2.07692
6103.5 -0.384615
6104.5 2
6105.5 -3.46154
6106.5 2.30769
6107.5 1.61538
6108.5 1.92308
6109.5 -0.0769231
6110.5 3.30769
6111.5 -0.769231
6112.5 0.230769
6113.5 4
6114.5 -0.692308
6115.5 -2.38462
6116.5 2.30769
6117.5 0.307692
6118.5 -0.384615
6119.5 6.30769
6120.5 2.30769
6121.5 3.30769
6122.5 -7.53846
6123.5 6.61538
6124.5 -5.15385
6125.5 -3.15385
6126.5 1.53846
6127.5 7
6128.5 -0.0769231
6129.5 0.307692
6130.5 0.615385
6131.5 1
6132.5 1
6133.5 4
6134.5 0.307692
6135.5 -2.07692
6136.5 0.615385
6137.5 1.30769
6138.5 -1.38462
6139.5 1.30769
6140.5 6
6141.5 -2.38462
6142.5 5.30769
6143.5 1
6144.5 1.61538
6145.5 2.23077
6146.5 7
6147.5 8.30769
6148.5 6
6149.5 6.30769
6150.5 5.30769
6151.5 4
6152.5 1
6153.5 3
6154.5 0.307692
6155.5 -2.38462
6156.5 2.30769
6157.5 2
6158.5 -3.38462
6159.5 -0.692308
6160.5 4
6161.5 -5.07692
6162.5 -3.38462
6163.5 -2.38462
6164.5 4
6165.5 1.30769
6166.5 -0.692308
6167.5 0.307692
6168.5 1.30769
6169.5 -0.692308
6170.5 5
6171.5 -0.692308
6172.5 3
6173.5 3
6174.5 2
6175.5 -0.692308
6176.5 -0.384615
6177.5 -3.38462
6178.5 -4.07692
6179.5 1.30769
6180.5 1
6181.5 -3.38462
6182.5 1
6183.5 0
6184.5 -4.76923
6185.5 1
6186.5 4
6187.5 1.30769
6188.5 2
6189.5 -0.692308
6190.5 3
6191.5 -0.692308
6192.5 1.30769
6193.5 -3.07692
6194.5 -1.69231
6195.5 -1.38462
6196.5 -1.69231
6197.5 0.307692
6198.5 1.30769
6199.5 -1.07692
6200.5 2
6201.5 1
6202.5 -0.692308
6203.5 0
6204.5 3
6205.5 0.307692
6206.5 -0.692308
6207.5 3
6208.5 1
6209.5 1
6210.5 0
6211.5 2
6212.5 1
6213.5 1.30769
6214.5 0.307692
6215.5 1
6216.5 0
6217.5 -0.692308
6218.5 0
6219.5 1.30769
6220.5 1
6221.5 0
6222.5 1.30769
6223.5 1.30769
6224.5 2
6225.5 0.615385
6226.5 -0.384615
6227.5 -0.692308
6228.5 4.30769
6229.5 3.30769
6230.5 6
6231.5 1.30769
6232.5 3
6233.5 -2.38462
6234.5 1
6235.5 1
6236.5 -5.07692
6237.5 2
6238.5 -0.692308
6239.5 -2.38462
6240.5 1.30769
6241.5 -1.38462
6242.5 3
6243.5 -4.07692
6244.5 -3.07692
6245.5 -2.07692
6246.5 -4.07692
6247.5 -1.69231
6248.5 -1.69231
6249.5 -0.692308
6250.5 -4.76923
6251.5 0.307692
6252.5 -1.69231
6253.5 -0.692308
6254.5 2
6255.5 2.30769
6256.5 2
6257.5 0.307692
6258.5 -5.07692
6259.5 1.30769
6260.5 2
6261.5 2
6262.5 -0.692308
6263.5 -0.692308
6264.5 3
6265.5 0
6266.5 4
6267.5 1
6268.5 1
6269.5 -5.07692
6270.5 3
6271.5 1
6272.5 2
6273.5 -1.38462
6274.5 1
6275.5 -3.38462
6276.5 -0.692308
6277.5 0
6278.5 2
6279.5 1
6280.5 3
6281.5 2
6282.5 2
6283.5 2
6284.5 -2.38462
6285.5 4
6286.5 -1.69231
6287.5 4
6288.5 5
6289.5 0
6290.5 3
6291.5 -0.692308
6292.5 2
6293.5 2
6294.5 -0.692308
6295.5 -0.692308
6296.5 2
6297.5 -0.692308
6298.5 3
6299.5 -4.76923
6300.5 0.307692
6301.5 -0.692308
6302.5 -5.07692
6303.5 2
6304.5 1
6305.5 2
6306.5 -2.38462
6307.5 0.307692
6308.5 3
6309.5 -5.76923
6310.5 0.307692
6311.5 3
6312.5 3
6313.5 0
6314.5 -1.69231
6315.5 0.615385
6316.5 1.61538
6317.5 0
6318.5 4
6319.5 2
6320.5 -0.692308
6321.5 0.307692
6322.5 1
6323.5 -4.76923
6324.5 3
6325.5 0.307692
6326.5 1
6327.5 -2.07692
6328.5 1
6329.5 0.307692
6330.5 3
6331.5 -0.384615
6332.5 -1.69231
6333.5 3
6334.5 0.307692
6335.5 0.307692
6336.5 2.30769
6337.5 4
6338.5 -0.692308
6339.5 -0.692308
6340.5 -2.38462
6341.5 1
6342.5 1.30769
6343.5 2.30769
6344.5 1.61538
6345.5 0.307692
6346.5 3
6347.5 -2.38462
6348.5 5
6349.5 -5.07692
6350.5 2
6351.5 -1.69231
6352.5 -0.692308
6353.5 4
6354.5 7
6355.5 1
6356.5 0.307692
6357.5 -0.692308
6358.5 1
6359.5 1
6360.5 5
6361.5 -0.384615
6362.5 1
6363.5 1.30769
6364.5 -0.692308
6365.5 2
6366.5 2
6367.5 0
6368.5 2
6369.5 -1.69231
6370.5 1
6371.5 -0.692308
6372.5 0
6373.5 1
6374.5 1
6375.5 1
6376.5 1
6377.5 1
6378.5 1
6379.5 2
6380.5 3
6381.5 -0.692308
6382.5 1.30769
6383.5 -0.692308
6384.5 2
6385.5 2
6386.5 2.30769
6387.5 -0.692308
6388.5 1
6389.5 -0.692308
6390.5 -3.38462
6391.5 -5.07692
6392.5 -0.692308
6393.5 1
6394.5 2
6395.5 5
6396.5 2
6397.5 2
6398.5 3
6399.5 4
6400.5 2
6401.5 1
6402.5 1
6403.5 -1.38462
6404.5 1
6405.5 1.30769
6406.5 1
6407.5 0.307692
6408.5 3
6409.5 1
6410.5 0.307692
6411.5 -2.38462
6412.5 2
6413.5 2
6414.5 -1.69231
6415.5 1
6416.5 -3.07692
6417.5 1.30769
6418.5 -0.384615
6419.5 1.92308
6420.5 -3.76923
6421.5 2.30769
6422.5 1.30769
6423.5 0.307692
6424.5 0.615385
6425.5 2
6426.5 2
6427.5 1
6428.5 -4.07692
6429.5 2
6430.5 3
6431.5 -0.692308
6432.5 -2.38462
6433.5 2
6434.5 0.307692
6435.5 -4.07692
6436.5 -0.692308
6437.5 -3.07692
6438.5 -1.69231
6439.5 0
6440.5 1
6441.5 -0.692308
6442.5 -1.38462
6443.5 -6.76923
6444.5 1
6445.5 1
6446.5 2
6447.5 0
6448.5 2
6449.5 0
6450.5 0
6451.5 1
6452.5 2
6453.5 -1.69231
6454.5 0
6455.5 0.307692
6456.5 1.30769
6457.5 3
6458.5 -1.69231
6459.5 1
6460.5 -0.692308
6461.5 -0.692308
6462.5 0.307692
6463.5 -0.692308
6464.5 -3.38462
6465.5 2
6466.5 0
6467.5 0
6468.5 1
6469.5 3
6470.5 0.615385
6471.5 3
6472.5 -2.38462
6473.5 5
6474.5 -3.38462
6475.5 4
6476.5 2.61538
6477.5 4
6478.5 -2.07692
6479.5 -0.0769231
6480.5 0.615385
6481.5 4.30769
6482.5 -1.07692
6483.5 -0.692308
6484.5 0.307692
6485.5 0.307692
6486.5 3.30769
6487.5 -0.692308
6488.5 -0.692308
6489.5 2
6490.5 2
6491.5 -0.692308
6492.5 0.307692
6493.5 0.307692
6494.5 1
6495.5 0
6496.5 1
6497.5 -0.692308
6498.5 1
6499.5 1
6500.5 1
6501.5 -0.692308
6502.5 1
6503.5 1
6504.5 2
6505.5 2.30769
6506.5 0.307692
6507.5 1
6508.5 2
6509.5 -1.69231
6510.5 3
6511.5 -4.07692
6512.5 3
6513.5 -0.692308
6514.5 3
6515.5 -3.38462
6516.5 -0.692308
6517.5 -2.38462
6518.5 0
6519.5 -3.38462
6520.5 1
6521.5 -0.692308
6522.5 -1.69231
6523.5 -1.38462
6524.5 0
6525.5 2
6526.5 0.307692
6527.5 2
6528.5 1
6529.5 1
6530.5 1
6531.5 -0.692308
6532.5 0
6533.5 0
6534.5 1
6535.5 3
6536.5 1
6537.5 1
6538.5 -1.69231
6539.5 1
6540.5 -0.692308
6541.5 -0.692308
6542.5 -4.76923
6543.5 2.61538
6544.5 4
6545.5 2.30769
6546.5 5.30769
6547.5 1.61538
6548.5 -4.46154
6549.5 3
6550.5 3
6551.5 2
6552.5 -3.38462
6553.5 3
6554.5 -0.692308
6555.5 -1.69231
6556.5 0
6557.5 1
6558.5 1.30769
6559.5 -1.69231
6560.5 3
6561.5 -2.38462
6562.5 1.30769
6563.5 -4.07692
6564.5 -1.69231
6565.5 1.30769
6566.5 -2.38462
6567.5 0
6568.5 -1.69231
6569.5 3
6570.5 2
6571.5 1
6572.5 3
6573.5 0.615385
6574.5 0.307692
6575.5 2.30769
6576.5 -1.38462
6577.5 1
6578.5 2
6579.5 0
6580.5 -0.692308
6581.5 0
6582.5 0
6583.5 -1.69231
6584.5 2
6585.5 1
6586.5 0
6587.5 1
6588.5 -1.69231
6589.5 1
6590.5 -1.69231
6591.5 3
6592.5 0
6593.5 1
6594.5 -1.69231
6595.5 2
6596.5 1.30769
6597.5 1.30769
6598.5 -2.38462
6599.5 0.307692
6600.5 0.307692
6601.5 -1.38462
6602.5 -3.76923
6603.5 4
6604.5 3
6605.5 -0.692308
6606.5 2
6607.5 0
6608.5 1
6609.5 1
6610.5 2
6611.5 1
6612.5 0
6613.5 3
6614.5 1.30769
6615.5 1.30769
6616.5 0
6617.5 -4.07692
6618.5 1
6619.5 2
6620.5 0.307692
6621.5 -5.76923
6622.5 -0.692308
6623.5 3
6624.5 6
6625.5 1
6626.5 2
6627.5 3
6628.5 1
6629.5 0.307692
6630.5 2
6631.5 0
6632.5 1
6633.5 1.30769
6634.5 -1.69231
6635.5 0
6636.5 0
6637.5 0.307692
6638.5 1
6639.5 2
6640.5 1
6641.5 2
6642.5 2
6643.5 0
6644.5 3
6645.5 -1.69231
6646.5 1.30769
6647.5 1
6648.5 -1.69231
6649.5 1
6650.5 -0.692308
6651.5 -3.07692
6652.5 0
6653.5 -1.69231
6654.5 0
6655.5 3
6656.5 1
6657.5 3
6658.5 -1.69231
6659.5 -1.69231
6660.5 0.307692
6661.5 -1.69231
6662.5 -1.69231
6663.5 1
6664.5 0
6665.5 2.30769
6666.5 1.30769
6667.5 -1.69231
6668.5 -1.69231
6669.5 1
6670.5 -2.38462
6671.5 1
6672.5 1
6673.5 0
6674.5 -5.76923
6675.5 1
6676.5 0
6677.5 1
6678.5 2
6679.5 -1.69231
6680.5 1
6681.5 1
6682.5 -0.692308
6683.5 -2.38462
6684.5 1
6685.5 -0.692308
6686.5 1
6687.5 2
6688.5 1
6689.5 -0.692308
6690.5 3
6691.5 0
6692.5 1
6693.5 -0.692308
6694.5 -1.38462
6695.5 -1.69231
6696.5 -4.07692
6697.5 0.307692
6698.5 2
6699.5 -0.384615
6700.5 -3.07692
6701.5 1
6702.5 3
6703.5 1
6704.5 0
6705.5 -0.692308
6706.5 -4.07692
6707.5 0
6708.5 0.307692
6709.5 1.30769
6710.5 2
6711.5 1
6712.5 1
6713.5 2.30769
6714.5 1
6715.5 0
6716.5 -0.692308
6717.5 1
6718.5 -0.692308
6719.5 1
6720.5 1
6721.5 -2.38462
6722.5 0
6723.5 0
6724.5 -3.38462
6725.5 0
6726.5 0.307692
6727.5 -0.692308
6728.5 0.307692
6729.5 0.307692
6730.5 5
6731.5 -1.38462
6732.5 -1.38462
6733.5 0.307692
6734.5 -0.692308
6735.5 3
6736.5 1
6737.5 -0.692308
6738.5 0.307692
6739.5 0.307692
6740.5 1
6741.5 1
6742.5 0.307692
6743.5 1
6744.5 0.307692
6745.5 2
6746.5 2
6747.5 -0.692308
6748.5 3
6749.5 0
6750.5 3
6751.5 -0.692308
6752.5 -0.692308
6753.5 1
6754.5 0
6755.5 4
6756.5 -1.69231
6757.5 0
6758.5 3
6759.5 -0.692308
6760.5 -2.38462
6761.5 2
6762.5 -0.692308
6763.5 5
6764.5 3
6765.5 2
6766.5 4
6767.5 -1.38462
6768.5 -0.384615
6769.5 4
6770.5 -4.76923
6771.5 -0.384615
6772.5 2.30769
6773.5 -6.76923
6774.5 2
6775.5 0.307692
6776.5 0
6777.5 3
6778.5 -0.692308
6779.5 -3.38462
6780.5 0.615385
6781.5 0
6782.5 0
6783.5 1
6784.5 1.30769
6785.5 1
6786.5 2
6787.5 0.307692
6788.5 -2.38462
6789.5 1
6790.5 -0.692308
6791.5 -1.69231
6792.5 0.307692
6793.5 -1.69231
6794.5 1
6795.5 -2.38462
6796.5 0
6797.5 1
6798.5 1
6799.5 0
6800.5 0.307692
6801.5 1
6802.5 2
6803.5 0
6804.5 1
6805.5 -1.69231
6806.5 0
6807.5 0
6808.5 0.307692
6809.5 -3.38462
6810.5 0
6811.5 -1.69231
6812.5 3
6813.5 0.307692
6814.5 1
6815.5 -1.69231
6816.5 2
6817.5 0
6818.5 -0.692308
6819.5 -3.38462
6820.5 1
6821.5 1
6822.5 2
6823.5 0
6824.5 2
6825.5 0.307692
6826.5 2
6827.5 1
6828.5 0
6829.5 0
6830.5 2
6831.5 3
6832.5 0.307692
6833.5 1.30769
6834.5 1
6835.5 2
6836.5 1
6837.5 -2.07692
6838.5 3
6839.5 1
6840.5 -1.69231
6841.5 2
6842.5 -3.07692
6843.5 3
6844.5 -6.76923
6845.5 4
6846.5 1
6847.5 1
6848.5 1
6849.5 2
6850.5 0
6851.5 0
6852.5 0
6853.5 -0.692308
6854.5 -0.692308
6855.5 -3.38462
6856.5 -0.692308
6857.5 2
6858.5 -1.69231
6859.5 -2.38462
6860.5 1
6861.5 1
6862.5 1
6863.5 0
6864.5 2
6865.5 -4.07692
6866.5 0
6867.5 1
6868.5 1
6869.5 1
6870.5 1
6871.5 0
6872.5 1
6873.5 1
6874.5 1
6875.5 0.307692
6876.5 1
6877.5 -0.692308
6878.5 2
6879.5 2
6880.5 -2.38462
6881.5 0
6882.5 -0.692308
6883.5 0
6884.5 0
6885.5 -1.38462
6886.5 -0.692308
6887.5 1
6888.5 2
6889.5 0.307692
6890.5 -1.69231
6891.5 -0.692308
6892.5 1
6893.5 -0.692308
6894.5 -1.69231
6895.5 -1.69231
6896.5 1
6897.5 -0.692308
6898.5 2
6899.5 -1.69231
6900.5 2
6901.5 0.615385
6902.5 -0.692308
6903.5 1
6904.5 -0.692308
6905.5 -1.38462
6906.5 -1.69231
6907.5 4
6908.5 -0.692308
6909.5 1
6910.5 0
6911.5 0
6912.5 2
6913.5 0
6914.5 -1.69231
6915.5 0
6916.5 0
6917.5 1
6918.5 2
6919.5 1
6920.5 -1.69231
6921.5 1
6922.5 -0.692308
6923.5 4
6924.5 1
6925.5 1
6926.5 1
6927.5 1
6928.5 1
6929.5 1
6930.5 1.61538
6931.5 3
6932.5 0.307692
6933.5 -0.692308
6934.5 1.30769
6935.5 -0.692308
6936.5 -1.38462
6937.5 3
6938.5 -1.69231
6939.5 -1.69231
6940.5 -1.69231
6941.5 2
6942.5 1
6943.5 0
6944.5 1
6945.5 -1.69231
6946.5 0
6947.5 0
6948.5 -3.38462
6949.5 -0.692308
6950.5 2
6951.5 0
6952.5 0
6953.5 1.30769
6954.5 1
6955.5 1
6956.5 0
6957.5 1
6958.5 1
6959.5 2
6960.5 2
6961.5 -0.692308
6962.5 1
6963.5 2
6964.5 -5.07692
6965.5 1
6966.5 0
6967.5 -1.69231
6968.5 0
6969.5 3
6970.5 2
6971.5 1
6972.5 0
6973.5 2
6974.5 -2.38462
6975.5 2
6976.5 1
6977.5 1.30769
6978.5 -0.692308
6979.5 1.30769
6980.5 1.30769
6981.5 0.307692
6982.5 2
6983.5 0
6984.5 0
6985.5 1
6986.5 0
6987.5 0
6988.5 0
6989.5 0
6990.5 0
6991.5 0
6992.5 -0.692308
6993.5 0
6994.5 0
6995.5 3
6996.5 1
6997.5 0
6998.5 1
6999.5 0
7000.5 3
7001.5 -1.69231
7002.5 2
7003.5 -1.69231
7004.5 -1.38462
7005.5 3
7006.5 1
7007.5 0
7008.5 1
7009.5 -0.692308
7010.5 1
7011.5 1
7012.5 3
7013.5 0
7014.5 2
7015.5 0
7016.5 2.30769
7017.5 -1.69231
7018.5 0
7019.5 1
7020.5 -1.69231
7021.5 -1.69231
7022.5 1
7023.5 0
7024.5 2
7025.5 -0.692308
7026.5 0
7027.5 1
7028.5 0
7029.5 2
7030.5 -1.69231
7031.5 0
7032.5 3
7033.5 3
7034.5 2
7035.5 0
7036.5 -2.38462
7037.5 1
7038.5 0
7039.5 -2.38462
7040.5 1
7041.5 -5.07692
7042.5 0
7043.5 0
7044.5 -1.69231
7045.5 2
7046.5 0
7047.5 -0.692308
7048.5 -1.38462
7049.5 0
7050.5 -0.692308
7051.5 1
7052.5 -1.69231
7053.5 1
7054.5 1
7055.5 -0.692308
7056.5 4
7057.5 0
7058.5 1
7059.5 -0.692308
7060.5 -2.38462
7061.5 -3.38462
7062.5 0
7063.5 1
7064.5 -2.38462
7065.5 0
7066.5 -1.69231
7067.5 1
7068.5 2
7069.5 -1.69231
7070.5 3
7071.5 0.307692
7072.5 0.307692
7073.5 1
7074.5 1
7075.5 2
7076.5 1
7077.5 -1.38462
7078.5 2.30769
7079.5 0
7080.5 1
7081.5 0
7082.5 0
7083.5 2
7084.5 -0.692308
7085.5 2
7086.5 1
7087.5 2
7088.5 -0.692308
7089.5 1
7090.5 -1.69231
7091.5 1.30769
7092.5 1
7093.5 2
7094.5 -1.69231
7095.5 0
7096.5 3
7097.5 3
7098.5 1
7099.5 0
7100.5 0.307692
7101.5 1.30769
7102.5 -0.384615
7103.5 0
7104.5 -3.38462
7105.5 3
7106.5 -1.69231
7107.5 -4.07692
7108.5 0
7109.5 1
7110.5 -1.69231
7111.5 0
7112.5 2
7113.5 1
7114.5 2
7115.5 -5.76923
7116.5 1.30769
7117.5 -0.692308
7118.5 -1.69231
7119.5 -0.384615
7120.5 -1.69231
7121.5 1.30769
7122.5 1
7123.5 3
7124.5 2.30769
7125.5 1.30769
7126.5 0
7127.5 -0.692308
7128.5 -0.692308
7129.5 0.307692
7130.5 2
7131.5 -0.692308
7132.5 0
7133.5 2
7134.5 -1.69231
7135.5 1
7136.5 -1.69231
7137.5 -1.38462
7138.5 -2.38462
7139.5 -1.69231
7140.5 1
7141.5 0
7142.5 1
7143.5 1
7144.5 1
7145.5 1
7146.5 0
7147.5 2
7148.5 -1.69231
7149.5 -5.07692
7150.5 -0.692308
7151.5 2
7152.5 -1.69231
7153.5 0
7154.5 2
7155.5 -0.692308
7156.5 2
7157.5 0
7158.5 1
7159.5 1
7160.5 1
7161.5 -1.69231
7162.5 1.30769
7163.5 -1.69231
7164.5 0
7165.5 2
7166.5 2
7167.5 4
7168.5 0
7169.5 1
7170.5 -1.69231
7171.5 1.30769
7172.5 -0.692308
7173.5 0
7174.5 0.307692
7175.5 -1.69231
7176.5 -0.692308
7177.5 0
7178.5 0
7179.5 0.307692
7180.5 1
7181.5 1
7182.5 1
7183.5 1
7184.5 1
7185.5 0
7186.5 0.307692
7187.5 -3.38462
7188.5 -2.38462
7189.5 0
7190.5 -1.69231
7191.5 2
7192.5 1.30769
7193.5 0
7194.5 2
7195.5 0
7196.5 0
7197.5 1
7198.5 1
7199.5 2
7200.5 1
7201.5 1
7202.5 2
7203.5 2
7204.5 -4.07692
7205.5 -5.07692
7206.5 5
7207.5 -4.76923
7208.5 -2.38462
7209.5 -2.38462
7210.5 -1.38462
7211.5 -0.692308
7212.5 3
7213.5 4
7214.5 -1.69231
7215.5 -0.692308
7216.5 1
7217.5 2
7218.5 0
7219.5 3
7220.5 0
7221.5 3
7222.5 2
7223.5 0
7224.5 0.307692
7225.5 2
7226.5 1
7227.5 1
7228.5 -2.38462
7229.5 1
7230.5 4
7231.5 0
7232.5 0
7233.5 1
7234.5 1
7235.5 -1.69231
7236.5 0
7237.5 -0.692308
7238.5 1.30769
7239.5 -0.692308
7240.5 -1.69231
7241.5 1
7242.5 2
7243.5 1
7244.5 2
7245.5 3
7246.5 -2.38462
7247.5 -0.692308
7248.5 2
7249.5 -0.692308
7250.5 0
7251.5 2
7252.5 1.30769
7253.5 1
7254.5 1
7255.5 -1.69231
7256.5 -0.692308
7257.5 0.307692
7258.5 0.307692
7259.5 0.307692
7260.5 3.30769
7261.5 1.30769
7262.5 -0.384615
7263.5 1.30769
7264.5 0.307692
7265.5 3
7266.5 4
7267.5 0
7268.5 -1.69231
7269.5 0
7270.5 0
7271.5 0
7272.5 1
7273.5 1
7274.5 1
7275.5 0.307692
7276.5 2
7277.5 2
7278.5 4
7279.5 -2.38462
7280.5 5
7281.5 1
7282.5 0.307692
7283.5 0
7284.5 1
7285.5 1
7286.5 2
7287.5 0
7288.5 0
7289.5 2
7290.5 0
7291.5 -1.69231
7292.5 4
7293.5 -3.38462
7294.5 2
7295.5 -0.692308
7296.5 -0.692308
7297.5 -3.38462
7298.5 1
7299.5 1
7300.5 -0.692308
7301.5 -1.69231
7302.5 0
7303.5 1
7304.5 3
7305.5 2
7306.5 -1.69231
7307.5 -0.692308
7308.5 -0.692308
7309.5 0
7310.5 1
7311.5 2
7312.5 1
7313.5 -2.38462
7314.5 1.30769
7315.5 2
7316.5 2
7317.5 -0.692308
7318.5 -0.692308
7319.5 1
7320.5 -0.692308
7321.5 2
7322.5 1
7323.5 1
7324.5 1
7325.5 0
7326.5 0.307692
7327.5 -1.69231
7328.5 1
7329.5 -0.692308
7330.5 0
7331.5 -1.69231
7332.5 2
7333.5 2
7334.5 1
7335.5 0
7336.5 -1.69231
7337.5 -1.38462
7338.5 1
7339.5 -1.69231
7340.5 1
7341.5 -1.69231
7342.5 1
7343.5 -1.69231
7344.5 0
7345.5 2.30769
7346.5 -2.38462
7347.5 0
7348.5 3
7349.5 2
7350.5 1
7351.5 -2.38462
7352.5 1
7353.5 -1.69231
7354.5 1
7355.5 -5.76923
7356.5 1
7357.5 -0.692308
7358.5 3
7359.5 0
7360.5 0
7361.5 0.307692
7362.5 -0.692308
7363.5 3
7364.5 0
7365.5 0
7366.5 0
7367.5 -1.69231
7368.5 -2.38462
7369.5 1
7370.5 0
7371.5 -1.69231
7372.5 1
7373.5 0
7374.5 0
7375.5 -1.69231
7376.5 0
7377.5 0
7378.5 -0.692308
7379.5 1
7380.5 0
7381.5 1
7382.5 2
7383.5 1
7384.5 0
7385.5 1
7386.5 -1.69231
7387.5 2
7388.5 -1.69231
7389.5 0
7390.5 -1.69231
7391.5 0
7392.5 -1.69231
7393.5 1
7394.5 0
7395.5 0
7396.5 0
7397.5 -2.38462
7398.5 1
7399.5 -1.69231
7400.5 1
7401.5 1
7402.5 1
7403.5 -1.69231
7404.5 1
7405.5 -1.69231
7406.5 1
7407.5 0
7408.5 -3.07692
7409.5 0.307692
7410.5 -1.38462
7411.5 -0.692308
7412.5 4.30769
7413.5 0.307692
7414.5 1
7415.5 1.30769
7416.5 3.30769
7417.5 3
7418.5 0.307692
7419.5 3
7420.5 -3.38462
7421.5 2
7422.5 4
7423.5 -1.69231
7424.5 0
7425.5 0.307692
7426.5 0
7427.5 2
7428.5 0
7429.5 2
7430.5 0
7431.5 -2.38462
7432.5 0
7433.5 0.307692
7434.5 0
7435.5 -1.69231
7436.5 0
7437.5 1
7438.5 -1.69231
7439.5 0
7440.5 0.307692
7441.5 1
7442.5 0
7443.5 0
7444.5 0
7445.5 0
7446.5 0
7447.5 -0.692308
7448.5 2
7449.5 1
7450.5 -2.38462
7451.5 1
7452.5 1
7453.5 0
7454.5 2
7455.5 0
7456.5 0
7457.5 1
7458.5 -0.692308
7459.5 -1.69231
7460.5 0
7461.5 2
7462.5 1
7463.5 0
7464.5 1
7465.5 -2.38462
7466.5 0
7467.5 -0.692308
7468.5 0
7469.5 0
7470.5 0
7471.5 0
7472.5 0
7473.5 1
7474.5 1
7475.5 0
7476.5 -0.692308
7477.5 0
7478.5 1
7479.5 -3.38462
7480.5 2
7481.5 1
7482.5 0
7483.5 -0.692308
7484.5 -0.692308
7485.5 0
7486.5 1
7487.5 0
7488.5 1
7489.5 -0.692308
7490.5 0
7491.5 0
7492.5 0
7493.5 2
7494.5 0
7495.5 1
7496.5 0
7497.5 0.307692
7498.5 0
7499.5 0
7500.5 0
7501.5 0
7502.5 2
7503.5 -1.69231
7504.5 0.307692
7505.5 0
7506.5 0
7507.5 0
7508.5 -3.38462
7509.5 0
7510.5 1
7511.5 0
7512.5 3
7513.5 0
7514.5 1
7515.5 1
7516.5 0
7517.5 1
7518.5 2
7519.5 -2.38462
7520.5 -0.692308
7521.5 0
7522.5 -0.692308
7523.5 0
7524.5 0
7525.5 2
7526.5 0
7527.5 2
7528.5 1
7529.5 0
7530.5 -0.692308
7531.5 1
7532.5 0
7533.5 1
7534.5 0
7535.5 0
7536.5 1
7537.5 -3.38462
7538.5 -1.69231
7539.5 0
7540.5 -1.38462
7541.5 0
7542.5 2
7543.5 -1.69231
7544.5 0
7545.5 1
7546.5 1
7547.5 0
7548.5 1
7549.5 0
7550.5 0
7551.5 0
7552.5 0
7553.5 -1.69231
7554.5 -1.69231
7555.5 0
7556.5 2
7557.5 1
7558.5 -0.692308
7559.5 1
7560.5 0
7561.5 0
7562.5 -0.692308
7563.5 -1.69231
7564.5 1
7565.5 1
7566.5 -1.69231
7567.5 0
7568.5 2
7569.5 0
7570.5 0
7571.5 0
7572.5 1
7573.5 0.307692
7574.5 3
7575.5 -1.69231
7576.5 2
7577.5 0
7578.5 -1.69231
7579.5 0
7580.5 0
7581.5 -1.69231
7582.5 0.307692
7583.5 0
7584.5 0
7585.5 1
7586.5 0
7587.5 1
7588.5 1
7589.5 -0.692308
7590.5 1
7591.5 -1.69231
7592.5 -0.692308
7593.5 2
7594.5 0
7595.5 0
7596.5 0
7597.5 -1.69231
7598.5 0
7599.5 0
7600.5 -0.692308
7601.5 0
7602.5 -1.69231
7603.5 1
7604.5 -1.69231
7605.5 1
7606.5 0
7607.5 0
7608.5 0
7609.5 -0.692308
7610.5 0
7611.5 -1.69231
7612.5 1
7613.5 0
7614.5 2
7615.5 -0.692308
7616.5 0
7617.5 2
7618.5 0
7619.5 0
7620.5 0
7621.5 0
7622.5 1
7623.5 0
7624.5 2
7625.5 0
7626.5 -0.692308
7627.5 -1.69231
7628.5 1
7629.5 -2.38462
7630.5 -1.69231
7631.5 1
7632.5 1
7633.5 -1.69231
7634.5 -1.69231
7635.5 -3.38462
7636.5 1
7637.5 1
7638.5 0
7639.5 1
7640.5 1.30769
7641.5 2
7642.5 -1.69231
7643.5 0
7644.5 0
7645.5 0
7646.5 2
7647.5 1
7648.5 2
7649.5 1
7650.5 0
7651.5 3
7652.5 0
7653.5 1
7654.5 0
7655.5 -1.69231
7656.5 -1.69231
7657.5 0
7658.5 0
7659.5 0
7660.5 0
7661.5 0.307692
7662.5 1
7663.5 -1.69231
7664.5 -1.69231
7665.5 0
7666.5 0
7667.5 0
7668.5 0
7669.5 1
7670.5 2
7671.5 0
7672.5 1
7673.5 1
7674.5 0
7675.5 0
7676.5 0
7677.5 1
7678.5 -2.38462
7679.5 2
7680.5 0
7681.5 0
7682.5 2
7683.5 0
7684.5 0
7685.5 1
7686.5 -0.692308
7687.5 -1.69231
7688.5 0
7689.5 0
7690.5 1
7691.5 0
7692.5 2
7693.5 0
7694.5 1
7695.5 1
7696.5 1
7697.5 -1.69231
7698.5 0
7699.5 0
7700.5 2
7701.5 3
7702.5 0
7703.5 0
7704.5 0.307692
7705.5 2
7706.5 0
7707.5 0
7708.5 0
7709.5 0
7710.5 1
7711.5 0
7712.5 0
7713.5 0
7714.5 0
7715.5 0
7716.5 2
7717.5 0
7718.5 1
7719.5 -1.69231
7720.5 0.307692
7721.5 1.30769
7722.5 -3.38462
7723.5 2
7724.5 0.307692
7725.5 2
7726.5 1
7727.5 3
7728.5 1
7729.5 0
7730.5 2
7731.5 1
7732.5 0
7733.5 0
7734.5 0
7735.5 0
7736.5 -0.692308
7737.5 2
7738.5 -1.69231
7739.5 0
7740.5 0
7741.5 1
7742.5 1
7743.5 -0.692308
7744.5 0
7745.5 0
7746.5 0
7747.5 0
7748.5 0
7749.5 0
7750.5 0
7751.5 1
7752.5 0
7753.5 1
7754.5 0
7755.5 1
7756.5 0
7757.5 0
7758.5 0
7759.5 0
7760.5 -0.692308
7761.5 0
7762.5 -1.69231
7763.5 0
7764.5 0
7765.5 -1.69231
7766.5 1.30769
7767.5 0.615385
7768.5 1.30769
7769.5 -2.38462
7770.5 1
7771.5 1.30769
7772.5 0.615385
7773.5 6.61538
7774.5 1.30769
7775.5 -0.692308
7776.5 -0.692308
7777.5 -3.38462
7778.5 -3.38462
7779.5 -0.692308
7780.5 0
7781.5 0
7782.5 0
7783.5 1
7784.5 -0.692308
7785.5 0
7786.5 0
7787.5 1
7788.5 0
7789.5 0.307692
7790.5 1
7791.5 0
7792.5 2
7793.5 0
7794.5 1
7795.5 1
7796.5 1
7797.5 0
7798.5 0
7799.5 1
7800.5 0
7801.5 0
7802.5 0
7803.5 0
7804.5 0
7805.5 0
7806.5 0
7807.5 0
7808.5 0
7809.5 0
7810.5 0
7811.5 -0.692308
7812.5 0
7813.5 0
7814.5 2
7815.5 0
7816.5 0
7817.5 0
7818.5 0
7819.5 0
7820.5 0
7821.5 1
7822.5 1
7823.5 0
7824.5 0.307692
7825.5 1
7826.5 1
7827.5 2
7828.5 1
7829.5 3
7830.5 0.307692
7831.5 -3.38462
7832.5 0
7833.5 -1.69231
7834.5 1
7835.5 -0.692308
7836.5 1
7837.5 -3.38462
7838.5 -3.38462
7839.5 1
7840.5 0
7841.5 0
7842.5 1
7843.5 -1.69231
7844.5 0
7845.5 -1.69231
7846.5 -1.69231
7847.5 0
7848.5 0
7849.5 0
7850.5 1
7851.5 -0.692308
7852.5 -1.69231
7853.5 0
7854.5 0
7855.5 -1.69231
7856.5 1
7857.5 1
7858.5 -2.38462
7859.5 0
7860.5 0
7861.5 0
7862.5 1
7863.5 0
7864.5 -3.38462
7865.5 0
7866.5 0
7867.5 0
7868.5 0
7869.5 1
7870.5 1
7871.5 0
7872.5 0
7873.5 1
7874.5 -1.69231
7875.5 0
7876.5 0
7877.5 1
7878.5 0
7879.5 0
7880.5 0
7881.5 -0.692308
7882.5 1
7883.5 0
7884.5 0
7885.5 0
7886.5 0
7887.5 -1.69231
7888.5 0
7889.5 1
7890.5 0
7891.5 0
7892.5 0
7893.5 0
7894.5 0
7895.5 1
7896.5 0
7897.5 0
7898.5 0
7899.5 0
7900.5 0
7901.5 1
7902.5 0
7903.5 -1.69231
7904.5 0
7905.5 0
7906.5 1
7907.5 0
7908.5 0
7909.5 0
7910.5 0
7911.5 -0.692308
7912.5 2
7913.5 2
7914.5 1
7915.5 0
7916.5 -1.69231
7917.5 1
7918.5 0
7919.5 0
7920.5 0
7921.5 0
7922.5 2
7923.5 -1.69231
7924.5 0
7925.5 0
7926.5 0
7927.5 0
7928.5 -1.69231
7929.5 1
7930.5 1
7931.5 1
7932.5 1
7933.5 -1.69231
7934.5 0
7935.5 0
7936.5 0
7937.5 -1.69231
7938.5 -1.69231
7939.5 0
7940.5 0
7941.5 0
7942.5 -1.69231
7943.5 0
7944.5 0
7945.5 1
7946.5 0
7947.5 3
7948.5 0
7949.5 0
7950.5 0
7951.5 0
7952.5 0
7953.5 0
7954.5 0
7955.5 1
7956.5 2
7957.5 0
7958.5 4
7959.5 -1.69231
7960.5 -1.69231
7961.5 1
7962.5 0
7963.5 1
7964.5 -0.692308
7965.5 0
7966.5 0
7967.5 -1.69231
7968.5 1
7969.5 0
7970.5 -0.692308
7971.5 0
7972.5 0
7973.5 2
7974.5 1
7975.5 1
7976.5 2
7977.5 1
7978.5 -4.07692
7979.5 1
7980.5 1
7981.5 1
7982.5 0
7983.5 0
7984.5 0
7985.5 0
7986.5 0
7987.5 0
7988.5 0
7989.5 -3.38462
7990.5 1
7991.5 -1.69231
7992.5 0
7993.5 1
7994.5 1
7995.5 -1.69231
7996.5 -1.69231
7997.5 0
7998.5 0
7999.5 1
8000.5 -1.69231
8001.5 1
8002.5 -1.69231
8003.5 0
8004.5 0
8005.5 0
8006.5 0
8007.5 0
8008.5 0
8009.5 0
8010.5 -0.692308
8011.5 0
8012.5 0
8013.5 0
8014.5 0
8015.5 1
8016.5 0
8017.5 0
8018.5 0
8019.5 1
8020.5 -0.692308
8021.5 1
8022.5 -1.69231
8023.5 0
8024.5 1
8025.5 -1.69231
8026.5 1
8027.5 1
8028.5 1
8029.5 0
8030.5 0
8031.5 0
8032.5 0
8033.5 0
8034.5 0
8035.5 0
8036.5 -1.69231
8037.5 0
8038.5 0
8039.5 1
8040.5 1
8041.5 0
8042.5 1
8043.5 0
8044.5 0
8045.5 1
8046.5 -1.69231
8047.5 0
8048.5 0
8049.5 0
8050.5 0
8051.5 0
8052.5 2
8053.5 1
8054.5 1
8055.5 0
8056.5 0
8057.5 0
8058.5 0
8059.5 2
8060.5 0
8061.5 -1.69231
8062.5 0
8063.5 0
8064.5 0
8065.5 1
8066.5 0
8067.5 0
8068.5 -1.69231
8069.5 1
8070.5 -1.69231
8071.5 0
8072.5 1
8073.5 -1.69231
8074.5 1
8075.5 0
8076.5 0
8077.5 0
8078.5 1
8079.5 0
8080.5 0
8081.5 2
8082.5 1
8083.5 1
8084.5 0
8085.5 1
8086.5 1
8087.5 2
8088.5 1
8089.5 0
8090.5 0
8091.5 1
8092.5 -1.69231
8093.5 -3.38462
8094.5 0
8095.5 1
8096.5 0
8097.5 0
8098.5 0
8099.5 3
8100.5 1
8101.5 0
8102.5 0
8103.5 0
8104.5 0
8105.5 1
8106.5 0
8107.5 0
8108.5 0
8109.5 0
8110.5 0
8111.5 0
8112.5 0
8113.5 0
8114.5 0
8115.5 -0.692308
8116.5 1
8117.5 0
8118.5 0
8119.5 0
8120.5 0
8121.5 -1.69231
8122.5 0
8123.5 0
8124.5 0
8125.5 0
8126.5 2
8127.5 0
8128.5 0
8129.5 1
8130.5 -1.69231
8131.5 0
8132.5 0
8133.5 0
8134.5 1
8135.5 -1.69231
8136.5 0
8137.5 0
8138.5 0
8139.5 1
8140.5 0
8141.5 -1.69231
8142.5 1
8143.5 0
8144.5 0
8145.5 -0.692308
8146.5 0
8147.5 0
8148.5 0
8149.5 1
8150.5 0
8151.5 0
8152.5 0
8153.5 0
8154.5 -1.69231
8155.5 -0.692308
8156.5 0
8157.5 0
8158.5 0
8159.5 0
8160.5 0
8161.5 0
8162.5 -1.69231
8163.5 0
8164.5 1
8165.5 0
8166.5 0
8167.5 0
8168.5 1
8169.5 1
8170.5 0
8171.5 2
8172.5 0
8173.5 0
8174.5 0
8175.5 1
8176.5 1
8177.5 1
8178.5 0
8179.5 1
8180.5 0
8181.5 0
8182.5 -0.692308
8183.5 1
8184.5 0
8185.5 0
8186.5 3
8187.5 0
8188.5 0
8189.5 0
8190.5 0
8191.5 1
8192.5 0
8193.5 -0.692308
8194.5 0
8195.5 0
8196.5 1
8197.5 1
8198.5 0
8199.5 1
8200.5 0
8201.5 0
8202.5 0
8203.5 0
8204.5 0
8205.5 0
8206.5 -1.69231
8207.5 0
8208.5 0
8209.5 1
8210.5 0
8211.5 0
8212.5 -1.69231
8213.5 0
8214.5 0
8215.5 0
8216.5 0
8217.5 0
8218.5 0
8219.5 0
8220.5 0
8221.5 0
8222.5 0
8223.5 0
8224.5 1
8225.5 0
8226.5 0
8227.5 0
8228.5 0
8229.5 0
8230.5 -1.69231
8231.5 0
8232.5 -1.69231
8233.5 2
8234.5 1
8235.5 0
8236.5 0
8237.5 0
8238.5 0
8239.5 -1.69231
8240.5 0
8241.5 0
8242.5 0
8243.5 0
8244.5 0
8245.5 1
8246.5 1
8247.5 0
8248.5 0
8249.5 0
8250.5 0
8251.5 0
8252.5 0
8253.5 -1.69231
8254.5 0
8255.5 0
8256.5 0
8257.5 1
8258.5 0
8259.5 0
8260.5 0
8261.5 1
8262.5 -1.69231
8263.5 0
8264.5 1
8265.5 0
8266.5 1
8267.5 -0.692308
8268.5 -1.69231
8269.5 0
8270.5 0
8271.5 0
8272.5 1
8273.5 0
8274.5 1
8275.5 0
8276.5 0
8277.5 0
8278.5 1
8279.5 0
8280.5 0
8281.5 1
8282.5 1
8283.5 0
8284.5 0
8285.5 0
8286.5 0
8287.5 0
8288.5 0
8289.5 0
8290.5 0
8291.5 0
8292.5 0
8293.5 0
8294.5 1
8295.5 0
8296.5 0
8297.5 0
8298.5 2
8299.5 -0.692308
8300.5 0
8301.5 0
8302.5 0
8303.5 -1.69231
8304.5 0
8305.5 0
8306.5 0
8307.5 1
8308.5 0
8309.5 0
8310.5 0
8311.5 1
8312.5 0
8313.5 0
8314.5 0
8315.5 1
8316.5 1
8317.5 0
8318.5 0
8319.5 1
8320.5 0
8321.5 0
8322.5 0
8323.5 0
8324.5 0
8325.5 -1.69231
8326.5 0
8327.5 0
8328.5 0
8329.5 1
8330.5 0
8331.5 -1.69231
8332.5 0
8333.5 -1.69231
8334.5 0
8335.5 0
8336.5 0
8337.5 0
8338.5 1
8339.5 0
8340.5 0
8341.5 0
8342.5 -1.69231
8343.5 0
8344.5 2
8345.5 2
8346.5 1
8347.5 1
8348.5 0
8349.5 0
8350.5 -1.69231
8351.5 0
8352.5 0
8353.5 0
8354.5 -1.69231
8355.5 -1.69231
8356.5 0
8357.5 0
8358.5 0
8359.5 2
8360.5 1
8361.5 0
8362.5 1
8363.5 0
8364.5 0
8365.5 0
8366.5 2
8367.5 0
8368.5 1
8369.5 0
8370.5 -0.692308
8371.5 0
8372.5 1
8373.5 1
8374.5 0
8375.5 0
8376.5 1
8377.5 0
8378.5 2
8379.5 0
8380.5 0
8381.5 0
8382.5 0
8383.5 0
8384.5 1
8385.5 1
8386.5 0
8387.5 1
8388.5 -1.69231
8389.5 0
8390.5 0
8391.5 0
8392.5 0
8393.5 0
8394.5 0
8395.5 0
8396.5 0
8397.5 0
8398.5 0
8399.5 0
8400.5 0
8401.5 1
8402.5 -0.692308
8403.5 -1.69231
8404.5 0
8405.5 -3.38462
8406.5 1
8407.5 0
8408.5 2
8409.5 0
8410.5 0
8411.5 1
8412.5 0
8413.5 0
8414.5 -1.69231
8415.5 0
8416.5 0
8417.5 0
8418.5 0
8419.5 0
8420.5 0
8421.5 0
8422.5 0
8423.5 0
8424.5 0
8425.5 1
8426.5 0
8427.5 0
8428.5 0
8429.5 0
8430.5 1
8431.5 0
8432.5 0
8433.5 0
8434.5 0
8435.5 0
8436.5 0
8437.5 -1.69231
8438.5 0
8439.5 0
8440.5 0
8441.5 0
8442.5 0
8443.5 0
8444.5 0
8445.5 0
8446.5 0
8447.5 0
8448.5 0
8449.5 1
8450.5 0
8451.5 0
8452.5 0
8453.5 0
8454.5 1
8455.5 0
8456.5 0
8457.5 0
8458.5 0
8459.5 0
8460.5 0
8461.5 1
8462.5 1
8463.5 -0.692308
8464.5 0
8465.5 -1.69231
8466.5 1
8467.5 0
8468.5 -2.38462
8469.5 0
8470.5 0
8471.5 0
8472.5 1
8473.5 -1.69231
8474.5 1
8475.5 0
8476.5 0
8477.5 0
8478.5 0
8479.5 0
8480.5 0
8481.5 -1.69231
8482.5 0
8483.5 0
8484.5 0
8485.5 0
8486.5 0
8487.5 0
8488.5 0
8489.5 -1.69231
8490.5 0
8491.5 0
8492.5 -3.38462
8493.5 0
8494.5 0
8495.5 0
8496.5 1
8497.5 1
8498.5 1
8499.5 0
8500.5 0
8501.5 1
8502.5 0
8503.5 -0.692308
8504.5 0
8505.5 0
8506.5 -1.69231
8507.5 1
8508.5 0
8509.5 1
8510.5 -1.69231
8511.5 0
8512.5 0
8513.5 0
8514.5 0
8515.5 2
8516.5 0
8517.5 0
8518.5 0
8519.5 0
8520.5 0
8521.5 0
8522.5 0
8523.5 0
8524.5 0
8525.5 0
8526.5 0
8527.5 0
8528.5 0
8529.5 -1.69231
8530.5 0
8531.5 0
8532.5 3
8533.5 0
8534.5 0
8535.5 1
8536.5 0
8537.5 0
8538.5 1
8539.5 0
8540.5 0
8541.5 -1.69231
8542.5 0
8543.5 0
8544.5 -3.38462
8545.5 0
8546.5 1
8547.5 0
8548.5 -1.69231
8549.5 1
8550.5 2
8551.5 0
8552.5 0
8553.5 -1.69231
8554.5 0
8555.5 0
8556.5 0
8557.5 0
8558.5 0
8559.5 0
8560.5 0
8561.5 0
8562.5 1
8563.5 0
8564.5 2
8565.5 -1.69231
8566.5 0
8567.5 -0.692308
8568.5 -1.69231
8569.5 1
8570.5 0
8571.5 1
8572.5 0
8573.5 1
8574.5 0
8575.5 0
8576.5 1
8577.5 0
8578.5 1
8579.5 0
8580.5 0
8581.5 0
8582.5 1
8583.5 0
8584.5 1
8585.5 0
8586.5 0
8587.5 0
8588.5 1
8589.5 0
8590.5 1
8591.5 0
8592.5 0
8593.5 1
8594.5 0
8595.5 0
8596.5 0
8597.5 -0.692308
8598.5 0
8599.5 0
8600.5 -1.69231
8601.5 0
8602.5 0
8603.5 0
8604.5 2
8605.5 0
8606.5 0
8607.5 1
8608.5 0
8609.5 0
8610.5 0
8611.5 0
8612.5 0
8613.5 0
8614.5 0
8615.5 0
8616.5 0
8617.5 0
8618.5 0
8619.5 0
8620.5 0
8621.5 1
8622.5 0
8623.5 0
8624.5 0
8625.5 -1.69231
8626.5 0
8627.5 0
8628.5 1
8629.5 0
8630.5 0
8631.5 0
8632.5 0
8633.5 0
8634.5 0
8635.5 0
8636.5 0
8637.5 0
8638.5 -1.69231
8639.5 -1.69231
8640.5 0
8641.5 2
8642.5 0
8643.5 0
8644.5 0
8645.5 -1.69231
8646.5 0
8647.5 0
8648.5 -3.38462
8649.5 1
8650.5 0
8651.5 0
8652.5 0
8653.5 0
8654.5 0
8655.5 0
8656.5 -0.692308
8657.5 0
8658.5 0
8659.5 1
8660.5 0
8661.5 1
8662.5 0
8663.5 0
8664.5 0
8665.5 -0.692308
8666.5 0
8667.5 0
8668.5 0
8669.5 0
8670.5 0
8671.5 0
8672.5 0
8673.5 0
8674.5 0
8675.5 1
8676.5 0
8677.5 0
8678.5 0
8679.5 -3.38462
8680.5 1
8681.5 0
8682.5 1
8683.5 0
8684.5 -1.69231
8685.5 0
8686.5 0
8687.5 0
8688.5 0
8689.5 0
8690.5 0
8691.5 -0.692308
8692.5 -1.69231
8693.5 -1.69231
8694.5 0
8695.5 1
8696.5 1
8697.5 0
8698.5 0
8699.5 0
8700.5 1
8701.5 0
8702.5 0
8703.5 0
8704.5 0
8705.5 1
8706.5 1
8707.5 0
8708.5 1
8709.5 0
8710.5 0
8711.5 0
8712.5 -1.69231
8713.5 0
8714.5 1
8715.5 0
8716.5 0
8717.5 0
8718.5 0
8719.5 0
8720.5 0
8721.5 -3.38462
8722.5 1
8723.5 0
8724.5 0
8725.5 0
8726.5 0
8727.5 0
8728.5 0
8729.5 1
8730.5 0
8731.5 0
8732.5 0
8733.5 0
8734.5 2
8735.5 0
8736.5 0
8737.5 0.307692
8738.5 2
8739.5 0
8740.5 0
8741.5 0
8742.5 0
8743.5 1
8744.5 0
8745.5 0
8746.5 1
8747.5 0
8748.5 0
8749.5 0
8750.5 0
8751.5 0
8752.5 2
8753.5 0
8754.5 -1.69231
8755.5 0
8756.5 1
8757.5 0.307692
8758.5 0
8759.5 -1.69231
8760.5 0
8761.5 0
8762.5 0
8763.5 0
8764.5 0
8765.5 0
8766.5 0
8767.5 1
8768.5 0
8769.5 0
8770.5 0
8771.5 0
8772.5 0
8773.5 1
8774.5 0
8775.5 0
8776.5 1
8777.5 1
8778.5 0
8779.5 0
8780.5 0
8781.5 0
8782.5 0
8783.5 0
8784.5 0
8785.5 0
8786.5 0
8787.5 0
8788.5 0
8789.5 0
8790.5 2
8791.5 0
8792.5 0
8793.5 0
8794.5 0
8795.5 0
8796.5 0
8797.5 0
8798.5 0
8799.5 0
8800.5 0
8801.5 0
8802.5 0
8803.5 0
8804.5 1
8805.5 0
8806.5 1
8807.5 0
8808.5 1
8809.5 0
8810.5 0
8811.5 0
8812.5 0
8813.5 0
8814.5 -1.69231
8815.5 0
8816.5 0
8817.5 1
8818.5 0
8819.5 0
8820.5 0
8821.5 0
8822.5 0
8823.5 1
8824.5 0
8825.5 0
8826.5 0
8827.5 2
8828.5 -1.69231
8829.5 1
8830.5 0
8831.5 -0.692308
8832.5 2
8833.5 0
8834.5 0
8835.5 1
8836.5 0
8837.5 1
8838.5 1
8839.5 0
8840.5 -1.69231
8841.5 1
8842.5 0
8843.5 0
8844.5 -0.692308
8845.5 0
8846.5 0
8847.5 -1.69231
8848.5 0
8849.5 1
8850.5 -1.69231
8851.5 0
8852.5 0
8853.5 -1.69231
8854.5 0
8855.5 -3.38462
8856.5 0
8857.5 0
8858.5 0
8859.5 0
8860.5 0
8861.5 0
8862.5 0
8863.5 0
8864.5 0
8865.5 0
8866.5 0
8867.5 0
8868.5 -1.69231
8869.5 0
8870.5 0
8871.5 0
8872.5 0
8873.5 0
8874.5 0
8875.5 0
8876.5 0
8877.5 0
8878.5 0
8879.5 0
8880.5 0
8881.5 0
8882.5 0
8883.5 0
8884.5 0
8885.5 0
8886.5 1
8887.5 0
8888.5 0
8889.5 0
8890.5 0
8891.5 0
8892.5 0
8893.5 0
8894.5 0
8895.5 0
8896.5 1
8897.5 0
8898.5 0
8899.5 0
8900.5 1
8901.5 1
8902.5 1
8903.5 0
8904.5 0
8905.5 0
8906.5 0
8907.5 0
8908.5 0
8909.5 0
8910.5 0
8911.5 2
8912.5 1
8913.5 0
8914.5 0
8915.5 0
8916.5 0
8917.5 0
8918.5 0
8919.5 0
8920.5 0
8921.5 -0.692308
8922.5 0
8923.5 0
8924.5 0
8925.5 0
8926.5 0
8927.5 0
8928.5 0
8929.5 1
8930.5 -1.69231
8931.5 1
8932.5 0
8933.5 1
8934.5 -1.69231
8935.5 0
8936.5 0
8937.5 0
8938.5 0
8939.5 0
8940.5 0
8941.5 -1.69231
8942.5 -1.69231
8943.5 0
8944.5 0
8945.5 0
8946.5 -1.69231
8947.5 0
8948.5 0
8949.5 0
8950.5 0
8951.5 0
8952.5 1
8953.5 0
8954.5 1
8955.5 0
8956.5 1
8957.5 0
8958.5 0
8959.5 0
8960.5 0
8961.5 0
8962.5 0
8963.5 0
8964.5 1
8965.5 0.307692
8966.5 0
8967.5 0
8968.5 0
8969.5 0
8970.5 0
8971.5 0
8972.5 0
8973.5 -1.69231
8974.5 0
8975.5 0
8976.5 0
8977.5 0
8978.5 0
8979.5 0
8980.5 0
8981.5 0
8982.5 0
8983.5 0
8984.5 1
8985.5 0
8986.5 0
8987.5 0
8988.5 0
8989.5 0
8990.5 0
8991.5 0
8992.5 1
8993.5 0
8994.5 1
8995.5 0
8996.5 1
8997.5 2
8998.5 0
8999.5 2
9000.5 -0.692308
9001.5 -1.69231
9002.5 0
9003.5 1
9004.5 -1.69231
9005.5 0
9006.5 0
9007.5 -0.692308
9008.5 0
9009.5 0
9010.5 0
9011.5 1
9012.5 0
9013.5 0
9014.5 0
9015.5 0
9016.5 0
9017.5 0
9018.5 -3.38462
9019.5 -1.69231
9020.5 0
9021.5 0
9022.5 0
9023.5 0
9024.5 0
9025.5 0
9026.5 0
9027.5 0
9028.5 0
9029.5 0
9030.5 0
9031.5 0
9032.5 0
9033.5 0
9034.5 0
9035.5 1
9036.5 0
9037.5 0
9038.5 0
9039.5 0
9040.5 0
9041.5 0
9042.5 0
9043.5 0
9044.5 0
9045.5 0
9046.5 1
9047.5 0
9048.5 1
9049.5 0
9050.5 1
9051.5 0
9052.5 0
9053.5 0
9054.5 1
9055.5 0
9056.5 0
9057.5 1
9058.5 -0.692308
9059.5 0
9060.5 0
9061.5 0
9062.5 0
9063.5 0
9064.5 -0.692308
9065.5 0
9066.5 0
9067.5 1
9068.5 0
9069.5 0
9070.5 0
9071.5 1
9072.5 1
9073.5 -1.69231
9074.5 0
9075.5 0
9076.5 1
9077.5 0
9078.5 -1.69231
9079.5 0
9080.5 1
9081.5 1
9082.5 0
9083.5 0
9084.5 0
9085.5 0
9086.5 0
9087.5 -1.69231
9088.5 1
9089.5 0
9090.5 1
9091.5 0
9092.5 0
9093.5 0
9094.5 0
9095.5 0
9096.5 0
9097.5 0
9098.5 0
9099.5 0
9100.5 0
9101.5 0
9102.5 0
9103.5 0
9104.5 1
9105.5 0
9106.5 0
9107.5 0
9108.5 0
9109.5 0
9110.5 0
9111.5 0
9112.5 0
9113.5 0
9114.5 0
9115.5 -1.69231
9116.5 0
9117.5 -1.69231
9118.5 1
9119.5 0
9120.5 0
9121.5 0
9122.5 0
9123.5 1
9124.5 0
9125.5 0
9126.5 0
9127.5 0
9128.5 0
9129.5 0
9130.5 0
9131.5 0
9132.5 1
9133.5 1
9134.5 0
9135.5 -0.692308
9136.5 -1.69231
9137.5 0
9138.5 0
9139.5 0
9140.5 0
9141.5 1
9142.5 0
9143.5 0
9144.5 0
9145.5 0
9146.5 0
9147.5 0
9148.5 0
9149.5 0
9150.5 0
9151.5 0
9152.5 0
9153.5 0
9154.5 0
9155.5 -0.692308
9156.5 0
9157.5 0
9158.5 0
9159.5 1
9160.5 0
9161.5 1
9162.5 2
9163.5 0
9164.5 1
9165.5 0
9166.5 -1.69231
9167.5 0
9168.5 0
9169.5 -1.69231
9170.5 0
9171.5 0
9172.5 0
9173.5 0
9174.5 0
9175.5 0
9176.5 0
9177.5 0
9178.5 0
9179.5 0
9180.5 0
9181.5 0
9182.5 0
9183.5 0
9184.5 0
9185.5 0
9186.5 0
9187.5 0
9188.5 0
9189.5 0
9190.5 0
9191.5 0.307692
9192.5 0
9193.5 -1.69231
9194.5 0
9195.5 0
9196.5 0
9197.5 0
9198.5 0
9199.5 1
9200.5 0
9201.5 0
9202.5 0
9203.5 1
9204.5 0
9205.5 0
9206.5 1
9207.5 -1.69231
9208.5 1
9209.5 0
9210.5 0
9211.5 0
9212.5 0
9213.5 0
9214.5 0
9215.5 0
9216.5 0
9217.5 0
9218.5 0
9219.5 -1.69231
9220.5 0
9221.5 0
9222.5 2
9223.5 0
9224.5 0
9225.5 0
9226.5 0
9227.5 0
9228.5 0
9229.5 0
9230.5 0
9231.5 0
9232.5 0
9233.5 0
9234.5 0
9235.5 0
9236.5 0
9237.5 -1.69231
9238.5 0
9239.5 0
9240.5 0
9241.5 0
9242.5 0
9243.5 0
9244.5 0
9245.5 1
9246.5 -1.69231
9247.5 1
9248.5 2
9249.5 0
9250.5 0
9251.5 0
9252.5 0
9253.5 0
9254.5 0
9255.5 0
9256.5 0
9257.5 0
9258.5 0
9259.5 1
9260.5 1
9261.5 -1.69231
9262.5 0
9263.5 0
9264.5 0
9265.5 0
9266.5 0
9267.5 0
9268.5 0
9269.5 0
9270.5 -1.69231
9271.5 0
9272.5 0
9273.5 0
9274.5 1
9275.5 0
9276.5 -1.69231
9277.5 0
9278.5 0
9279.5 0
9280.5 0
9281.5 0
9282.5 2
9283.5 0
9284.5 0
9285.5 1
9286.5 0
9287.5 0
9288.5 0
9289.5 1
9290.5 0
9291.5 0
9292.5 -1.69231
9293.5 0
9294.5 0
9295.5 -1.69231
9296.5 -0.692308
9297.5 0
9298.5 0
9299.5 0
9300.5 0
9301.5 -1.69231
9302.5 0
9303.5 0
9304.5 1
9305.5 0
9306.5 0
9307.5 -1.69231
9308.5 0
9309.5 0
9310.5 0
9311.5 0
9312.5 0
9313.5 0
9314.5 0
9315.5 1
9316.5 0
9317.5 -1.69231
9318.5 0
9319.5 0
9320.5 0
9321.5 0
9322.5 0
9323.5 1
9324.5 0
9325.5 -1.69231
9326.5 0
9327.5 0
9328.5 0
9329.5 -1.69231
9330.5 1
9331.5 -1.69231
9332.5 -1.69231
9333.5 0
9334.5 0
9335.5 0
9336.5 1
9337.5 1
9338.5 0.307692
9339.5 0
9340.5 0
9341.5 0
9342.5 0
9343.5 0
9344.5 0
9345.5 0
9346.5 1
9347.5 0
9348.5 0
9349.5 0
9350.5 -1.69231
9351.5 0
9352.5 0
9353.5 0
9354.5 0
9355.5 0
9356.5 0
9357.5 -0.692308
9358.5 1
9359.5 0
9360.5 0
9361.5 -1.69231
9362.5 0
9363.5 1
9364.5 -3.38462
9365.5 0
9366.5 1
9367.5 0
9368.5 0
9369.5 0
9370.5 0
9371.5 0
9372.5 0
9373.5 0
9374.5 0
9375.5 0
9376.5 0
9377.5 0
9378.5 0
9379.5 0
9380.5 0
9381.5 0
9382.5 0
9383.5 1
9384.5 0
9385.5 0
9386.5 -0.692308
9387.5 0
9388.5 0
9389.5 2
9390.5 0
9391.5 0
9392.5 0
9393.5 -1.69231
9394.5 0
9395.5 0
9396.5 0
9397.5 0
9398.5 0
9399.5 1
9400.5 0
9401.5 0
9402.5 0
9403.5 1
9404.5 0
9405.5 0
9406.5 -1.69231
9407.5 0
9408.5 0
9409.5 0
9410.5 0
9411.5 -1.69231
9412.5 0
9413.5 0
9414.5 0
9415.5 1
9416.5 0
9417.5 0
9418.5 0
9419.5 0
9420.5 0
9421.5 0
9422.5 0
9423.5 0
9424.5 0
9425.5 0
9426.5 1
9427.5 0
9428.5 1
9429.5 0
9430.5 0
9431.5 0
9432.5 1
9433.5 0
9434.5 0
9435.5 0
9436.5 1
9437.5 0
9438.5 0
9439.5 0
9440.5 -1.69231
9441.5 0
9442.5 0
9443.5 1
9444.5 0
9445.5 0
9446.5 0
9447.5 0
9448.5 1
9449.5 0
9450.5 1
9451.5 -1.69231
9452.5 0
9453.5 0
9454.5 0
9455.5 0
9456.5 -1.69231
9457.5 0
9458.5 1
9459.5 0
9460.5 1
9461.5 0
9462.5 0
9463.5 1
9464.5 0
9465.5 0
9466.5 0
9467.5 0
9468.5 0
9469.5 0
9470.5 -1.69231
9471.5 1
9472.5 0
9473.5 0
9474.5 0
9475.5 0
9476.5 0
9477.5 0
9478.5 0
9479.5 0
9480.5 -1.69231
9481.5 0
9482.5 0
9483.5 0
9484.5 2
9485.5 0
9486.5 0
9487.5 0
9488.5 1
9489.5 0
9490.5 0
9491.5 0
9492.5 0
9493.5 0
9494.5 0
9495.5 1
9496.5 0
9497.5 1
9498.5 0
9499.5 0
9500.5 0
9501.5 0
9502.5 0
9503.5 0
9504.5 0
9505.5 0
9506.5 0
9507.5 0
9508.5 0
9509.5 1
9510.5 0
9511.5 0
9512.5 0
9513.5 0
9514.5 0
9515.5 0
9516.5 0
9517.5 0
9518.5 0
9519.5 0
9520.5 0
9521.5 0
9522.5 1
9523.5 1
9524.5 1
9525.5 0
9526.5 0
9527.5 -1.69231
9528.5 0
9529.5 0
9530.5 0
9531.5 0
9532.5 0
9533.5 0
9534.5 0
9535.5 0
9536.5 0
9537.5 1
9538.5 0
9539.5 0
9540.5 0
9541.5 1
9542.5 0
9543.5 1
9544.5 0
9545.5 0
9546.5 0
9547.5 1
9548.5 0
9549.5 1
9550.5 0
9551.5 0
9552.5 0
9553.5 0
9554.5 0
9555.5 0
9556.5 0
9557.5 0
9558.5 0
9559.5 0
9560.5 0
9561.5 0
9562.5 0
9563.5 1
9564.5 0
9565.5 0
9566.5 0
9567.5 0
9568.5 0
9569.5 0
9570.5 0
9571.5 -1.69231
9572.5 0
9573.5 0
9574.5 0
9575.5 0
9576.5 0
9577.5 -1.69231
9578.5 0
9579.5 0
9580.5 -1.69231
9581.5 0
9582.5 0
9583.5 0
9584.5 0
9585.5 0
9586.5 -1.69231
9587.5 0
9588.5 0
9589.5 0
9590.5 0
9591.5 0
9592.5 0
9593.5 0
9594.5 0
9595.5 0
9596.5 0
9597.5 0
9598.5 0
9599.5 0
9600.5 0
9601.5 0
9602.5 0
9603.5 0
9604.5 0
9605.5 0
9606.5 0
9607.5 0
9608.5 0
9609.5 0
9610.5 0
9611.5 0
9612.5 0
9613.5 0
9614.5 0
9615.5 -1.69231
9616.5 0
9617.5 0
9618.5 0
9619.5 0
9620.5 1
9621.5 0
9622.5 0
9623.5 -0.692308
9624.5 0
9625.5 0
9626.5 0
9627.5 1
9628.5 0
9629.5 1
9630.5 0
9631.5 0
9632.5 0
9633.5 0
9634.5 1
9635.5 0
9636.5 1
9637.5 0
9638.5 1
9639.5 0
9640.5 0
9641.5 1
9642.5 0
9643.5 -1.69231
9644.5 0
9645.5 0
9646.5 0
9647.5 0
9648.5 0
9649.5 0
9650.5 0
9651.5 0
9652.5 0
9653.5 0
9654.5 0
9655.5 0
9656.5 0
9657.5 0
9658.5 0
9659.5 -1.69231
9660.5 0
9661.5 0
9662.5 0
9663.5 0
9664.5 0
9665.5 0
9666.5 0
9667.5 0
9668.5 0
9669.5 0
9670.5 0
9671.5 0
9672.5 0
9673.5 0
9674.5 0
9675.5 0
9676.5 0
9677.5 0
9678.5 0
9679.5 0
9680.5 0
9681.5 0
9682.5 0
9683.5 0
9684.5 0
9685.5 0
9686.5 0
9687.5 1
9688.5 0
9689.5 1
9690.5 0
9691.5 0
9692.5 -1.69231
9693.5 0
9694.5 0
9695.5 0
9696.5 0
9697.5 0
9698.5 0
9699.5 -1.69231
9700.5 -1.69231
9701.5 0
9702.5 0
9703.5 0
9704.5 0
9705.5 -1.69231
9706.5 0
9707.5 0
9708.5 0
9709.5 0
9710.5 0
9711.5 0
9712.5 0
9713.5 0
9714.5 -1.69231
9715.5 0
9716.5 0
9717.5 0
9718.5 0
9719.5 0
9720.5 0
9721.5 0
9722.5 0
9723.5 0
9724.5 0
9725.5 0
9726.5 0
9727.5 0
9728.5 0
9729.5 0
9730.5 0
9731.5 1
9732.5 0
9733.5 -1.69231
9734.5 0
9735.5 0
9736.5 0
9737.5 1
9738.5 0
9739.5 0
9740.5 0
9741.5 0
9742.5 0
9743.5 0
9744.5 0
9745.5 0
9746.5 0
9747.5 1
9748.5 0
9749.5 0
9750.5 1
9751.5 0
9752.5 0
9753.5 0
9754.5 0
9755.5 0
9756.5 1
9757.5 0
9758.5 0
9759.5 -1.69231
9760.5 1
9761.5 0
9762.5 0
9763.5 -1.69231
9764.5 0
9765.5 0
9766.5 0
9767.5 0
9768.5 0
9769.5 0
9770.5 1
9771.5 0
9772.5 0
9773.5 0
9774.5 0
9775.5 0
9776.5 0
9777.5 0
9778.5 0
9779.5 0
9780.5 0
9781.5 0
9782.5 0
9783.5 0
9784.5 0
9785.5 0
9786.5 -1.69231
9787.5 0
9788.5 0
9789.5 0
9790.5 0
9791.5 0
9792.5 0
9793.5 0
9794.5 0
9795.5 0
9796.5 0
9797.5 0
9798.5 0
9799.5 0
9800.5 0
9801.5 0
9802.5 0
9803.5 0
9804.5 0
9805.5 0
9806.5 0
9807.5 0
9808.5 0
9809.5 0
9810.5 0
9811.5 0
9812.5 0
9813.5 0
9814.5 0
9815.5 0
9816.5 0
9817.5 1
9818.5 0
9819.5 1
9820.5 0
9821.5 0
9822.5 0
9823.5 0
9824.5 0
9825.5 0
9826.5 -1.69231
9827.5 0
9828.5 0
9829.5 0
9830.5 0
9831.5 0
9832.5 0
9833.5 0
9834.5 0
9835.5 0
9836.5 0
9837.5 0
9838.5 0
9839.5 0
9840.5 0
9841.5 0
9842.5 0
9843.5 0
9844.5 0
9845.5 0
9846.5 0
9847.5 0
9848.5 0
9849.5 0
9850.5 0
9851.5 0
9852.5 0
9853.5 0
9854.5 0
9855.5 0
9856.5 -1.69231
9857.5 0
9858.5 0
9859.5 1
9860.5 0
9861.5 0
9862.5 0
9863.5 0
9864.5 0
9865.5 0
9866.5 0
9867.5 0
9868.5 0
9869.5 0
9870.5 0
9871.5 1
9872.5 0
9873.5 0
9874.5 0
9875.5 0
9876.5 0
9877.5 0
9878.5 0
9879.5 0
9880.5 0
9881.5 0
9882.5 0
9883.5 0
9884.5 0
9885.5 0
9886.5 0
9887.5 0
9888.5 0
9889.5 1
9890.5 0
9891.5 0
9892.5 0
9893.5 0
9894.5 0
9895.5 0
9896.5 0
9897.5 0
9898.5 0
9899.5 0
9900.5 -1.69231
9901.5 0
9902.5 0
9903.5 0
9904.5 0
9905.5 0
9906.5 0
9907.5 0
9908.5 0
9909.5 0
9910.5 0
9911.5 0
9912.5 0
9913.5 0
9914.5 0
9915.5 0
9916.5 0
9917.5 0
9918.5 0
9919.5 1
9920.5 0
9921.5 0
9922.5 0
9923.5 0
9924.5 0
9925.5 0
9926.5 0
9927.5 0
9928.5 0
9929.5 0
9930.5 0
9931.5 0
9932.5 0
9933.5 -1.69231
9934.5 -1.69231
9935.5 0
9936.5 0
9937.5 0
9938.5 0
9939.5 0
9940.5 0
9941.5 0
9942.5 0
9943.5 0
9944.5 1
9945.5 0
9946.5 0
9947.5 0
9948.5 0
9949.5 0
9950.5 0
9951.5 0
9952.5 0
9953.5 1
9954.5 1
9955.5 0
9956.5 0
9957.5 0
9958.5 0
9959.5 0
9960.5 0
9961.5 0
9962.5 0
9963.5 0
9964.5 0
9965.5 0
9966.5 0
9967.5 0
9968.5 0
9969.5 1
9970.5 1
9971.5 0
9972.5 1
9973.5 0
9974.5 0
9975.5 0
9976.5 0
9977.5 0
9978.5 0
9979.5 0
9980.5 0
9981.5 0
9982.5 0
9983.5 0
9984.5 0
9985.5 0
9986.5 0
9987.5 0
9988.5 0
9989.5 0
9990.5 -1.69231
9991.5 0
9992.5 0
9993.5 0
9994.5 0
9995.5 0
9996.5 0
9997.5 0
9998.5 0
9999.5 0
10000.5 0
10001.5 0
10002.5 0
10003.5 0
10004.5 0
10005.5 0
10006.5 0
10007.5 0
10008.5 0
10009.5 0
10010.5 0
10011.5 0
10012.5 0
10013.5 0
10014.5 0
10015.5 0
10016.5 0
10017.5 0
10018.5 0
10019.5 0
10020.5 0
10021.5 0
10022.5 -1.69231
10023.5 0
10024.5 0
10025.5 0
10026.5 0
10027.5 0
10028.5 0
10029.5 0
10030.5 0
10031.5 0
10032.5 0
10033.5 0
10034.5 0
10035.5 0
10036.5 0
10037.5 0
10038.5 0
10039.5 0
10040.5 0
10041.5 0
10042.5 0
10043.5 0
10044.5 0
10045.5 0
10046.5 0
10047.5 0
10048.5 0
10049.5 0
10050.5 0
10051.5 0
10052.5 0
10053.5 -1.69231
10054.5 0
10055.5 0
10056.5 0
10057.5 0
10058.5 1
10059.5 0
10060.5 -1.69231
10061.5 0
10062.5 1
10063.5 0
10064.5 0
10065.5 0
10066.5 0
10067.5 0
10068.5 0
10069.5 0
10070.5 0
10071.5 0
10072.5 0
10073.5 0
10074.5 0
10075.5 0
10076.5 0
10077.5 0
10078.5 0
10079.5 0
10080.5 0
10081.5 0
10082.5 0
10083.5 0
10084.5 1
10085.5 0
10086.5 0
10087.5 0
10088.5 0
10089.5 0
10090.5 0
10091.5 0
10092.5 0
10093.5 0
10094.5 0
10095.5 0
10096.5 0
10097.5 0
10098.5 0
10099.5 1
10100.5 0
10101.5 0
10102.5 0
10103.5 0
10104.5 0
10105.5 0
10106.5 0
10107.5 0
10108.5 0
10109.5 0
10110.5 0
10111.5 0
10112.5 0
10113.5 0
10114.5 0
10115.5 0
10116.5 0
10117.5 0
10118.5 0
10119.5 0
10120.5 0
10121.5 0
10122.5 0
10123.5 0
10124.5 0
10125.5 0
10126.5 0
10127.5 0
10128.5 0
10129.5 0
10130.5 0
10131.5 0
10132.5 1
10133.5 0
10134.5 0
10135.5 0
10136.5 0
10137.5 0
10138.5 0
10139.5 0
10140.5 0
10141.5 0
10142.5 0
10143.5 0
10144.5 0
10145.5 0
10146.5 0
10147.5 0
10148.5 0
10149.5 0
10150.5 0
10151.5 0
10152.5 0
10153.5 0
10154.5 0
10155.5 0
10156.5 0
10157.5 0
10158.5 -1.69231
10159.5 0
10160.5 0
10161.5 0
10162.5 0
10163.5 0
10164.5 0
10165.5 0
10166.5 0
10167.5 0
10168.5 0
10169.5 0
10170.5 0
10171.5 0
10172.5 0
10173.5 0
10174.5 0
10175.5 1
10176.5 0
10177.5 0
10178.5 0
10179.5 0
10180.5 0
10181.5 0
10182.5 0
10183.5 0
10184.5 0
10185.5 0
10186.5 0
10187.5 0
10188.5 0
10189.5 0
10190.5 0
10191.5 0
10192.5 0
10193.5 0
10194.5 0
10195.5 0
10196.5 0
10197.5 0
10198.5 0
10199.5 0
10200.5 0
10201.5 0
10202.5 0
10203.5 0
10204.5 0
10205.5 0
10206.5 0
10207.5 0
10208.5 0
10209.5 0
10210.5 0
10211.5 0
10212.5 0
10213.5 0
10214.5 0
10215.5 0
10216.5 0
10217.5 0
10218.5 0
10219.5 0
10220.5 0
10221.5 0
10222.5 0
10223.5 0
10224.5 1
10225.5 0
10226.5 0
10227.5 0
10228.5 0
10229.5 0
10230.5 0
10231.5 0
10232.5 0
10233.5 0
10234.5 0
10235.5 0
10236.5 0
10237.5 0
10238.5 0
10239.5 0
10240.5 0
10241.5 0
10242.5 0
10243.5 0
10244.5 0
10245.5 0
10246.5 0
10247.5 0
10248.5 0
10249.5 0
10250.5 0
10251.5 0
10252.5 0
10253.5 0
10254.5 0
10255.5 0
10256.5 0
10257.5 0
10258.5 0
10259.5 0
10260.5 0
10261.5 0
10262.5 0
10263.5 0
10264.5 0
10265.5 0
10266.5 0
10267.5 0
10268.5 0
10269.5 0
10270.5 0
10271.5 0
10272.5 0
10273.5 0
10274.5 0
10275.5 1
10276.5 0
10277.5 0
10278.5 0
10279.5 0
10280.5 0
10281.5 0
10282.5 0
10283.5 0
10284.5 0
10285.5 0
10286.5 0
10287.5 0
10288.5 0
10289.5 0
10290.5 0
10291.5 0
10292.5 0
10293.5 0
10294.5 0
10295.5 0
10296.5 0
10297.5 0
10298.5 0
10299.5 0
10300.5 0
10301.5 0
10302.5 0
10303.5 0
10304.5 -1.69231
10305.5 0
10306.5 0
10307.5 0
10308.5 0
10309.5 0
10310.5 0
10311.5 0
10312.5 0
10313.5 0
10314.5 0
10315.5 0
10316.5 0
10317.5 0
10318.5 0
10319.5 0
10320.5 0
10321.5 0
10322.5 0
10323.5 0
10324.5 0
10325.5 0
10326.5 0
10327.5 1
10328.5 0
10329.5 0
10330.5 0
10331.5 0
10332.5 0
10333.5 0
10334.5 0
10335.5 0
10336.5 0
10337.5 0
10338.5 0
10339.5 0
10340.5 0
10341.5 0
10342.5 0
10343.5 0
10344.5 0
10345.5 0
10346.5 0
10347.5 0
10348.5 0
10349.5 0
10350.5 0
10351.5 0
10352.5 0
10353.5 1
10354.5 0
10355.5 0
10356.5 0
10357.5 0
10358.5 0
10359.5 0
10360.5 0
10361.5 0
10362.5 0
10363.5 0
10364.5 0
10365.5 0
10366.5 0
10367.5 0
10368.5 0
10369.5 0
10370.5 0
10371.5 0
10372.5 0
10373.5 0
10374.5 0
10375.5 0
10376.5 0
10377.5 0
10378.5 0
10379.5 0
10380.5 0
10381.5 0
10382.5 0
10383.5 0
10384.5 0
10385.5 0
10386.5 0
10387.5 0
10388.5 0
10389.5 0
10390.5 0
10391.5 0
10392.5 0
10393.5 0
10394.5 0
10395.5 1
10396.5 -1.69231
10397.5 0
10398.5 0
10399.5 0
10400.5 0
10401.5 0
10402.5 0
10403.5 0
10404.5 0
10405.5 0
10406.5 0
10407.5 0
10408.5 0
10409.5 0
10410.5 0
10411.5 0
10412.5 0
10413.5 0
10414.5 0
10415.5 0
10416.5 0
10417.5 0
10418.5 0
10419.5 0
10420.5 0
10421.5 0
10422.5 0
10423.5 0
10424.5 0
10425.5 0
10426.5 0
10427.5 0
10428.5 0
10429.5 0
10430.5 0
10431.5 0
10432.5 0
10433.5 0
10434.5 0
10435.5 0
10436.5 0
10437.5 0
10438.5 0
10439.5 0
10440.5 0
10441.5 0
10442.5 0
10443.5 0
10444.5 0
10445.5 0
10446.5 0
10447.5 0
10448.5 0
10449.5 0
10450.5 0
10451.5 0
10452.5 0
10453.5 0
10454.5 0
10455.5 0
10456.5 0
10457.5 0
10458.5 0
10459.5 0
10460.5 0
10461.5 0
10462.5 0
10463.5 0
10464.5 0
10465.5 0
10466.5 0
10467.5 0
10468.5 0
10469.5 0
10470.5 0
10471.5 0
10472.5 0
10473.5 0
10474.5 0
10475.5 0
10476.5 0
10477.5 0
10478.5 0
10479.5 0
10480.5 0
10481.5 0
10482.5 0
10483.5 0
10484.5 0
10485.5 0
10486.5 0
10487.5 0
10488.5 0
10489.5 0
10490.5 0
10491.5 0
10492.5 0
10493.5 0
10494.5 0
10495.5 0
10496.5 0
10497.5 0
10498.5 0
10499.5 0
10500.5 0
10501.5 0
10502.5 0
10503.5 0
10504.5 0
10505.5 0
10506.5 0
10507.5 0
10508.5 0
10509.5 -1.69231
10510.5 0
10511.5 0
10512.5 0
10513.5 0
10514.5 0
10515.5 0
10516.5 0
10517.5 0
10518.5 0
10519.5 0
10520.5 0
10521.5 0
10522.5 0
10523.5 0
10524.5 0
10525.5 0
10526.5 0
10527.5 0
10528.5 0
10529.5 0
10530.5 0
10531.5 0
10532.5 0
10533.5 0
10534.5 0
10535.5 0
10536.5 0
10537.5 0
10538.5 0
10539.5 0
10540.5 0
10541.5 0
10542.5 0
10543.5 0
10544.5 0
10545.5 0
10546.5 0
10547.5 0
10548.5 0
10549.5 0
10550.5 0
10551.5 0
10552.5 0
10553.5 0
10554.5 0
10555.5 0
10556.5 0
10557.5 0
10558.5 0
10559.5 0
10560.5 0
10561.5 0
10562.5 0
10563.5 0
10564.5 0
10565.5 0
10566.5 0
10567.5 0
10568.5 0
10569.5 0
10570.5 0
10571.5 0
10572.5 0
10573.5 0
10574.5 0
10575.5 0
10576.5 0
10577.5 0
10578.5 0
10579.5 0
10580.5 0
10581.5 0
10582.5 0
10583.5 0
10584.5 0
10585.5 0
10586.5 0
10587.5 0
10588.5 0
10589.5 0
10590.5 0
10591.5 0
10592.5 0
10593.5 0
10594.5 0
10595.5 0
10596.5 0
10597.5 0
10598.5 0
10599.5 0
10600.5 0
10601.5 0
10602.5 0
10603.5 0
10604.5 0
10605.5 0
10606.5 0
10607.5 0
10608.5 0
10609.5 0
10610.5 0
10611.5 0
10612.5 0
10613.5 0
10614.5 0
10615.5 0
10616.5 0
10617.5 0
10618.5 1
10619.5 0
10620.5 0
10621.5 0
10622.5 0
10623.5 0
10624.5 0
10625.5 0
10626.5 0
10627.5 0
10628.5 0
10629.5 0
10630.5 0
10631.5 0
10632.5 0
10633.5 0
10634.5 0
10635.5 0
10636.5 0
10637.5 0
10638.5 0
10639.5 0
10640.5 0
10641.5 0
10642.5 0
10643.5 0
10644.5 0
10645.5 0
10646.5 0
10647.5 0
10648.5 0
10649.5 0
10650.5 0
10651.5 0
10652.5 0
10653.5 0
10654.5 0
10655.5 0
10656.5 0
10657.5 0
10658.5 0
10659.5 0
10660.5 0
10661.5 0
10662.5 0
10663.5 0
10664.5 0
10665.5 0
10666.5 0
10667.5 0
10668.5 0
10669.5 0
10670.5 0
10671.5 0
10672.5 0
10673.5 0
10674.5 0
10675.5 0
10676.5 0
10677.5 0
10678.5 0
10679.5 0
10680.5 0
10681.5 0
10682.5 0
10683.5 0
10684.5 0
10685.5 0
10686.5 0
10687.5 0
10688.5 0
10689.5 0
10690.5 0
10691.5 0
10692.5 0
10693.5 0
10694.5 0
10695.5 0
10696.5 0
10697.5 0
10698.5 0
10699.5 0
10700.5 0
10701.5 0
10702.5 0
10703.5 0
10704.5 0
10705.5 0
10706.5 0
10707.5 0
10708.5 0
10709.5 0
10710.5 0
10711.5 0
10712.5 0
10713.5 0
10714.5 0
10715.5 0
10716.5 0
10717.5 0
10718.5 0
10719.5 0
10720.5 0
10721.5 0
10722.5 0
10723.5 0
10724.5 0
10725.5 0
10726.5 0
10727.5 0
10728.5 0
10729.5 0
10730.5 0
10731.5 0
10732.5 0
10733.5 0
10734.5 0
10735.5 0
10736.5 0
10737.5 0
10738.5 0
10739.5 0
10740.5 0
10741.5 0
10742.5 0
10743.5 0
10744.5 0
10745.5 -1.69231
10746.5 0
10747.5 0
10748.5 0
10749.5 0
10750.5 0
10751.5 0
10752.5 0
10753.5 0
10754.5 0
10755.5 0
10756.5 0
10757.5 0
10758.5 0
10759.5 0
10760.5 0
10761.5 0
10762.5 0
10763.5 0
10764.5 0
10765.5 0
10766.5 1
10767.5 0
10768.5 0
10769.5 0
10770.5 0
10771.5 0
10772.5 0
10773.5 0
10774.5 0
10775.5 0
10776.5 0
10777.5 0
10778.5 0
10779.5 0
10780.5 0
10781.5 0
10782.5 0
10783.5 0
10784.5 0
10785.5 0
10786.5 0
10787.5 0
10788.5 0
10789.5 0
10790.5 0
10791.5 0
10792.5 0
10793.5 0
10794.5 0
10795.5 0
10796.5 0
10797.5 0
10798.5 0
10799.5 0
10800.5 0
10801.5 0
10802.5 0
10803.5 0
10804.5 0
10805.5 0
10806.5 0
10807.5 0
10808.5 0
10809.5 0
10810.5 0
10811.5 0
10812.5 0
10813.5 0
10814.5 0
10815.5 0
10816.5 0
10817.5 0
10818.5 0
10819.5 0
10820.5 0
10821.5 0
10822.5 0
10823.5 0
10824.5 0
10825.5 0
10826.5 0
10827.5 0
10828.5 0
10829.5 0
10830.5 0
10831.5 0
10832.5 0
10833.5 0
10834.5 0
10835.5 0
10836.5 0
10837.5 0
10838.5 0
10839.5 0
10840.5 0
10841.5 0
10842.5 0
10843.5 0
10844.5 0
10845.5 0
10846.5 0
10847.5 0
10848.5 0
10849.5 0
10850.5 0
10851.5 0
10852.5 0
10853.5 0
10854.5 0
10855.5 0
10856.5 0
10857.5 0
10858.5 0
10859.5 0
10860.5 0
10861.5 0
10862.5 0
10863.5 0
10864.5 0
10865.5 0
10866.5 0
10867.5 0
10868.5 1
10869.5 0
10870.5 0
10871.5 0
10872.5 0
10873.5 0
10874.5 0
10875.5 0
10876.5 0
10877.5 0
10878.5 0
10879.5 0
10880.5 0
10881.5 0
10882.5 0
10883.5 0
10884.5 0
10885.5 0
10886.5 0
10887.5 0
10888.5 0
10889.5 0
10890.5 0
10891.5 0
10892.5 0
10893.5 0
10894.5 0
10895.5 0
10896.5 0
10897.5 0
10898.5 0
10899.5 0
10900.5 0
10901.5 0
10902.5 0
10903.5 0
10904.5 0
10905.5 0
10906.5 0
10907.5 0
10908.5 0
10909.5 -1.69231
10910.5 0
10911.5 0
10912.5 0
10913.5 0
10914.5 -1.69231
10915.5 0
10916.5 0
10917.5 0
10918.5 0
10919.5 0
10920.5 0
10921.5 0
10922.5 0
10923.5 0
10924.5 0
10925.5 0
10926.5 0
10927.5 0
10928.5 0
10929.5 0
10930.5 0
10931.5 0
10932.5 0
10933.5 0
10934.5 0
10935.5 0
10936.5 0
10937.5 0
10938.5 0
10939.5 0
10940.5 0
10941.5 1
10942.5 0
10943.5 0
10944.5 0
10945.5 0
10946.5 0
10947.5 0
10948.5 0
10949.5 0
10950.5 0
10951.5 0
10952.5 0
10953.5 0
10954.5 0
10955.5 0
10956.5 0
10957.5 0
10958.5 0
10959.5 0
10960.5 0
10961.5 0
10962.5 0
10963.5 0
10964.5 0
10965.5 0
10966.5 0
10967.5 0
10968.5 0
10969.5 0
10970.5 0
10971.5 0
10972.5 0
10973.5 0
10974.5 0
10975.5 0
10976.5 0
10977.5 0
10978.5 0
10979.5 0
10980.5 0
10981.5 0
10982.5 0
10983.5 0
10984.5 0
10985.5 0
10986.5 0
10987.5 0
10988.5 0
10989.5 0
10990.5 0
10991.5 0
10992.5 0
10993.5 0
10994.5 0
10995.5 0
10996.5 0
10997.5 0
10998.5 0
10999.5 0
11000.5 0
11001.5 0
11002.5 0
11003.5 0
11004.5 0
11005.5 0
11006.5 0
11007.5 0
11008.5 0
11009.5 0
11010.5 0
11011.5 0
11012.5 0
11013.5 0
11014.5 0
11015.5 0
11016.5 0
11017.5 0
11018.5 0
11019.5 0
11020.5 0
11021.5 0
11022.5 0
11023.5 0
11024.5 0
11025.5 0
11026.5 0
11027.5 0
11028.5 0
11029.5 0
11030.5 0
11031.5 0
11032.5 0
11033.5 0
11034.5 0
11035.5 0
11036.5 0
11037.5 0
11038.5 0
11039.5 0
11040.5 0
11041.5 0
11042.5 0
11043.5 0
11044.5 0
11045.5 0
11046.5 0
11047.5 0
11048.5 0
11049.5 0
11050.5 0
11051.5 0
11052.5 0
11053.5 0
11054.5 0
11055.5 0
11056.5 0
11057.5 0
11058.5 0
11059.5 0
11060.5 0
11061.5 0
11062.5 -1.69231
11063.5 0
11064.5 0
11065.5 0
11066.5 0
11067.5 0
11068.5 0
11069.5 0
11070.5 0
11071.5 0
11072.5 0
11073.5 0
11074.5 0
11075.5 0
11076.5 0
11077.5 0
11078.5 0
11079.5 0
11080.5 0
11081.5 0
11082.5 0
11083.5 0
11084.5 0
11085.5 1
11086.5 0
11087.5 0
11088.5 0
11089.5 0
11090.5 0
11091.5 0
11092.5 0
11093.5 0
11094.5 0
11095.5 0
11096.5 0
11097.5 0
11098.5 0
11099.5 0
11100.5 0
11101.5 0
11102.5 0
11103.5 0
11104.5 0
11105.5 0
11106.5 0
11107.5 0
11108.5 0
11109.5 0
11110.5 0
11111.5 0
11112.5 0
11113.5 0
11114.5 0
11115.5 0
11116.5 0
11117.5 0
11118.5 0
11119.5 0
11120.5 0
11121.5 0
11122.5 0
11123.5 0
11124.5 0
11125.5 0
11126.5 0
11127.5 0
11128.5 0
11129.5 0
11130.5 0
11131.5 0
11132.5 0
11133.5 0
11134.5 0
11135.5 0
11136.5 0
11137.5 0
11138.5 0
11139.5 0
11140.5 0
11141.5 0
11142.5 0
11143.5 0
11144.5 0
11145.5 0
11146.5 0
11147.5 0
11148.5 0
11149.5 0
11150.5 0
11151.5 0
11152.5 0
11153.5 0
11154.5 0
11155.5 0
11156.5 0
11157.5 0
11158.5 0
11159.5 0
11160.5 0
11161.5 0
11162.5 0
11163.5 0
11164.5 0
11165.5 0
11166.5 0
11167.5 0
11168.5 0
11169.5 0
11170.5 0
11171.5 0
11172.5 0
11173.5 0
11174.5 0
11175.5 0
11176.5 0
11177.5 0
11178.5 0
11179.5 0
11180.5 0
11181.5 0
11182.5 0
11183.5 0
11184.5 0
11185.5 0
11186.5 0
11187.5 0
11188.5 0
11189.5 0
11190.5 0
11191.5 0
11192.5 0
11193.5 0
11194.5 0
11195.5 0
11196.5 0
11197.5 0
11198.5 0
11199.5 0
11200.5 0
11201.5 0
11202.5 0
11203.5 0
11204.5 0
11205.5 0
11206.5 0
11207.5 0
11208.5 0
11209.5 0
11210.5 0
11211.5 0
11212.5 0
11213.5 0
11214.5 0
11215.5 0
11216.5 0
11217.5 0
11218.5 0
11219.5 0
11220.5 0
11221.5 0
11222.5 0
11223.5 0
11224.5 0
11225.5 0
11226.5 0
11227.5 0
11228.5 0
11229.5 0
11230.5 0
11231.5 0
11232.5 0
11233.5 0
11234.5 0
11235.5 0
11236.5 0
11237.5 0
11238.5 0
11239.5 0
11240.5 0
11241.5 0
11242.5 0
11243.5 0
11244.5 0
11245.5 0
11246.5 0
11247.5 0
11248.5 0
11249.5 0
11250.5 0
11251.5 0
11252.5 0
11253.5 0
11254.5 0
11255.5 0
11256.5 0
11257.5 0
11258.5 0
11259.5 0
11260.5 0
11261.5 0
11262.5 0
11263.5 0
11264.5 0
11265.5 0
11266.5 0
11267.5 0
11268.5 0
11269.5 0
11270.5 0
11271.5 0
11272.5 0
11273.5 0
11274.5 0
11275.5 0
11276.5 0
11277.5 0
11278.5 0
11279.5 0
11280.5 0
11281.5 0
11282.5 0
11283.5 0
11284.5 0
11285.5 0
11286.5 0
11287.5 0
11288.5 0
11289.5 0
11290.5 0
11291.5 0
11292.5 0
11293.5 0
11294.5 0
11295.5 0
11296.5 0
11297.5 0
11298.5 0
11299.5 0
11300.5 0
11301.5 0
11302.5 0
11303.5 0
11304.5 0
11305.5 0
11306.5 0
11307.5 0
11308.5 0
11309.5 0
11310.5 0
11311.5 0
11312.5 0
11313.5 0
11314.5 0
11315.5 0
11316.5 0
11317.5 1
11318.5 0
11319.5 0
11320.5 0
11321.5 0
11322.5 0
11323.5 0
11324.5 0
11325.5 0
11326.5 0
11327.5 0
11328.5 0
11329.5 0
11330.5 0
11331.5 0
11332.5 0
11333.5 0
11334.5 0
11335.5 0
11336.5 0
11337.5 0
11338.5 0
11339.5 0
11340.5 0
11341.5 0
11342.5 0
11343.5 0
11344.5 0
11345.5 0
11346.5 0
11347.5 0
11348.5 0
11349.5 0
11350.5 0
11351.5 0
11352.5 0
11353.5 0
11354.5 0
11355.5 0
11356.5 0
11357.5 0
11358.5 0
11359.5 0
11360.5 0
11361.5 0
11362.5 0
11363.5 0
11364.5 0
11365.5 0
11366.5 0
11367.5 0
11368.5 0
11369.5 0
11370.5 0
11371.5 0
11372.5 0
11373.5 0
11374.5 0
11375.5 0
11376.5 0
11377.5 0
11378.5 0
11379.5 0
11380.5 0
11381.5 0
11382.5 0
11383.5 0
11384.5 0
11385.5 0
11386.5 0
11387.5 0
11388.5 0
11389.5 0
11390.5 0
11391.5 0
11392.5 0
11393.5 0
11394.5 0
11395.5 0
11396.5 0
11397.5 0
11398.5 0
11399.5 0
11400.5 0
11401.5 1
11402.5 0
11403.5 0
11404.5 0
11405.5 0
11406.5 0
11407.5 0
11408.5 0
11409.5 0
11410.5 0
11411.5 0
11412.5 0
11413.5 0
11414.5 0
11415.5 0
11416.5 0
11417.5 0
11418.5 0
11419.5 0
11420.5 0
11421.5 0
11422.5 0
11423.5 0
11424.5 0
11425.5 0
11426.5 0
11427.5 0
11428.5 1
11429.5 0
11430.5 0
11431.5 0
11432.5 0
11433.5 0
11434.5 0
11435.5 0
11436.5 0
11437.5 0
11438.5 0
11439.5 0
11440.5 0
11441.5 0
11442.5 0
11443.5 0
11444.5 0
11445.5 0
11446.5 0
11447.5 0
11448.5 0
11449.5 0
11450.5 0
11451.5 0
11452.5 0
11453.5 0
11454.5 0
11455.5 0
11456.5 0
11457.5 0
11458.5 0
11459.5 0
11460.5 0
11461.5 0
11462.5 0
11463.5 0
11464.5 0
11465.5 0
11466.5 0
11467.5 0
11468.5 0
11469.5 0
11470.5 0
11471.5 0
11472.5 0
11473.5 0
11474.5 0
11475.5 0
11476.5 0
11477.5 0
11478.5 0
11479.5 0
11480.5 0
11481.5 0
11482.5 0
11483.5 0
11484.5 0
11485.5 0
11486.5 0
11487.5 0
11488.5 0
11489.5 0
11490.5 0
11491.5 0
11492.5 0
11493.5 0
11494.5 0
11495.5 0
11496.5 0
11497.5 0
11498.5 0
11499.5 0
11500.5 0
11501.5 0
11502.5 0
11503.5 0
11504.5 0
11505.5 0
11506.5 0
11507.5 0
11508.5 0
11509.5 0
11510.5 0
11511.5 0
11512.5 0
11513.5 0
11514.5 0
11515.5 0
11516.5 0
11517.5 0
11518.5 0
11519.5 0
11520.5 0
11521.5 0
11522.5 0
11523.5 0
11524.5 0
11525.5 0
11526.5 0
11527.5 0
11528.5 0
11529.5 0
11530.5 0
11531.5 0
11532.5 0
11533.5 0
11534.5 0
11535.5 0
11536.5 0
11537.5 0
11538.5 0
11539.5 0
11540.5 0
11541.5 0
11542.5 0
11543.5 0
11544.5 0
11545.5 0
11546.5 0
11547.5 0
11548.5 0
11549.5 0
11550.5 0
11551.5 0
11552.5 0
11553.5 0
11554.5 0
11555.5 0
11556.5 0
11557.5 0
11558.5 0
11559.5 0
11560.5 0
11561.5 0
11562.5 0
11563.5 0
11564.5 0
11565.5 0
11566.5 0
11567.5 0
11568.5 0
11569.5 0
11570.5 0
11571.5 0
11572.5 0
11573.5 0
11574.5 0
11575.5 0
11576.5 0
11577.5 0
11578.5 0
11579.5 0
11580.5 0
11581.5 0
11582.5 0
11583.5 0
11584.5 0
11585.5 0
11586.5 0
11587.5 0
11588.5 0
11589.5 0
11590.5 0
11591.5 0
11592.5 0
11593.5 0
11594.5 0
11595.5 0
11596.5 0
11597.5 0
11598.5 0
11599.5 0
11600.5 0
11601.5 0
11602.5 0
11603.5 0
11604.5 0
11605.5 0
11606.5 0
11607.5 0
11608.5 0
11609.5 0
11610.5 0
11611.5 0
11612.5 0
11613.5 0
11614.5 0
11615.5 0
11616.5 0
11617.5 0
11618.5 0
11619.5 0
11620.5 0
11621.5 0
11622.5 0
11623.5 0
11624.5 0
11625.5 0
11626.5 0
11627.5 0
11628.5 0
11629.5 0
11630.5 0
11631.5 0
11632.5 0
11633.5 0
11634.5 0
11635.5 0
11636.5 0
11637.5 0
11638.5 0
11639.5 0
11640.5 0
11641.5 0
11642.5 0
11643.5 0
11644.5 0
11645.5 0
11646.5 0
11647.5 0
11648.5 0
11649.5 0
11650.5 0
11651.5 0
11652.5 0
11653.5 0
11654.5 0
11655.5 0
11656.5 0
11657.5 0
11658.5 0
11659.5 0
11660.5 0
11661.5 0
11662.5 0
11663.5 0
11664.5 0
11665.5 0
11666.5 0
11667.5 0
11668.5 0
11669.5 0
11670.5 0
11671.5 0
11672.5 0
11673.5 0
11674.5 0
11675.5 0
11676.5 0
11677.5 0
11678.5 0
11679.5 0
11680.5 0
11681.5 0
11682.5 0
11683.5 0
11684.5 0
11685.5 0
11686.5 0
11687.5 0
11688.5 0
11689.5 0
11690.5 0
11691.5 0
11692.5 0
11693.5 0
11694.5 0
11695.5 0
11696.5 0
11697.5 0
11698.5 0
11699.5 0
11700.5 0
11701.5 0
11702.5 0
11703.5 0
11704.5 0
11705.5 0
11706.5 0
11707.5 0
11708.5 0
11709.5 0
11710.5 0
11711.5 0
11712.5 0
11713.5 0
11714.5 0
11715.5 0
11716.5 0
11717.5 0
11718.5 0
11719.5 0
11720.5 0
11721.5 0
11722.5 0
11723.5 0
11724.5 0
11725.5 0
11726.5 0
11727.5 0
11728.5 0
11729.5 0
11730.5 0
11731.5 0
11732.5 0
11733.5 0
11734.5 0
11735.5 0
11736.5 0
11737.5 0
11738.5 0
11739.5 0
11740.5 0
11741.5 0
11742.5 0
11743.5 0
11744.5 0
11745.5 0
11746.5 0
11747.5 0
11748.5 0
11749.5 0
11750.5 0
11751.5 0
11752.5 0
11753.5 0
11754.5 0
11755.5 0
11756.5 0
11757.5 0
11758.5 0
11759.5 0
11760.5 0
11761.5 0
11762.5 0
11763.5 0
11764.5 0
11765.5 0
11766.5 0
11767.5 0
11768.5 0
11769.5 0
11770.5 0
11771.5 0
11772.5 0
11773.5 0
11774.5 0
11775.5 0
11776.5 0
11777.5 0
11778.5 0
11779.5 0
11780.5 0
11781.5 0
11782.5 0
11783.5 0
11784.5 0
11785.5 0
11786.5 0
11787.5 0
11788.5 0
11789.5 0
11790.5 0
11791.5 0
11792.5 0
11793.5 0
11794.5 1
11795.5 0
11796.5 0
11797.5 0
11798.5 0
11799.5 0
11800.5 1
11801.5 0
11802.5 0
11803.5 0
11804.5 0
11805.5 0
11806.5 0
11807.5 0
11808.5 0
11809.5 0
11810.5 0
11811.5 0
11812.5 0
11813.5 0
11814.5 0
11815.5 0
11816.5 0
11817.5 0
11818.5 0
11819.5 0
11820.5 0
11821.5 0
11822.5 0
11823.5 0
11824.5 0
11825.5 0
11826.5 0
11827.5 0
11828.5 0
11829.5 0
11830.5 0
11831.5 0
11832.5 0
11833.5 0
11834.5 0
11835.5 0
11836.5 0
11837.5 0
11838.5 0
11839.5 0
11840.5 0
11841.5 0
11842.5 0
11843.5 0
11844.5 0
11845.5 0
11846.5 0
11847.5 0
11848.5 0
11849.5 0
11850.5 0
11851.5 0
11852.5 0
11853.5 0
11854.5 0
11855.5 0
11856.5 0
11857.5 0
11858.5 0
11859.5 0
11860.5 0
11861.5 0
11862.5 0
11863.5 -1.69231
11864.5 0
11865.5 0
11866.5 0
11867.5 0
11868.5 0
11869.5 0
11870.5 0
11871.5 0
11872.5 0
11873.5 0
11874.5 0
11875.5 0
11876.5 0
11877.5 0
11878.5 0
11879.5 0
11880.5 0
11881.5 0
11882.5 0
11883.5 0
11884.5 0
11885.5 0
11886.5 0
11887.5 0
11888.5 0
11889.5 0
11890.5 0
11891.5 0
11892.5 0
11893.5 0
11894.5 0
11895.5 0
11896.5 0
11897.5 0
11898.5 0
11899.5 0
11900.5 0
11901.5 0
11902.5 0
11903.5 0
11904.5 0
11905.5 0
11906.5 0
11907.5 0
11908.5 0
11909.5 0
11910.5 0
11911.5 0
11912.5 0
11913.5 0
11914.5 0
11915.5 0
11916.5 0
11917.5 0
11918.5 0
11919.5 0
11920.5 0
11921.5 0
11922.5 0
11923.5 0
11924.5 0
11925.5 0
11926.5 0
11927.5 0
11928.5 0
11929.5 0
11930.5 0
11931.5 0
11932.5 0
11933.5 0
11934.5 0
11935.5 0
11936.5 0
11937.5 0
11938.5 0
11939.5 1
11940.5 0
11941.5 0
11942.5 0
11943.5 0
11944.5 0
11945.5 0
11946.5 0
11947.5 0
11948.5 0
11949.5 0
11950.5 0
11951.5 0
11952.5 0
11953.5 0
11954.5 0
11955.5 0
11956.5 0
11957.5 0
11958.5 0
11959.5 0
11960.5 0
11961.5 0
11962.5 0
11963.5 0
11964.5 0
11965.5 0
11966.5 0
11967.5 0
11968.5 1
11969.5 0
11970.5 0
11971.5 0
11972.5 0
11973.5 0
11974.5 0
11975.5 0
11976.5 0
11977.5 0
11978.5 0
11979.5 0
11980.5 0
11981.5 0
11982.5 0
11983.5 0
11984.5 0
11985.5 0
11986.5 0
11987.5 0
11988.5 0
11989.5 0
11990.5 0
11991.5 0
11992.5 0
11993.5 0
11994.5 0
11995.5 0
11996.5 0
11997.5 0
11998.5 0
11999.5 0
