# EGG_ProjY_E1724.0(3.0)_B1694.0(2.0)_B1747.5(1.5)
# X axis : Energy (keV) [Y axis]
# Y axis : Counts/1 keV
# N Bins : 12000
# X Min : 0
# X Max : 12000
# X value at the center of the bins
0.5 0
1.5 0
2.5 0
3.5 0
4.5 0
5.5 6.28571
6.5 26.4286
7.5 20.7143
8.5 -1.57143
9.5 11.7143
10.5 31.8571
11.5 16
12.5 27.4286
13.5 60.1429
14.5 58.7143
15.5 81.7143
16.5 118.571
17.5 154.857
18.5 208.286
19.5 254.714
20.5 319.714
21.5 522.429
22.5 534.857
23.5 567.429
24.5 764.571
25.5 678.714
26.5 874.857
27.5 1029.43
28.5 1018.43
29.5 1192
30.5 1219.57
31.5 1410.71
32.5 1549.14
33.5 1620.43
34.5 1464.43
35.5 1730
36.5 1698.57
37.5 1765.86
38.5 1818.71
39.5 1939.57
40.5 1961.14
41.5 2193.29
42.5 2074.43
43.5 2177.43
44.5 2127
45.5 2100.71
46.5 2280.57
47.5 2282.86
48.5 2525.57
49.5 2712.29
50.5 2614.14
51.5 2733.14
52.5 2885.14
53.5 3070.86
54.5 3052.29
55.5 3273
56.5 3407.86
57.5 4181.43
58.5 5331.29
59.5 5588.43
60.5 4606.86
61.5 3735.29
62.5 3820.43
63.5 3733.71
64.5 3818.43
65.5 4370
66.5 4621.86
67.5 5086.57
68.5 4509.14
69.5 4303.71
70.5 3877.86
71.5 3338.43
72.5 3708.57
73.5 4464.57
74.5 6618.14
75.5 7552.43
76.5 8610.57
77.5 9298.43
78.5 5151.86
79.5 3448.86
80.5 3117.71
81.5 3195.57
82.5 2899.57
83.5 3052.43
84.5 3283.71
85.5 3637.86
86.5 4991.57
87.5 5568
88.5 4404.43
89.5 4143
90.5 3837.43
91.5 3236.14
92.5 3274.86
93.5 3422
94.5 3270
95.5 3452.29
96.5 3447.71
97.5 3509.29
98.5 3638.43
99.5 3622
100.5 4109.14
101.5 4344.43
102.5 4774.57
103.5 5774.86
104.5 6582
105.5 7127.14
106.5 6933.71
107.5 7072.86
108.5 6731.29
109.5 6601.14
110.5 6348.71
111.5 6152.57
112.5 6055
113.5 5760.86
114.5 5768.57
115.5 5536.29
116.5 5506.57
117.5 5172.43
118.5 5271.57
119.5 4955.29
120.5 5112.86
121.5 4819.43
122.5 4948.43
123.5 4570.14
124.5 4553.71
125.5 4602
126.5 4778.71
127.5 4637
128.5 4861.29
129.5 4958.57
130.5 4998.71
131.5 4789.14
132.5 4900.57
133.5 5014.43
134.5 5085.14
135.5 5065.71
136.5 4894
137.5 4733.71
138.5 4995.14
139.5 5006
140.5 5047
141.5 5139.43
142.5 5565.14
143.5 5503.43
144.5 5972.14
145.5 5982.57
146.5 6459
147.5 6577.57
148.5 6688.43
149.5 6739.14
150.5 6397
151.5 6548.86
152.5 6368.14
153.5 6280.14
154.5 6536.43
155.5 6479.86
156.5 6744.71
157.5 6975.71
158.5 7002.71
159.5 7592.86
160.5 8374.57
161.5 8582.86
162.5 8759.43
163.5 8582.14
164.5 8528.14
165.5 7778.71
166.5 7670.14
167.5 7063.29
168.5 6886.57
169.5 7044.57
170.5 7577.86
171.5 10787.3
172.5 36365.1
173.5 170598
174.5 321521
175.5 136083
176.5 17327.3
177.5 2592.57
178.5 1261.71
179.5 1181.71
180.5 1161.57
181.5 1160.57
182.5 1347
183.5 1398.71
184.5 1482.86
185.5 1509.43
186.5 1312.43
187.5 1536.71
188.5 1298
189.5 1118
190.5 487
191.5 63.5714
192.5 10.5714
193.5 -194.143
194.5 67.8571
195.5 490
196.5 1172.86
197.5 1190.29
198.5 1916.86
199.5 2131.29
200.5 1536.29
201.5 1355.86
202.5 1183.86
203.5 1026.86
204.5 1196.29
205.5 1167.43
206.5 1320.43
207.5 1418
208.5 1466
209.5 1265.71
210.5 1535.29
211.5 1464.43
212.5 1221.57
213.5 1447.71
214.5 1603.29
215.5 1979.43
216.5 2295
217.5 2415.57
218.5 2194.29
219.5 2357.57
220.5 1883.14
221.5 1952
222.5 1656.57
223.5 1608.57
224.5 1459
225.5 1809.71
226.5 1759.43
227.5 1457.14
228.5 1629.43
229.5 1558.71
230.5 1494.14
231.5 1325.71
232.5 1542.57
233.5 1562.43
234.5 1550
235.5 1699.71
236.5 1611.86
237.5 1580.43
238.5 1383.14
239.5 1354.29
240.5 1494.86
241.5 1154.14
242.5 1157.71
243.5 1429.43
244.5 893.143
245.5 664.857
246.5 467
247.5 443
248.5 511.571
249.5 667.714
250.5 918.714
251.5 1068
252.5 1295.71
253.5 1139.29
254.5 878.286
255.5 919.857
256.5 1044
257.5 1111.86
258.5 1306.43
259.5 1250.14
260.5 1033.57
261.5 1474.57
262.5 1169.43
263.5 938
264.5 964.429
265.5 1098.43
266.5 1211.86
267.5 1249.43
268.5 1499.14
269.5 1475.57
270.5 1399.43
271.5 1487.71
272.5 1281.71
273.5 1472.29
274.5 1320.57
275.5 1160.86
276.5 1408.14
277.5 1338
278.5 1060
279.5 1382.71
280.5 1165.71
281.5 1314.14
282.5 996.429
283.5 1155.14
284.5 1193
285.5 1082.86
286.5 1113
287.5 1038
288.5 1017.86
289.5 1175.14
290.5 1101.43
291.5 1218.43
292.5 1148.86
293.5 1255
294.5 1283.57
295.5 1259.71
296.5 1022.71
297.5 1085.14
298.5 1005
299.5 866.714
300.5 857.714
301.5 958.714
302.5 947.714
303.5 1126.43
304.5 1043.71
305.5 1057.29
306.5 825.143
307.5 1124.57
308.5 892.714
309.5 1108.57
310.5 1239.43
311.5 1070.29
312.5 980.571
313.5 899.286
314.5 849.714
315.5 732.714
316.5 1126
317.5 1261.71
318.5 1034.29
319.5 1142
320.5 1026
321.5 1110.71
322.5 1096.71
323.5 1242.71
324.5 984.429
325.5 1210.57
326.5 950
327.5 1139.29
328.5 1067.43
329.5 1242
330.5 1324.43
331.5 1125.14
332.5 1172.43
333.5 1130.14
334.5 1118.57
335.5 1071
336.5 888.286
337.5 812.429
338.5 810.714
339.5 683
340.5 797.571
341.5 840.143
342.5 965.286
343.5 957.571
344.5 966.286
345.5 856.714
346.5 1076.14
347.5 2646.71
348.5 8994.29
349.5 14660.6
350.5 7474.14
351.5 2034
352.5 863.143
353.5 646.429
354.5 648.143
355.5 628.714
356.5 666.857
357.5 785.286
358.5 621.714
359.5 683.429
360.5 801.571
361.5 903.286
362.5 993.286
363.5 919.143
364.5 1098.86
365.5 966.143
366.5 887.429
367.5 840.429
368.5 768.143
369.5 978.571
370.5 940.714
371.5 878.857
372.5 893
373.5 1029.14
374.5 1075.29
375.5 983
376.5 879
377.5 822.571
378.5 796.143
379.5 821
380.5 691.714
381.5 753.857
382.5 643.143
383.5 710.571
384.5 803.429
385.5 744.571
386.5 953
387.5 835.429
388.5 712.571
389.5 781.714
390.5 570.143
391.5 625
392.5 452.286
393.5 433.143
394.5 242.571
395.5 301.571
396.5 226.714
397.5 409.857
398.5 357
399.5 253.286
400.5 -40.1429
401.5 -337.714
402.5 -744.143
403.5 -478.572
404.5 -317.714
405.5 247.857
406.5 404.714
407.5 558.429
408.5 637.714
409.5 550.143
410.5 846.857
411.5 705.857
412.5 678
413.5 584.286
414.5 704.429
415.5 790.286
416.5 892
417.5 1083.86
418.5 1071.29
419.5 1174.71
420.5 1119.29
421.5 1285.43
422.5 1524.43
423.5 1900.71
424.5 2355.43
425.5 2491.71
426.5 2431.57
427.5 2367.14
428.5 1820
429.5 1376.14
430.5 894.143
431.5 870.286
432.5 631.857
433.5 685.857
434.5 589
435.5 668.857
436.5 706
437.5 610.571
438.5 517.286
439.5 543.714
440.5 553.286
441.5 539.714
442.5 561.429
443.5 544.571
444.5 517.286
445.5 502
446.5 355.286
447.5 304
448.5 215
449.5 196.857
450.5 58.7143
451.5 170.143
452.5 -2.28574
453.5 -131.857
454.5 -436.714
455.5 -462.286
456.5 -341.429
457.5 -105.286
458.5 107.714
459.5 438.714
460.5 726.714
461.5 665.571
462.5 610.429
463.5 709.143
464.5 590.286
465.5 654.429
466.5 651.714
467.5 631.286
468.5 651.143
469.5 640.857
470.5 688.286
471.5 229.143
472.5 -84.7143
473.5 -802.571
474.5 -1393.57
475.5 -1277.57
476.5 -745.143
477.5 278.714
478.5 599
479.5 897.286
480.5 912.714
481.5 819.571
482.5 791.857
483.5 760.714
484.5 656.714
485.5 680.714
486.5 545.857
487.5 684.857
488.5 679
489.5 605
490.5 633
491.5 973.571
492.5 1403.57
493.5 1562.57
494.5 1985.57
495.5 2887.29
496.5 3803.57
497.5 4662.57
498.5 4934.71
499.5 4622.43
500.5 3755.86
501.5 2836.57
502.5 1639
503.5 889
504.5 576.714
505.5 549
506.5 898
507.5 1661.14
508.5 3619
509.5 6917.14
510.5 9742.29
511.5 9547.57
512.5 6285
513.5 3018.43
514.5 1368.29
515.5 741.857
516.5 594.857
517.5 677.714
518.5 400.143
519.5 362.143
520.5 429.143
521.5 431
522.5 524.286
523.5 420.429
524.5 212.714
525.5 -492
526.5 -1232.43
527.5 -2005.86
528.5 -2079.86
529.5 -1786.14
530.5 -1086.57
531.5 -496.286
532.5 -56.7143
533.5 287.714
534.5 267.143
535.5 434.429
536.5 440.286
537.5 317
538.5 503.857
539.5 387.571
540.5 436.286
541.5 442.286
542.5 370.143
543.5 372.286
544.5 471.143
545.5 444.857
546.5 315.857
547.5 379.429
548.5 314
549.5 412.429
550.5 307.429
551.5 323.143
552.5 297
553.5 507
554.5 395.714
555.5 492.143
556.5 457
557.5 467
558.5 447.143
559.5 395.286
560.5 355.857
561.5 353.429
562.5 388.429
563.5 449.714
564.5 370.857
565.5 378.429
566.5 481.429
567.5 469.857
568.5 409.571
569.5 446.714
570.5 460.286
571.5 367.857
572.5 548.571
573.5 446.143
574.5 512.429
575.5 604
576.5 680
577.5 428.143
578.5 478.286
579.5 487
580.5 466.143
581.5 367.571
582.5 365.857
583.5 348.714
584.5 355.714
585.5 371
586.5 389.714
587.5 373.286
588.5 391.143
589.5 408.857
590.5 425.143
591.5 377.857
592.5 474
593.5 310
594.5 454.143
595.5 337.714
596.5 358.857
597.5 449.286
598.5 325.857
599.5 276
600.5 316.571
601.5 359.857
602.5 342.429
603.5 229.571
604.5 308.429
605.5 273.857
606.5 327
607.5 371.429
608.5 457.429
609.5 393.286
610.5 319
611.5 301.429
612.5 306.429
613.5 391.714
614.5 359.143
615.5 401.143
616.5 360.857
617.5 355.143
618.5 375.714
619.5 406.714
620.5 449.857
621.5 220.714
622.5 292.714
623.5 442.143
624.5 475.143
625.5 511.429
626.5 317.286
627.5 257.286
628.5 379.857
629.5 336.857
630.5 347.286
631.5 388.714
632.5 376
633.5 394.714
634.5 356.857
635.5 398.143
636.5 401.857
637.5 589.143
638.5 568.429
639.5 351.571
640.5 368.286
641.5 326.571
642.5 429.857
643.5 324.857
644.5 344.571
645.5 280
646.5 388.286
647.5 450.571
648.5 386
649.5 466.429
650.5 406.286
651.5 467.429
652.5 504.714
653.5 531.571
654.5 332.571
655.5 291.286
656.5 425.857
657.5 327.143
658.5 393.429
659.5 303.143
660.5 327.857
661.5 296.857
662.5 314.714
663.5 408
664.5 333.286
665.5 368.429
666.5 260.429
667.5 402.571
668.5 383.429
669.5 393.571
670.5 345.286
671.5 311.429
672.5 348.571
673.5 328.857
674.5 332
675.5 412.143
676.5 303
677.5 359.143
678.5 382
679.5 369.857
680.5 393.714
681.5 297.429
682.5 350.286
683.5 473.429
684.5 415.571
685.5 476.429
686.5 392.143
687.5 349.286
688.5 322.143
689.5 288.571
690.5 401.857
691.5 384.571
692.5 431.714
693.5 446.857
694.5 360.714
695.5 351.714
696.5 313.143
697.5 303.571
698.5 332.857
699.5 378.571
700.5 429.429
701.5 359.429
702.5 276.429
703.5 374.143
704.5 302.286
705.5 342.571
706.5 419.143
707.5 366.286
708.5 411.429
709.5 411
710.5 347.714
711.5 338.286
712.5 331.714
713.5 305.286
714.5 411.286
715.5 339.429
716.5 290
717.5 329.571
718.5 313.429
719.5 282.286
720.5 306.714
721.5 341.143
722.5 330.286
723.5 334.286
724.5 289.571
725.5 366
726.5 462.714
727.5 407.143
728.5 198.714
729.5 284.429
730.5 380.857
731.5 353.429
732.5 343.286
733.5 351.714
734.5 380.571
735.5 230.143
736.5 412
737.5 370.429
738.5 294.143
739.5 314.714
740.5 344.143
741.5 285.714
742.5 396
743.5 399.429
744.5 400.429
745.5 375.714
746.5 401.143
747.5 270.143
748.5 400
749.5 396.857
750.5 389.429
751.5 293.286
752.5 351.429
753.5 367.429
754.5 307.143
755.5 424.714
756.5 315
757.5 251.286
758.5 378.571
759.5 511.429
760.5 645.143
761.5 759
762.5 460.429
763.5 287.571
764.5 509.857
765.5 201.143
766.5 351.286
767.5 396.429
768.5 227.429
769.5 232
770.5 291.857
771.5 255
772.5 315.857
773.5 250.857
774.5 297.857
775.5 297.286
776.5 370.286
777.5 349.286
778.5 383.571
779.5 238.714
780.5 426.143
781.5 302.571
782.5 285
783.5 359.571
784.5 425.143
785.5 372.714
786.5 380
787.5 369.429
788.5 403
789.5 341.714
790.5 432
791.5 399.286
792.5 415.571
793.5 457.429
794.5 402.857
795.5 417.286
796.5 438.571
797.5 463.286
798.5 350.714
799.5 370.143
800.5 368.571
801.5 336
802.5 365.714
803.5 364.143
804.5 337.571
805.5 494.857
806.5 438.571
807.5 493
808.5 368.571
809.5 362
810.5 426.286
811.5 285.143
812.5 424.429
813.5 218.286
814.5 296.571
815.5 333
816.5 399.857
817.5 319.571
818.5 331
819.5 344.429
820.5 296.429
821.5 235.286
822.5 345.286
823.5 281.286
824.5 292.571
825.5 284.286
826.5 304
827.5 336.286
828.5 244.571
829.5 273.429
830.5 339.286
831.5 302.143
832.5 349.571
833.5 305.714
834.5 377.286
835.5 231.286
836.5 323.286
837.5 392.714
838.5 287.429
839.5 297.429
840.5 279.857
841.5 373.571
842.5 369.429
843.5 363.429
844.5 315.429
845.5 344.714
846.5 271.857
847.5 388.571
848.5 315.429
849.5 454.857
850.5 277.143
851.5 269.286
852.5 487.143
853.5 419.143
854.5 337.857
855.5 325.429
856.5 322.571
857.5 337.429
858.5 336.286
859.5 486.286
860.5 347.857
861.5 323
862.5 299.429
863.5 320.714
864.5 389.571
865.5 356.286
866.5 353.571
867.5 269.143
868.5 311.571
869.5 246.714
870.5 382.429
871.5 497
872.5 355.286
873.5 317.571
874.5 329.429
875.5 421.286
876.5 541.429
877.5 655.429
878.5 522.571
879.5 483.429
880.5 362.143
881.5 412.857
882.5 397.143
883.5 267.286
884.5 347.429
885.5 435.429
886.5 392.429
887.5 516.571
888.5 392.571
889.5 448.714
890.5 455.571
891.5 456.286
892.5 338.429
893.5 544.143
894.5 521.857
895.5 459.286
896.5 307.571
897.5 276.429
898.5 327.571
899.5 364.714
900.5 351.286
901.5 402.857
902.5 350.714
903.5 413.143
904.5 408.857
905.5 387.143
906.5 434.714
907.5 361.286
908.5 315.143
909.5 431.857
910.5 382.429
911.5 381.857
912.5 479
913.5 324.286
914.5 300.429
915.5 436.286
916.5 464.429
917.5 335.857
918.5 328.286
919.5 316.429
920.5 407
921.5 432.571
922.5 344.571
923.5 314.857
924.5 356.286
925.5 282.857
926.5 329.286
927.5 423.429
928.5 470.286
929.5 363.429
930.5 351.857
931.5 278.714
932.5 395.143
933.5 378
934.5 367.571
935.5 521.143
936.5 482.429
937.5 409.143
938.5 369.571
939.5 463.143
940.5 532.286
941.5 676
942.5 627
943.5 521.571
944.5 369.571
945.5 404.143
946.5 353.286
947.5 388.143
948.5 312.857
949.5 253.143
950.5 297.143
951.5 396.143
952.5 313.571
953.5 372.429
954.5 265
955.5 354.714
956.5 324
957.5 373.286
958.5 188.714
959.5 309.286
960.5 293
961.5 404
962.5 455.286
963.5 302.571
964.5 364
965.5 432.429
966.5 404.429
967.5 495
968.5 266.857
969.5 249.429
970.5 281.143
971.5 243.143
972.5 311.714
973.5 248
974.5 253.714
975.5 186.143
976.5 183.714
977.5 218.857
978.5 197.857
979.5 252.714
980.5 287.429
981.5 303.857
982.5 291.571
983.5 204.429
984.5 325
985.5 247.571
986.5 233
987.5 293.714
988.5 344.571
989.5 282.286
990.5 366
991.5 322.857
992.5 360.429
993.5 311.429
994.5 399
995.5 317.143
996.5 256.714
997.5 382
998.5 303.429
999.5 362.714
1000.5 465.143
1001.5 654.429
1002.5 523.571
1003.5 473.286
1004.5 317.429
1005.5 323
1006.5 232
1007.5 302.286
1008.5 317.286
1009.5 287.857
1010.5 217.857
1011.5 326.429
1012.5 329.286
1013.5 307.143
1014.5 358.857
1015.5 268.286
1016.5 259.143
1017.5 216.143
1018.5 214.571
1019.5 244.571
1020.5 251.286
1021.5 225.429
1022.5 209.429
1023.5 359.286
1024.5 380.143
1025.5 437.571
1026.5 359.571
1027.5 361.429
1028.5 239.286
1029.5 259.857
1030.5 204.571
1031.5 243.857
1032.5 204.857
1033.5 229.286
1034.5 255.857
1035.5 186
1036.5 280.429
1037.5 246
1038.5 126.143
1039.5 227.286
1040.5 249.714
1041.5 187
1042.5 325.286
1043.5 244.429
1044.5 240.143
1045.5 255.286
1046.5 257.571
1047.5 209
1048.5 231.286
1049.5 217.571
1050.5 271.286
1051.5 281.571
1052.5 214
1053.5 231.429
1054.5 192.143
1055.5 284
1056.5 242.571
1057.5 266
1058.5 182.429
1059.5 248.429
1060.5 181.143
1061.5 184
1062.5 197.429
1063.5 208.429
1064.5 138.286
1065.5 164.714
1066.5 249.714
1067.5 237.714
1068.5 194.286
1069.5 246.429
1070.5 248.857
1071.5 208
1072.5 316.286
1073.5 509.143
1074.5 597.571
1075.5 333.429
1076.5 337.571
1077.5 154.429
1078.5 267
1079.5 184.714
1080.5 196.571
1081.5 219.571
1082.5 218.286
1083.5 199.714
1084.5 241.857
1085.5 172.571
1086.5 200.143
1087.5 254.286
1088.5 226
1089.5 206.714
1090.5 160.714
1091.5 201
1092.5 217.571
1093.5 223.143
1094.5 195.714
1095.5 148
1096.5 199.571
1097.5 149.143
1098.5 156.286
1099.5 286.857
1100.5 219
1101.5 271
1102.5 282.714
1103.5 254.857
1104.5 208.857
1105.5 208.714
1106.5 208.857
1107.5 225
1108.5 275.143
1109.5 263.286
1110.5 213.571
1111.5 246.714
1112.5 228.286
1113.5 219.857
1114.5 189
1115.5 152.714
1116.5 250
1117.5 219.429
1118.5 282.571
1119.5 259.714
1120.5 249
1121.5 331.571
1122.5 448.143
1123.5 1178.86
1124.5 3840.29
1125.5 8644.57
1126.5 9475.29
1127.5 4161.86
1128.5 1046.43
1129.5 308.143
1130.5 145.286
1131.5 180.571
1132.5 203.286
1133.5 201.286
1134.5 230.143
1135.5 199.857
1136.5 230.429
1137.5 252.857
1138.5 207
1139.5 194
1140.5 202.286
1141.5 192
1142.5 150.571
1143.5 193.714
1144.5 163.571
1145.5 165.714
1146.5 217.143
1147.5 194.714
1148.5 173.571
1149.5 147.143
1150.5 154.571
1151.5 174.143
1152.5 260.857
1153.5 392.571
1154.5 1746.14
1155.5 5101.43
1156.5 10421.4
1157.5 10531.9
1158.5 4544.71
1159.5 1077.71
1160.5 282.143
1161.5 197
1162.5 157.286
1163.5 123.571
1164.5 157.571
1165.5 199.286
1166.5 270.857
1167.5 605.714
1168.5 1451.14
1169.5 1902.14
1170.5 1220.86
1171.5 430.571
1172.5 175.286
1173.5 149.714
1174.5 170.857
1175.5 170.571
1176.5 208.857
1177.5 216.286
1178.5 167.286
1179.5 123.286
1180.5 170.714
1181.5 186
1182.5 174.286
1183.5 164.857
1184.5 187.286
1185.5 190
1186.5 123.714
1187.5 148.857
1188.5 180.143
1189.5 132.143
1190.5 57.8571
1191.5 160.143
1192.5 184
1193.5 144.857
1194.5 163.286
1195.5 130.429
1196.5 137.857
1197.5 77.4286
1198.5 126.429
1199.5 181.714
1200.5 72
1201.5 119.857
1202.5 180.143
1203.5 189.714
1204.5 120
1205.5 125.286
1206.5 241.286
1207.5 97.4286
1208.5 126.286
1209.5 132.714
1210.5 153
1211.5 84.1429
1212.5 105.286
1213.5 139.571
1214.5 137.286
1215.5 149
1216.5 119.571
1217.5 171
1218.5 174.857
1219.5 223.429
1220.5 267.714
1221.5 177
1222.5 260.571
1223.5 192.714
1224.5 177
1225.5 132.286
1226.5 97.5714
1227.5 132.286
1228.5 74.2857
1229.5 165.143
1230.5 164.429
1231.5 172.429
1232.5 174.714
1233.5 156.286
1234.5 140.857
1235.5 136.714
1236.5 135
1237.5 161.286
1238.5 117.857
1239.5 161.286
1240.5 168
1241.5 155.286
1242.5 150.286
1243.5 124.286
1244.5 180.714
1245.5 96.5714
1246.5 170.286
1247.5 137.857
1248.5 148.714
1249.5 139.143
1250.5 127.857
1251.5 97
1252.5 110.143
1253.5 129
1254.5 66.1429
1255.5 136.429
1256.5 130.714
1257.5 141.714
1258.5 138.286
1259.5 181.857
1260.5 127.286
1261.5 124.714
1262.5 131.286
1263.5 194.857
1264.5 137.429
1265.5 154.143
1266.5 136
1267.5 63.1429
1268.5 147.857
1269.5 165.429
1270.5 120.286
1271.5 197.429
1272.5 124.857
1273.5 167.429
1274.5 172.429
1275.5 108.429
1276.5 179.429
1277.5 183.286
1278.5 148.429
1279.5 135.143
1280.5 78.4286
1281.5 177.857
1282.5 193
1283.5 143.286
1284.5 150.857
1285.5 125.571
1286.5 181.143
1287.5 123.286
1288.5 149.286
1289.5 155.571
1290.5 224.857
1291.5 135.571
1292.5 141.286
1293.5 125.571
1294.5 134
1295.5 118.143
1296.5 123.714
1297.5 154.714
1298.5 148.286
1299.5 175.143
1300.5 190.286
1301.5 158.857
1302.5 142.143
1303.5 142.714
1304.5 128.429
1305.5 91.8571
1306.5 62.4286
1307.5 113.286
1308.5 179.714
1309.5 105.714
1310.5 158.714
1311.5 167.714
1312.5 117.857
1313.5 187.429
1314.5 191.429
1315.5 176
1316.5 107.286
1317.5 155.714
1318.5 105.714
1319.5 142.286
1320.5 166.714
1321.5 135.286
1322.5 126.286
1323.5 163.286
1324.5 137.571
1325.5 121.857
1326.5 180.714
1327.5 195.429
1328.5 167
1329.5 226.143
1330.5 271.286
1331.5 286.857
1332.5 111.857
1333.5 132.714
1334.5 109.286
1335.5 129.571
1336.5 117.857
1337.5 135
1338.5 162.714
1339.5 143.714
1340.5 133.714
1341.5 214.429
1342.5 182.714
1343.5 168.571
1344.5 140.571
1345.5 150.714
1346.5 139
1347.5 158.286
1348.5 108.857
1349.5 168.286
1350.5 122.286
1351.5 125.571
1352.5 132.143
1353.5 58.8571
1354.5 91.8571
1355.5 85.1429
1356.5 93.2857
1357.5 100.571
1358.5 84.1429
1359.5 140.857
1360.5 119.143
1361.5 162.857
1362.5 109.429
1363.5 106.143
1364.5 90.4286
1365.5 116.429
1366.5 119.286
1367.5 110.571
1368.5 110.857
1369.5 102
1370.5 175.286
1371.5 120.429
1372.5 142
1373.5 112.714
1374.5 104
1375.5 136
1376.5 136
1377.5 156.857
1378.5 127.571
1379.5 116.429
1380.5 38.4286
1381.5 169.714
1382.5 156
1383.5 105.714
1384.5 157.286
1385.5 149.143
1386.5 155.143
1387.5 184.429
1388.5 186.429
1389.5 127
1390.5 79
1391.5 133.143
1392.5 87.2857
1393.5 176.714
1394.5 106.857
1395.5 148.571
1396.5 127.571
1397.5 181.429
1398.5 130.429
1399.5 129.286
1400.5 104.429
1401.5 115.714
1402.5 124.714
1403.5 112.429
1404.5 141.857
1405.5 129.143
1406.5 66.2857
1407.5 108.143
1408.5 115.857
1409.5 172
1410.5 143.429
1411.5 130.571
1412.5 130.429
1413.5 166
1414.5 165.429
1415.5 120.429
1416.5 176.714
1417.5 156
1418.5 49.4286
1419.5 133.857
1420.5 162.143
1421.5 209
1422.5 97.1429
1423.5 123.429
1424.5 115.857
1425.5 88.2857
1426.5 122.143
1427.5 121.714
1428.5 108.286
1429.5 155.143
1430.5 87.4286
1431.5 98.2857
1432.5 91.2857
1433.5 47.1429
1434.5 176.286
1435.5 122.286
1436.5 122.143
1437.5 171.857
1438.5 85.4286
1439.5 158.857
1440.5 153.857
1441.5 109.286
1442.5 97
1443.5 117.714
1444.5 91.7143
1445.5 126.429
1446.5 133.429
1447.5 89.4286
1448.5 165
1449.5 87.8571
1450.5 116.714
1451.5 116.857
1452.5 177.571
1453.5 171.429
1454.5 120.429
1455.5 117.714
1456.5 85
1457.5 145.714
1458.5 118.714
1459.5 122
1460.5 110.857
1461.5 89.8571
1462.5 145.143
1463.5 127.286
1464.5 93.1429
1465.5 115.857
1466.5 115.714
1467.5 146.571
1468.5 113.857
1469.5 75
1470.5 109
1471.5 82.1429
1472.5 124.857
1473.5 180
1474.5 89.5714
1475.5 133
1476.5 159.571
1477.5 161.143
1478.5 105.143
1479.5 65
1480.5 89.5714
1481.5 149.143
1482.5 97.4286
1483.5 136.571
1484.5 131.143
1485.5 99.1429
1486.5 83.5714
1487.5 156.143
1488.5 195.857
1489.5 210.571
1490.5 223.714
1491.5 254.286
1492.5 219.571
1493.5 115
1494.5 133.857
1495.5 111.714
1496.5 137.429
1497.5 162.714
1498.5 146.286
1499.5 153.143
1500.5 194.286
1501.5 135
1502.5 114.714
1503.5 151.571
1504.5 68.4286
1505.5 132.143
1506.5 109.857
1507.5 162.571
1508.5 153.857
1509.5 164.857
1510.5 179.429
1511.5 172
1512.5 146.714
1513.5 113.571
1514.5 144.571
1515.5 162.571
1516.5 254.286
1517.5 430.286
1518.5 584.857
1519.5 465.143
1520.5 234.286
1521.5 86.2857
1522.5 168.143
1523.5 131.857
1524.5 125.286
1525.5 155.571
1526.5 83.7143
1527.5 144.429
1528.5 128
1529.5 158.143
1530.5 152.143
1531.5 145
1532.5 91.7143
1533.5 108.714
1534.5 85.1429
1535.5 126.714
1536.5 174
1537.5 135.857
1538.5 104.714
1539.5 103.143
1540.5 159
1541.5 82.5714
1542.5 98.1429
1543.5 90.5714
1544.5 147.571
1545.5 123.143
1546.5 97.7143
1547.5 175.714
1548.5 104.429
1549.5 136.429
1550.5 134
1551.5 116.571
1552.5 115.143
1553.5 95.5714
1554.5 165
1555.5 84.4286
1556.5 115.429
1557.5 124
1558.5 133.429
1559.5 120
1560.5 136.714
1561.5 152
1562.5 137.286
1563.5 76.1429
1564.5 122.429
1565.5 168
1566.5 140.429
1567.5 147.571
1568.5 150.429
1569.5 130.714
1570.5 127.286
1571.5 165.429
1572.5 117.857
1573.5 81.2857
1574.5 60.4286
1575.5 168.714
1576.5 123.714
1577.5 101.571
1578.5 186
1579.5 125.143
1580.5 114.143
1581.5 182.714
1582.5 65.2857
1583.5 93.1429
1584.5 120.857
1585.5 74.4286
1586.5 147
1587.5 153
1588.5 122.714
1589.5 114.571
1590.5 155
1591.5 131.286
1592.5 87.1429
1593.5 162.857
1594.5 91.4286
1595.5 135
1596.5 129.714
1597.5 77.1429
1598.5 184.143
1599.5 117.571
1600.5 139.571
1601.5 124.571
1602.5 105
1603.5 88.2857
1604.5 156
1605.5 113
1606.5 92.1429
1607.5 135.571
1608.5 137.857
1609.5 117.857
1610.5 133.286
1611.5 107.143
1612.5 71
1613.5 93.5714
1614.5 120.714
1615.5 130.857
1616.5 92
1617.5 112.143
1618.5 106.286
1619.5 78.7143
1620.5 155.714
1621.5 106.429
1622.5 166.571
1623.5 149.714
1624.5 74
1625.5 87.5714
1626.5 152.714
1627.5 134.714
1628.5 206.857
1629.5 129.857
1630.5 124.857
1631.5 175
1632.5 174.857
1633.5 316.714
1634.5 235.857
1635.5 92.7143
1636.5 173.429
1637.5 98.8571
1638.5 159.286
1639.5 168.571
1640.5 204.143
1641.5 196.571
1642.5 151.571
1643.5 113.714
1644.5 118
1645.5 129
1646.5 158.143
1647.5 151.286
1648.5 97.8571
1649.5 154.429
1650.5 60.2857
1651.5 85.2857
1652.5 158.714
1653.5 108.429
1654.5 130.143
1655.5 136.286
1656.5 120
1657.5 140.429
1658.5 95.2857
1659.5 96.7143
1660.5 63.1429
1661.5 72.4286
1662.5 111.286
1663.5 87.5714
1664.5 145.857
1665.5 101.714
1666.5 48
1667.5 93.8571
1668.5 79
1669.5 125.286
1670.5 138.571
1671.5 103.714
1672.5 129.143
1673.5 68.1429
1674.5 90.8571
1675.5 91
1676.5 134
1677.5 110.429
1678.5 102.286
1679.5 127.571
1680.5 121.714
1681.5 72.5714
1682.5 112.429
1683.5 103.429
1684.5 151
1685.5 102.857
1686.5 94.8571
1687.5 92.5714
1688.5 64.5714
1689.5 124
1690.5 147.143
1691.5 119.571
1692.5 141.143
1693.5 157
1694.5 131.429
1695.5 104.714
1696.5 56.7143
1697.5 181.143
1698.5 104.571
1699.5 102
1700.5 141.143
1701.5 138.286
1702.5 170.714
1703.5 126.571
1704.5 128.286
1705.5 153.429
1706.5 131.571
1707.5 139
1708.5 84.8571
1709.5 114.429
1710.5 112.714
1711.5 138.429
1712.5 48.1429
1713.5 101
1714.5 59.7143
1715.5 103
1716.5 120
1717.5 108.286
1718.5 142.571
1719.5 136.143
1720.5 153
1721.5 144.571
1722.5 90.1429
1723.5 95.4286
1724.5 98.5714
1725.5 92.2857
1726.5 129.857
1727.5 152.286
1728.5 143.714
1729.5 127.571
1730.5 98.5714
1731.5 128.286
1732.5 141.429
1733.5 121.571
1734.5 102.286
1735.5 136.857
1736.5 106.143
1737.5 132.143
1738.5 101
1739.5 118.714
1740.5 87.5714
1741.5 109.571
1742.5 92
1743.5 82.7143
1744.5 77.4286
1745.5 109.857
1746.5 80.7143
1747.5 114
1748.5 77.5714
1749.5 126
1750.5 95.1429
1751.5 85.8571
1752.5 117.714
1753.5 183
1754.5 132.286
1755.5 83.2857
1756.5 136.857
1757.5 131.714
1758.5 139.143
1759.5 104.571
1760.5 105.714
1761.5 111.571
1762.5 135
1763.5 149.429
1764.5 120
1765.5 100.429
1766.5 152.857
1767.5 125
1768.5 93.4286
1769.5 82.5714
1770.5 88
1771.5 152.143
1772.5 111.714
1773.5 162.571
1774.5 123.714
1775.5 108.143
1776.5 139.714
1777.5 187.714
1778.5 96
1779.5 84
1780.5 131.714
1781.5 60.1429
1782.5 143.714
1783.5 147.571
1784.5 94.2857
1785.5 136
1786.5 180.286
1787.5 138
1788.5 153.429
1789.5 127.143
1790.5 112.143
1791.5 160.714
1792.5 134.143
1793.5 109.857
1794.5 165.286
1795.5 104.714
1796.5 82.7143
1797.5 76.4286
1798.5 122.429
1799.5 88.2857
1800.5 89.8571
1801.5 127.857
1802.5 108.857
1803.5 65.5714
1804.5 117.286
1805.5 131
1806.5 113.571
1807.5 114.714
1808.5 147.571
1809.5 200.714
1810.5 158.571
1811.5 120.286
1812.5 105.857
1813.5 94
1814.5 127.429
1815.5 108
1816.5 125.429
1817.5 174.429
1818.5 167.143
1819.5 146.714
1820.5 151
1821.5 123
1822.5 94.1429
1823.5 63.1429
1824.5 82.1429
1825.5 78.2857
1826.5 87
1827.5 130.857
1828.5 118.857
1829.5 80.8571
1830.5 89.4286
1831.5 131.429
1832.5 132.286
1833.5 87.4286
1834.5 142.429
1835.5 129.857
1836.5 96.7143
1837.5 127.429
1838.5 93
1839.5 144.857
1840.5 96
1841.5 68.5714
1842.5 111.143
1843.5 59.5714
1844.5 151
1845.5 81.4286
1846.5 91
1847.5 144.714
1848.5 75.5714
1849.5 131.571
1850.5 69.8571
1851.5 80.8571
1852.5 171.429
1853.5 124.857
1854.5 94.4286
1855.5 121.143
1856.5 116
1857.5 98.8571
1858.5 66.2857
1859.5 72.5714
1860.5 132.571
1861.5 113.143
1862.5 104.429
1863.5 133.429
1864.5 114.429
1865.5 121
1866.5 95.2857
1867.5 94.2857
1868.5 97.7143
1869.5 110
1870.5 150.857
1871.5 122.571
1872.5 153.571
1873.5 107.429
1874.5 103.286
1875.5 131
1876.5 160.714
1877.5 120.857
1878.5 121.286
1879.5 161.143
1880.5 222.571
1881.5 180.857
1882.5 333.143
1883.5 253.143
1884.5 167.286
1885.5 231.143
1886.5 345.429
1887.5 231.571
1888.5 175.571
1889.5 138.143
1890.5 48.1429
1891.5 98
1892.5 67.7143
1893.5 85.7143
1894.5 119.286
1895.5 129.429
1896.5 98
1897.5 95.8571
1898.5 100.714
1899.5 161.429
1900.5 87
1901.5 138.857
1902.5 153.857
1903.5 134
1904.5 118.286
1905.5 145.714
1906.5 99.8571
1907.5 96.5714
1908.5 97.8571
1909.5 153.429
1910.5 98.7143
1911.5 108.857
1912.5 104.429
1913.5 130.429
1914.5 92.4286
1915.5 96.1429
1916.5 99.7143
1917.5 113.429
1918.5 48.5714
1919.5 136
1920.5 77.4286
1921.5 95.4286
1922.5 127.143
1923.5 112.714
1924.5 86
1925.5 106.571
1926.5 117.143
1927.5 132.857
1928.5 78.4286
1929.5 66.2857
1930.5 147.286
1931.5 154.571
1932.5 93.5714
1933.5 113
1934.5 187.143
1935.5 159.714
1936.5 319.714
1937.5 453.571
1938.5 405.429
1939.5 294
1940.5 158.143
1941.5 157.857
1942.5 124.429
1943.5 166.571
1944.5 118.286
1945.5 139.571
1946.5 84
1947.5 129.571
1948.5 72.5714
1949.5 141.429
1950.5 120.429
1951.5 108.857
1952.5 136.857
1953.5 104.857
1954.5 88.5714
1955.5 149.143
1956.5 113.143
1957.5 77.5714
1958.5 146.714
1959.5 126.429
1960.5 109.571
1961.5 135.286
1962.5 116.286
1963.5 128.429
1964.5 152.571
1965.5 139.571
1966.5 94.8571
1967.5 66.5714
1968.5 110.714
1969.5 140.714
1970.5 129.286
1971.5 77.5714
1972.5 118.143
1973.5 151
1974.5 129.571
1975.5 34.1429
1976.5 119.286
1977.5 125.143
1978.5 171.429
1979.5 100
1980.5 170.857
1981.5 216.714
1982.5 268.143
1983.5 362.857
1984.5 234.857
1985.5 123.143
1986.5 111.714
1987.5 73.4286
1988.5 85.2857
1989.5 52.5714
1990.5 92.5714
1991.5 149
1992.5 125.429
1993.5 175.429
1994.5 120.429
1995.5 182.286
1996.5 170.571
1997.5 161.857
1998.5 93
1999.5 71.2857
2000.5 75.2857
2001.5 151.571
2002.5 44.4286
2003.5 81.5714
2004.5 122.571
2005.5 124.143
2006.5 73.1429
2007.5 101.286
2008.5 96.5714
2009.5 148.429
2010.5 155.714
2011.5 55
2012.5 108.143
2013.5 92.2857
2014.5 83
2015.5 101.286
2016.5 109.571
2017.5 91.2857
2018.5 167.571
2019.5 110.714
2020.5 88.7143
2021.5 153
2022.5 123.286
2023.5 115.429
2024.5 138.857
2025.5 126.857
2026.5 88
2027.5 159.571
2028.5 136
2029.5 135.857
2030.5 133.286
2031.5 142.571
2032.5 99.7143
2033.5 95.2857
2034.5 77.2857
2035.5 91.4286
2036.5 118.571
2037.5 115.429
2038.5 122.286
2039.5 99.2857
2040.5 124.714
2041.5 131.714
2042.5 112
2043.5 106.429
2044.5 97.5714
2045.5 122.286
2046.5 107.429
2047.5 104.571
2048.5 87
2049.5 120.429
2050.5 108.714
2051.5 157.286
2052.5 125.429
2053.5 108.429
2054.5 162
2055.5 129.429
2056.5 141.857
2057.5 97.8571
2058.5 118.286
2059.5 93.7143
2060.5 50.2857
2061.5 106.714
2062.5 122.429
2063.5 99.8571
2064.5 127
2065.5 132.286
2066.5 107.286
2067.5 135.857
2068.5 132.571
2069.5 124
2070.5 71.2857
2071.5 60.7143
2072.5 134.429
2073.5 108.571
2074.5 144.143
2075.5 107.143
2076.5 72.5714
2077.5 105.429
2078.5 111.286
2079.5 155
2080.5 101.714
2081.5 99.2857
2082.5 150.143
2083.5 121
2084.5 128.571
2085.5 113.286
2086.5 137.571
2087.5 101.571
2088.5 72.1429
2089.5 134.857
2090.5 122.571
2091.5 107.429
2092.5 113
2093.5 72
2094.5 133.143
2095.5 105
2096.5 108.571
2097.5 134.571
2098.5 88.4286
2099.5 129.143
2100.5 76.2857
2101.5 54
2102.5 101.143
2103.5 98.7143
2104.5 60
2105.5 84.1429
2106.5 92.7143
2107.5 112.714
2108.5 85.4286
2109.5 107.714
2110.5 111
2111.5 125.286
2112.5 115
2113.5 91.1429
2114.5 136.714
2115.5 139.714
2116.5 94.1429
2117.5 130.714
2118.5 93.8571
2119.5 117.714
2120.5 75.2857
2121.5 101.571
2122.5 86.1429
2123.5 121.857
2124.5 85.4286
2125.5 109.571
2126.5 110.714
2127.5 132.714
2128.5 86.2857
2129.5 109.571
2130.5 101.857
2131.5 82.7143
2132.5 104.571
2133.5 124.143
2134.5 114.714
2135.5 115.143
2136.5 117.286
2137.5 89.2857
2138.5 99.2857
2139.5 101.571
2140.5 100.429
2141.5 125.857
2142.5 242.429
2143.5 299.857
2144.5 340.429
2145.5 162.714
2146.5 177.429
2147.5 199.571
2148.5 175.286
2149.5 267.143
2150.5 285
2151.5 241.571
2152.5 247.286
2153.5 163.857
2154.5 125.571
2155.5 123
2156.5 82.1429
2157.5 119.857
2158.5 120.857
2159.5 92.1429
2160.5 111.429
2161.5 116.571
2162.5 118.857
2163.5 126.143
2164.5 120.429
2165.5 118.429
2166.5 116.429
2167.5 132.714
2168.5 109.571
2169.5 120.429
2170.5 92.2857
2171.5 87.8571
2172.5 129.571
2173.5 148.286
2174.5 107.714
2175.5 173.714
2176.5 152
2177.5 166.286
2178.5 133.714
2179.5 38.2857
2180.5 126.714
2181.5 122.429
2182.5 87.4286
2183.5 119
2184.5 58.8571
2185.5 125.143
2186.5 80
2187.5 121.143
2188.5 109
2189.5 106.857
2190.5 97.4286
2191.5 96
2192.5 116
2193.5 127.286
2194.5 94.7143
2195.5 95.2857
2196.5 135.143
2197.5 92.7143
2198.5 162.143
2199.5 137
2200.5 219.857
2201.5 196.429
2202.5 116.286
2203.5 180.429
2204.5 150.857
2205.5 138.429
2206.5 128.286
2207.5 130.286
2208.5 84.8571
2209.5 105.286
2210.5 99.7143
2211.5 128.286
2212.5 106.714
2213.5 90
2214.5 99.8571
2215.5 93.8571
2216.5 101
2217.5 129.286
2218.5 126.143
2219.5 160.143
2220.5 189.714
2221.5 276.857
2222.5 346.143
2223.5 377.714
2224.5 244.286
2225.5 114.571
2226.5 150.143
2227.5 148.286
2228.5 101.143
2229.5 80.5714
2230.5 143.143
2231.5 123.714
2232.5 113.286
2233.5 104.571
2234.5 102.857
2235.5 81.2857
2236.5 129.714
2237.5 96.2857
2238.5 91.8571
2239.5 105.143
2240.5 105
2241.5 146.571
2242.5 93.2857
2243.5 123.429
2244.5 116.571
2245.5 103.143
2246.5 112.429
2247.5 144
2248.5 113.143
2249.5 99
2250.5 136.286
2251.5 108
2252.5 110.143
2253.5 71.8571
2254.5 117.286
2255.5 93
2256.5 83.5714
2257.5 109.714
2258.5 84.4286
2259.5 54
2260.5 83.4286
2261.5 107.286
2262.5 83.4286
2263.5 109.286
2264.5 45.7143
2265.5 85.8571
2266.5 84.8571
2267.5 99.5714
2268.5 78.2857
2269.5 94.5714
2270.5 114
2271.5 93.7143
2272.5 111.429
2273.5 153.143
2274.5 76.4286
2275.5 133.571
2276.5 110.143
2277.5 133.143
2278.5 160.143
2279.5 77.7143
2280.5 116.714
2281.5 96.7143
2282.5 130.286
2283.5 148.857
2284.5 165.143
2285.5 106.429
2286.5 97.2857
2287.5 170.571
2288.5 163.857
2289.5 133.429
2290.5 55.7143
2291.5 110
2292.5 116.857
2293.5 108.429
2294.5 109.429
2295.5 114.857
2296.5 80.7143
2297.5 187.143
2298.5 132.286
2299.5 188
2300.5 132.143
2301.5 109
2302.5 90.7143
2303.5 122.143
2304.5 166.857
2305.5 138.286
2306.5 119.714
2307.5 145
2308.5 107.143
2309.5 61.8571
2310.5 90.4286
2311.5 86
2312.5 103
2313.5 101.571
2314.5 65.8571
2315.5 62
2316.5 92.1429
2317.5 107
2318.5 88.7143
2319.5 84.4286
2320.5 92.8571
2321.5 122.286
2322.5 128.143
2323.5 46.5714
2324.5 115.714
2325.5 135.429
2326.5 94.1429
2327.5 66.7143
2328.5 121.286
2329.5 103.571
2330.5 81.2857
2331.5 93.5714
2332.5 106.857
2333.5 110.286
2334.5 111.143
2335.5 81
2336.5 101.429
2337.5 63.4286
2338.5 68.1429
2339.5 104.286
2340.5 78
2341.5 119.429
2342.5 147.429
2343.5 154.143
2344.5 141.143
2345.5 187.714
2346.5 129.714
2347.5 165.143
2348.5 102.143
2349.5 92.7143
2350.5 115.857
2351.5 54.1429
2352.5 110.286
2353.5 90.4286
2354.5 114.286
2355.5 67.8571
2356.5 110.286
2357.5 94.7143
2358.5 134.857
2359.5 92.1429
2360.5 95
2361.5 67.7143
2362.5 79
2363.5 93.1429
2364.5 88.2857
2365.5 89.7143
2366.5 115.714
2367.5 123.143
2368.5 113.286
2369.5 106
2370.5 147.857
2371.5 153
2372.5 98.1429
2373.5 112.429
2374.5 123.429
2375.5 120.143
2376.5 72
2377.5 122.143
2378.5 101
2379.5 99.5714
2380.5 114.571
2381.5 113.143
2382.5 121.143
2383.5 91.7143
2384.5 132.143
2385.5 108.143
2386.5 108
2387.5 110.143
2388.5 79.7143
2389.5 101.857
2390.5 112.286
2391.5 107
2392.5 93.5714
2393.5 125
2394.5 94.7143
2395.5 118.857
2396.5 124.714
2397.5 104.857
2398.5 117.857
2399.5 109.857
2400.5 101.857
2401.5 105.429
2402.5 151.714
2403.5 86.1429
2404.5 137
2405.5 121.714
2406.5 91.2857
2407.5 122.429
2408.5 80.8571
2409.5 93.7143
2410.5 135.429
2411.5 200.714
2412.5 225.143
2413.5 434.571
2414.5 641.714
2415.5 586.571
2416.5 350.571
2417.5 182.286
2418.5 124.429
2419.5 80.5714
2420.5 76.4286
2421.5 123
2422.5 78.7143
2423.5 126.286
2424.5 104
2425.5 78.8571
2426.5 92.2857
2427.5 115.143
2428.5 64.5714
2429.5 63.8571
2430.5 92
2431.5 113.714
2432.5 157.571
2433.5 143.714
2434.5 151.429
2435.5 126.429
2436.5 67
2437.5 111.714
2438.5 36.7143
2439.5 140.571
2440.5 81.5714
2441.5 97.7143
2442.5 110.714
2443.5 117.571
2444.5 85.7143
2445.5 103
2446.5 107.714
2447.5 69.8571
2448.5 139.143
2449.5 134.571
2450.5 81.7143
2451.5 98.5714
2452.5 126
2453.5 107.286
2454.5 102.857
2455.5 92.8571
2456.5 78.5714
2457.5 84.8571
2458.5 74.1429
2459.5 110.857
2460.5 97.1429
2461.5 93.4286
2462.5 78.8571
2463.5 89
2464.5 82.5714
2465.5 72.4286
2466.5 110.429
2467.5 94
2468.5 82.8571
2469.5 109.429
2470.5 37.1429
2471.5 22.8571
2472.5 70.2857
2473.5 106.857
2474.5 78
2475.5 48.4286
2476.5 143.286
2477.5 108.857
2478.5 102.429
2479.5 96
2480.5 126.857
2481.5 100.429
2482.5 94.1429
2483.5 123.714
2484.5 110
2485.5 91
2486.5 114.857
2487.5 108.571
2488.5 106.286
2489.5 152.286
2490.5 99.5714
2491.5 120.714
2492.5 104.571
2493.5 88.4286
2494.5 116.429
2495.5 113.429
2496.5 96.4286
2497.5 106.429
2498.5 133.286
2499.5 95.5714
2500.5 75.1429
2501.5 77.1429
2502.5 83.2857
2503.5 89.8571
2504.5 81.4286
2505.5 103.857
2506.5 82.2857
2507.5 106.714
2508.5 120.714
2509.5 108.571
2510.5 122.857
2511.5 165.714
2512.5 99
2513.5 143.143
2514.5 110
2515.5 123.714
2516.5 93.4286
2517.5 163.857
2518.5 89.4286
2519.5 82.4286
2520.5 128.714
2521.5 117
2522.5 102.571
2523.5 107.857
2524.5 79.2857
2525.5 108
2526.5 105.571
2527.5 113.857
2528.5 114.571
2529.5 110
2530.5 115.857
2531.5 80
2532.5 70.1429
2533.5 124.571
2534.5 120.857
2535.5 91.7143
2536.5 86
2537.5 103.571
2538.5 112
2539.5 67.2857
2540.5 96.4286
2541.5 106.286
2542.5 95
2543.5 96.7143
2544.5 112.429
2545.5 115.286
2546.5 93.8571
2547.5 76.4286
2548.5 139
2549.5 135.143
2550.5 115.429
2551.5 146
2552.5 114.571
2553.5 94.1429
2554.5 128.286
2555.5 112.286
2556.5 127.429
2557.5 146.143
2558.5 179
2559.5 179.571
2560.5 123.286
2561.5 104.571
2562.5 115
2563.5 86.7143
2564.5 70
2565.5 132.857
2566.5 70.1429
2567.5 120
2568.5 67
2569.5 99.2857
2570.5 83.4286
2571.5 97
2572.5 106.857
2573.5 70.8571
2574.5 96
2575.5 86.5714
2576.5 88.5714
2577.5 120.429
2578.5 141.429
2579.5 87.5714
2580.5 96.2857
2581.5 83.4286
2582.5 106.571
2583.5 152.571
2584.5 92
2585.5 119.857
2586.5 151
2587.5 198.571
2588.5 139.857
2589.5 134.714
2590.5 127.857
2591.5 80.2857
2592.5 70.2857
2593.5 131.143
2594.5 98.8571
2595.5 99.7143
2596.5 58.8571
2597.5 93
2598.5 74.5714
2599.5 136.286
2600.5 78.7143
2601.5 63.5714
2602.5 99.8571
2603.5 118.714
2604.5 94.8571
2605.5 101.286
2606.5 137.571
2607.5 177.714
2608.5 142.714
2609.5 124.571
2610.5 161.143
2611.5 167.429
2612.5 153
2613.5 174.714
2614.5 144.286
2615.5 167.714
2616.5 132.857
2617.5 153
2618.5 212.286
2619.5 188.143
2620.5 211.143
2621.5 193.714
2622.5 103.714
2623.5 87.4286
2624.5 82.7143
2625.5 102.714
2626.5 86.4286
2627.5 79.2857
2628.5 89.2857
2629.5 129.857
2630.5 68.1429
2631.5 90.5714
2632.5 78.4286
2633.5 105.714
2634.5 140.143
2635.5 104
2636.5 68.2857
2637.5 89.5714
2638.5 67
2639.5 78.5714
2640.5 82.5714
2641.5 92.8571
2642.5 76.7143
2643.5 62.4286
2644.5 91.8571
2645.5 98.5714
2646.5 125.429
2647.5 89.8571
2648.5 36
2649.5 118.143
2650.5 82.5714
2651.5 79
2652.5 72.1429
2653.5 87.2857
2654.5 89.8571
2655.5 105.143
2656.5 81.8571
2657.5 73.4286
2658.5 117.286
2659.5 103
2660.5 88.8571
2661.5 108
2662.5 120.857
2663.5 54.7143
2664.5 86
2665.5 131.571
2666.5 103.429
2667.5 94.4286
2668.5 104.857
2669.5 85.2857
2670.5 75.5714
2671.5 87
2672.5 79.2857
2673.5 64.8571
2674.5 56.2857
2675.5 91.1429
2676.5 64
2677.5 90
2678.5 90.2857
2679.5 105
2680.5 106.143
2681.5 78
2682.5 48.4286
2683.5 111.714
2684.5 102.857
2685.5 88
2686.5 77.1429
2687.5 71.1429
2688.5 79.7143
2689.5 115.714
2690.5 107.143
2691.5 81.1429
2692.5 104.286
2693.5 80.1429
2694.5 54.2857
2695.5 84.1429
2696.5 86
2697.5 70.8571
2698.5 67
2699.5 73.1429
2700.5 101.571
2701.5 38.4286
2702.5 100.143
2703.5 80.1429
2704.5 107.429
2705.5 99.4286
2706.5 109.286
2707.5 120.714
2708.5 96.2857
2709.5 125.429
2710.5 132.857
2711.5 129.429
2712.5 179.429
2713.5 383.143
2714.5 610.571
2715.5 863.857
2716.5 902.714
2717.5 631.857
2718.5 260.143
2719.5 108
2720.5 132.286
2721.5 101.714
2722.5 119.286
2723.5 96.4286
2724.5 109
2725.5 38.1429
2726.5 101.286
2727.5 72.5714
2728.5 67.7143
2729.5 104.714
2730.5 116.429
2731.5 133.571
2732.5 63.2857
2733.5 156.143
2734.5 121
2735.5 82.8571
2736.5 108.714
2737.5 95.4286
2738.5 89.2857
2739.5 91.2857
2740.5 124.857
2741.5 74.1429
2742.5 93.4286
2743.5 98.7143
2744.5 81.5714
2745.5 75.8571
2746.5 64
2747.5 121.429
2748.5 74.1429
2749.5 95.4286
2750.5 83.5714
2751.5 55.8571
2752.5 75
2753.5 86.4286
2754.5 79
2755.5 68.4286
2756.5 89
2757.5 80.8571
2758.5 94.5714
2759.5 115.571
2760.5 105.286
2761.5 52.2857
2762.5 61.2857
2763.5 72
2764.5 114.429
2765.5 109.571
2766.5 95.5714
2767.5 94.4286
2768.5 86.2857
2769.5 92.5714
2770.5 92.1429
2771.5 102.857
2772.5 61.8571
2773.5 111.429
2774.5 64.4286
2775.5 102.857
2776.5 101.714
2777.5 57.4286
2778.5 82.4286
2779.5 95.2857
2780.5 102.714
2781.5 82.5714
2782.5 86
2783.5 121.143
2784.5 64.7143
2785.5 78.2857
2786.5 92.5714
2787.5 93.7143
2788.5 115.143
2789.5 75.7143
2790.5 69.2857
2791.5 75.2857
2792.5 73.8571
2793.5 93.2857
2794.5 140.571
2795.5 232
2796.5 354.429
2797.5 591.857
2798.5 826.429
2799.5 957.571
2800.5 647.857
2801.5 337.286
2802.5 133.143
2803.5 83.1429
2804.5 97.1429
2805.5 99.7143
2806.5 81.2857
2807.5 99.2857
2808.5 92
2809.5 61.2857
2810.5 99.5714
2811.5 95
2812.5 112.714
2813.5 74
2814.5 65
2815.5 135.286
2816.5 96.4286
2817.5 92.5714
2818.5 45.2857
2819.5 99.2857
2820.5 84.7143
2821.5 68.1429
2822.5 75.5714
2823.5 82.4286
2824.5 80.8571
2825.5 79.1429
2826.5 136.143
2827.5 73.1429
2828.5 96.1429
2829.5 72
2830.5 111.286
2831.5 59.8571
2832.5 71.2857
2833.5 102.857
2834.5 94.8571
2835.5 74.8571
2836.5 87.1429
2837.5 39.2857
2838.5 97.7143
2839.5 78
2840.5 99.4286
2841.5 118.714
2842.5 104.143
2843.5 92
2844.5 109.286
2845.5 91.8571
2846.5 138.143
2847.5 137
2848.5 118.571
2849.5 83.2857
2850.5 66.7143
2851.5 112.143
2852.5 52.8571
2853.5 98.4286
2854.5 120.429
2855.5 95.7143
2856.5 83.5714
2857.5 96
2858.5 88
2859.5 61.4286
2860.5 114.286
2861.5 111.143
2862.5 67.8571
2863.5 87.5714
2864.5 100
2865.5 60.4286
2866.5 71.2857
2867.5 66.4286
2868.5 58.1429
2869.5 76.8571
2870.5 104.571
2871.5 59
2872.5 91.5714
2873.5 81.1429
2874.5 78.2857
2875.5 92.8571
2876.5 15.2857
2877.5 93
2878.5 60
2879.5 83.8571
2880.5 65
2881.5 114.857
2882.5 117
2883.5 95.7143
2884.5 67.2857
2885.5 73.1429
2886.5 98.2857
2887.5 100.429
2888.5 67.4286
2889.5 65.4286
2890.5 96.1429
2891.5 58.8571
2892.5 48.2857
2893.5 84
2894.5 113.857
2895.5 110.143
2896.5 67.8571
2897.5 65.7143
2898.5 101
2899.5 101.429
2900.5 101.286
2901.5 117
2902.5 90.8571
2903.5 83.8571
2904.5 82.2857
2905.5 110
2906.5 78.2857
2907.5 154.429
2908.5 189.143
2909.5 279
2910.5 206.714
2911.5 191
2912.5 97
2913.5 66.4286
2914.5 117.429
2915.5 63
2916.5 64.7143
2917.5 71.7143
2918.5 95.5714
2919.5 76.7143
2920.5 84.5714
2921.5 73.7143
2922.5 104.571
2923.5 78.8571
2924.5 87.2857
2925.5 89.2857
2926.5 82.1429
2927.5 78
2928.5 71.4286
2929.5 86.2857
2930.5 85.8571
2931.5 115
2932.5 67.5714
2933.5 89.4286
2934.5 111.143
2935.5 161.857
2936.5 117.571
2937.5 113.429
2938.5 70.4286
2939.5 115.714
2940.5 106
2941.5 85.4286
2942.5 51.5714
2943.5 80.1429
2944.5 74.2857
2945.5 118.571
2946.5 76.1429
2947.5 164.571
2948.5 117.143
2949.5 132.429
2950.5 103.714
2951.5 81.2857
2952.5 118.286
2953.5 112.143
2954.5 147.857
2955.5 137.286
2956.5 127.286
2957.5 108.286
2958.5 111
2959.5 87.1429
2960.5 83.7143
2961.5 89
2962.5 89.8571
2963.5 139
2964.5 90.4286
2965.5 91
2966.5 90.2857
2967.5 52.1429
2968.5 97.8571
2969.5 104.143
2970.5 92.8571
2971.5 99.7143
2972.5 127.429
2973.5 125
2974.5 110.571
2975.5 94.8571
2976.5 76.7143
2977.5 66.5714
2978.5 120.143
2979.5 86.1429
2980.5 78.2857
2981.5 91.5714
2982.5 49.7143
2983.5 118.857
2984.5 72.8571
2985.5 94.4286
2986.5 93
2987.5 116.857
2988.5 77.5714
2989.5 83.2857
2990.5 82.8571
2991.5 69.7143
2992.5 124.143
2993.5 62
2994.5 84.1429
2995.5 114.714
2996.5 85.7143
2997.5 76
2998.5 96.8571
2999.5 85.5714
3000.5 92.4286
3001.5 96
3002.5 92.2857
3003.5 116
3004.5 96.7143
3005.5 84.1429
3006.5 61.1429
3007.5 70
3008.5 100.857
3009.5 116
3010.5 110.714
3011.5 100
3012.5 107
3013.5 137
3014.5 85
3015.5 78.7143
3016.5 122.571
3017.5 49.2857
3018.5 73.2857
3019.5 94.4286
3020.5 83.4286
3021.5 67
3022.5 101.286
3023.5 71.5714
3024.5 88.7143
3025.5 109.143
3026.5 84.7143
3027.5 52.5714
3028.5 90.7143
3029.5 62.7143
3030.5 113.714
3031.5 73.8571
3032.5 98
3033.5 54
3034.5 59
3035.5 98.5714
3036.5 55.1429
3037.5 97.5714
3038.5 88.5714
3039.5 51
3040.5 51.4286
3041.5 111.429
3042.5 82.7143
3043.5 51.5714
3044.5 118.429
3045.5 115.714
3046.5 113.143
3047.5 88
3048.5 92.8571
3049.5 77.2857
3050.5 26.8571
3051.5 -34.2857
3052.5 -60.8571
3053.5 7.71428
3054.5 9.57143
3055.5 72.8571
3056.5 113
3057.5 89.5714
3058.5 70.8571
3059.5 64
3060.5 77
3061.5 76.2857
3062.5 138.143
3063.5 80.5714
3064.5 107.857
3065.5 137.857
3066.5 107.714
3067.5 123
3068.5 55.2857
3069.5 68.2857
3070.5 78.4286
3071.5 60.2857
3072.5 81.4286
3073.5 119.714
3074.5 48.7143
3075.5 49.8571
3076.5 30.1429
3077.5 105.857
3078.5 69.1429
3079.5 89.1429
3080.5 129.143
3081.5 89.5714
3082.5 77.4286
3083.5 73.1429
3084.5 99
3085.5 146.286
3086.5 159
3087.5 114.857
3088.5 131.571
3089.5 122
3090.5 100.571
3091.5 63
3092.5 83.2857
3093.5 78.4286
3094.5 93.7143
3095.5 114.714
3096.5 112.714
3097.5 191
3098.5 318.429
3099.5 401.571
3100.5 351
3101.5 305.429
3102.5 198.143
3103.5 125.571
3104.5 88.8571
3105.5 47.4286
3106.5 114.714
3107.5 96.7143
3108.5 89.8571
3109.5 66
3110.5 93.8571
3111.5 107.571
3112.5 34.5714
3113.5 52.5714
3114.5 62.1429
3115.5 57.5714
3116.5 76.5714
3117.5 111.286
3118.5 83.4286
3119.5 87.7143
3120.5 69.7143
3121.5 85
3122.5 98.8571
3123.5 63.7143
3124.5 100.429
3125.5 76.8571
3126.5 58.5714
3127.5 80.5714
3128.5 73.7143
3129.5 94.2857
3130.5 66.8571
3131.5 88.7143
3132.5 85.7143
3133.5 97.7143
3134.5 81
3135.5 82
3136.5 55.7143
3137.5 116
3138.5 103.571
3139.5 117.714
3140.5 73.1429
3141.5 127.143
3142.5 132.857
3143.5 110.571
3144.5 128.857
3145.5 133.286
3146.5 112.429
3147.5 89.7143
3148.5 119.571
3149.5 67.4286
3150.5 99.8571
3151.5 94.1429
3152.5 99.5714
3153.5 104.429
3154.5 63.8571
3155.5 107.286
3156.5 77.1429
3157.5 79.5714
3158.5 91
3159.5 105.143
3160.5 136.571
3161.5 134
3162.5 111.714
3163.5 134.286
3164.5 68.8571
3165.5 92.8571
3166.5 103.429
3167.5 80.2857
3168.5 103.857
3169.5 78.4286
3170.5 64.8571
3171.5 59.7143
3172.5 79
3173.5 86.8571
3174.5 141.714
3175.5 114.714
3176.5 144.857
3177.5 102.714
3178.5 94.5714
3179.5 90
3180.5 90.8571
3181.5 86.5714
3182.5 149
3183.5 51
3184.5 70.1429
3185.5 74.2857
3186.5 99.5714
3187.5 91.1429
3188.5 76.7143
3189.5 85.4286
3190.5 78.8571
3191.5 81.4286
3192.5 66.2857
3193.5 95.7143
3194.5 93.8571
3195.5 50.1429
3196.5 89.8571
3197.5 92.8571
3198.5 107.286
3199.5 102.286
3200.5 108
3201.5 105.286
3202.5 91
3203.5 91
3204.5 87.1429
3205.5 49.7143
3206.5 87.8571
3207.5 94.2857
3208.5 64.8571
3209.5 127.143
3210.5 54.2857
3211.5 68.4286
3212.5 144.857
3213.5 122.714
3214.5 152.714
3215.5 272.714
3216.5 181.429
3217.5 179.571
3218.5 150.571
3219.5 105
3220.5 66
3221.5 59.7143
3222.5 109.143
3223.5 92.1429
3224.5 69.5714
3225.5 76.5714
3226.5 109.286
3227.5 63
3228.5 61.8571
3229.5 58.4286
3230.5 86.2857
3231.5 81.7143
3232.5 144.286
3233.5 97.8571
3234.5 109.857
3235.5 83
3236.5 77.5714
3237.5 62.7143
3238.5 29
3239.5 53
3240.5 45.1429
3241.5 44.2857
3242.5 19.2857
3243.5 27
3244.5 60.1429
3245.5 95.2857
3246.5 79.2857
3247.5 80.1429
3248.5 103
3249.5 66.8571
3250.5 53.4286
3251.5 66.1429
3252.5 68.4286
3253.5 79.5714
3254.5 82
3255.5 83.8571
3256.5 106.571
3257.5 96.5714
3258.5 99.8571
3259.5 48.7143
3260.5 64.2857
3261.5 102.714
3262.5 64
3263.5 84.4286
3264.5 89.7143
3265.5 80
3266.5 53.2857
3267.5 80.7143
3268.5 90.4286
3269.5 97.7143
3270.5 103.571
3271.5 64.4286
3272.5 79.8571
3273.5 81
3274.5 104.286
3275.5 87.1429
3276.5 82.4286
3277.5 69.4286
3278.5 96.5714
3279.5 97.8571
3280.5 84.7143
3281.5 104
3282.5 92.5714
3283.5 79.8571
3284.5 89.8571
3285.5 64.5714
3286.5 88.4286
3287.5 43
3288.5 91.8571
3289.5 47.1429
3290.5 51
3291.5 79.1429
3292.5 62.2857
3293.5 54.4286
3294.5 92.4286
3295.5 95.2857
3296.5 88.1429
3297.5 96.2857
3298.5 108.286
3299.5 119.857
3300.5 132
3301.5 156.286
3302.5 105.286
3303.5 95.1429
3304.5 96.8571
3305.5 83.8571
3306.5 87.4286
3307.5 143.571
3308.5 133.429
3309.5 163
3310.5 210
3311.5 243
3312.5 167.286
3313.5 107.429
3314.5 85.7143
3315.5 80.7143
3316.5 128.143
3317.5 113.714
3318.5 79.8571
3319.5 92.2857
3320.5 81.7143
3321.5 65.2857
3322.5 64.4286
3323.5 33
3324.5 62.7143
3325.5 53.5714
3326.5 106.143
3327.5 90.4286
3328.5 61.1429
3329.5 66.2857
3330.5 101.571
3331.5 113
3332.5 92.4286
3333.5 115.714
3334.5 109.143
3335.5 113.857
3336.5 108.571
3337.5 113.143
3338.5 80.2857
3339.5 73.5714
3340.5 67.5714
3341.5 68.4286
3342.5 42
3343.5 94.5714
3344.5 58.5714
3345.5 69.1429
3346.5 73.2857
3347.5 88.4286
3348.5 90.4286
3349.5 98.4286
3350.5 67.4286
3351.5 111
3352.5 74.8571
3353.5 64.4286
3354.5 83.8571
3355.5 64
3356.5 94.7143
3357.5 105.143
3358.5 78.8571
3359.5 75.2857
3360.5 44.4286
3361.5 65.1429
3362.5 95.8571
3363.5 76.4286
3364.5 124.143
3365.5 76.8571
3366.5 112.571
3367.5 112.429
3368.5 123.857
3369.5 80.7143
3370.5 117.429
3371.5 101.714
3372.5 93.8571
3373.5 110.714
3374.5 103
3375.5 102.429
3376.5 103.714
3377.5 78.8571
3378.5 74.5714
3379.5 71.7143
3380.5 85.7143
3381.5 82.8571
3382.5 72.5714
3383.5 92.4286
3384.5 69.5714
3385.5 59.7143
3386.5 79.5714
3387.5 68.1429
3388.5 58.5714
3389.5 95.4286
3390.5 114.286
3391.5 124
3392.5 109.714
3393.5 75.2857
3394.5 74.5714
3395.5 89.5714
3396.5 99.1429
3397.5 108.143
3398.5 131.143
3399.5 73.7143
3400.5 92.1429
3401.5 70.4286
3402.5 93.4286
3403.5 63.7143
3404.5 92.7143
3405.5 97.2857
3406.5 57.8571
3407.5 103.857
3408.5 81.2857
3409.5 77.2857
3410.5 85.7143
3411.5 76.5714
3412.5 56
3413.5 94.1429
3414.5 70.1429
3415.5 56
3416.5 88.8571
3417.5 88.8571
3418.5 77.8571
3419.5 107
3420.5 82.1429
3421.5 83
3422.5 60.4286
3423.5 88.4286
3424.5 64.7143
3425.5 119.571
3426.5 71
3427.5 102.571
3428.5 110.857
3429.5 65
3430.5 78
3431.5 121.429
3432.5 101.571
3433.5 64.1429
3434.5 81.1429
3435.5 85.2857
3436.5 65.7143
3437.5 59.2857
3438.5 70.1429
3439.5 78.5714
3440.5 59.2857
3441.5 41.7143
3442.5 57.5714
3443.5 61.8571
3444.5 130.429
3445.5 135.857
3446.5 137.714
3447.5 139.571
3448.5 225.857
3449.5 178.571
3450.5 157.286
3451.5 134.571
3452.5 80.5714
3453.5 73.5714
3454.5 74
3455.5 96.8571
3456.5 93.1429
3457.5 53.4286
3458.5 78.8571
3459.5 88.7143
3460.5 60.7143
3461.5 72.7143
3462.5 66
3463.5 88.4286
3464.5 59.1429
3465.5 58.7143
3466.5 72.1429
3467.5 76.5714
3468.5 72.2857
3469.5 95
3470.5 110.571
3471.5 62.2857
3472.5 50.1429
3473.5 90
3474.5 94.2857
3475.5 76.2857
3476.5 71.8571
3477.5 62.4286
3478.5 63
3479.5 98.1429
3480.5 114
3481.5 113.857
3482.5 158.714
3483.5 163.429
3484.5 177.429
3485.5 193.286
3486.5 165.857
3487.5 98.7143
3488.5 70.8571
3489.5 68.8571
3490.5 87.2857
3491.5 77
3492.5 56.8571
3493.5 51.7143
3494.5 97.7143
3495.5 103.286
3496.5 127.143
3497.5 90.2857
3498.5 107.143
3499.5 92.2857
3500.5 94.8571
3501.5 92.8571
3502.5 67.2857
3503.5 107.286
3504.5 117.714
3505.5 130
3506.5 125.714
3507.5 132.429
3508.5 143
3509.5 149.714
3510.5 101
3511.5 95.7143
3512.5 80.4286
3513.5 96.4286
3514.5 86.2857
3515.5 65.7143
3516.5 79.4286
3517.5 116.857
3518.5 82.8571
3519.5 95.5714
3520.5 83.8571
3521.5 117.857
3522.5 85.8571
3523.5 91.5714
3524.5 119
3525.5 119.571
3526.5 118.714
3527.5 71.7143
3528.5 76.7143
3529.5 55.5714
3530.5 55
3531.5 77.7143
3532.5 72.7143
3533.5 68.8571
3534.5 70.8571
3535.5 63
3536.5 89.7143
3537.5 65.1429
3538.5 107.143
3539.5 96
3540.5 90.8571
3541.5 86.2857
3542.5 89.4286
3543.5 81.8571
3544.5 51
3545.5 69.1429
3546.5 83.1429
3547.5 101.143
3548.5 90.8571
3549.5 73.2857
3550.5 38.7143
3551.5 88
3552.5 57.1429
3553.5 56
3554.5 78.5714
3555.5 44.7143
3556.5 63.2857
3557.5 117.286
3558.5 89.8571
3559.5 66.7143
3560.5 62.2857
3561.5 39.4286
3562.5 101.429
3563.5 70.2857
3564.5 62.2857
3565.5 56.4286
3566.5 86.2857
3567.5 68.7143
3568.5 96.2857
3569.5 82.8571
3570.5 118.571
3571.5 95.2857
3572.5 93
3573.5 123.286
3574.5 167.143
3575.5 198.429
3576.5 243.429
3577.5 221.429
3578.5 163.571
3579.5 136.286
3580.5 112
3581.5 99.8571
3582.5 107.286
3583.5 81
3584.5 69.8571
3585.5 108.857
3586.5 50.1429
3587.5 78.1429
3588.5 68.1429
3589.5 77.2857
3590.5 96.1429
3591.5 83.5714
3592.5 74.1429
3593.5 43.1429
3594.5 88.4286
3595.5 118.857
3596.5 152.857
3597.5 103.857
3598.5 88.1429
3599.5 72.2857
3600.5 94.5714
3601.5 75.2857
3602.5 65.4286
3603.5 68.5714
3604.5 32.4286
3605.5 65.2857
3606.5 69
3607.5 76.5714
3608.5 74.8571
3609.5 52.5714
3610.5 81.1429
3611.5 84.4286
3612.5 105.429
3613.5 103.571
3614.5 92.1429
3615.5 65.5714
3616.5 69.5714
3617.5 60.1429
3618.5 100.286
3619.5 80
3620.5 108.143
3621.5 60.5714
3622.5 73.4286
3623.5 102.429
3624.5 74
3625.5 76.5714
3626.5 126.714
3627.5 61
3628.5 108
3629.5 136.714
3630.5 166
3631.5 117.429
3632.5 114.571
3633.5 105
3634.5 74.4286
3635.5 60.7143
3636.5 90.4286
3637.5 45.2857
3638.5 105.143
3639.5 61.8571
3640.5 83.7143
3641.5 73.5714
3642.5 92.4286
3643.5 120.857
3644.5 106.286
3645.5 103.143
3646.5 135
3647.5 85
3648.5 77.2857
3649.5 78
3650.5 108.429
3651.5 74.8571
3652.5 64.2857
3653.5 66.8571
3654.5 84.8571
3655.5 83.7143
3656.5 123.714
3657.5 68.4286
3658.5 89
3659.5 88.7143
3660.5 91.5714
3661.5 110.286
3662.5 76.1429
3663.5 111
3664.5 113.857
3665.5 79.4286
3666.5 86
3667.5 110.429
3668.5 119.714
3669.5 118.286
3670.5 162.857
3671.5 214.286
3672.5 281.714
3673.5 269.714
3674.5 177.143
3675.5 113.857
3676.5 76.8571
3677.5 99.4286
3678.5 103.714
3679.5 98.7143
3680.5 50
3681.5 70.7143
3682.5 71.7143
3683.5 88.7143
3684.5 83.4286
3685.5 78.8571
3686.5 83.8571
3687.5 75.7143
3688.5 63.1429
3689.5 63.7143
3690.5 66.5714
3691.5 73.4286
3692.5 58.5714
3693.5 94
3694.5 94.7143
3695.5 61.7143
3696.5 87.4286
3697.5 85.8571
3698.5 37.8571
3699.5 71.8571
3700.5 76.5714
3701.5 86.7143
3702.5 83.8571
3703.5 80.4286
3704.5 50.1429
3705.5 63.8571
3706.5 65.5714
3707.5 95.2857
3708.5 110.429
3709.5 70.7143
3710.5 84.8571
3711.5 64
3712.5 77.8571
3713.5 75.5714
3714.5 92.8571
3715.5 85.2857
3716.5 73.7143
3717.5 118.714
3718.5 84.8571
3719.5 44.8571
3720.5 85.8571
3721.5 80.7143
3722.5 119.429
3723.5 48.5714
3724.5 113.571
3725.5 103.714
3726.5 85.2857
3727.5 93.7143
3728.5 91
3729.5 93.1429
3730.5 48.4286
3731.5 56.5714
3732.5 110.857
3733.5 81.5714
3734.5 90.2857
3735.5 60.2857
3736.5 93.8571
3737.5 85.5714
3738.5 83.8571
3739.5 74.5714
3740.5 73.2857
3741.5 97.5714
3742.5 104
3743.5 97.7143
3744.5 100.714
3745.5 155.571
3746.5 117.571
3747.5 95.1429
3748.5 104.571
3749.5 107.286
3750.5 100.571
3751.5 75.8571
3752.5 86.4286
3753.5 90.8571
3754.5 59.8571
3755.5 97.5714
3756.5 108.857
3757.5 94.4286
3758.5 107.571
3759.5 67.8571
3760.5 60.1429
3761.5 82.4286
3762.5 84.7143
3763.5 64.8571
3764.5 40
3765.5 99.4286
3766.5 81.1429
3767.5 57.8571
3768.5 88.7143
3769.5 91.5714
3770.5 73.8571
3771.5 101.857
3772.5 57.7143
3773.5 65.4286
3774.5 71
3775.5 86.8571
3776.5 115.857
3777.5 73.4286
3778.5 54.2857
3779.5 72.8571
3780.5 86.5714
3781.5 81.2857
3782.5 58.4286
3783.5 88.4286
3784.5 127
3785.5 118.143
3786.5 123.429
3787.5 113.714
3788.5 120.857
3789.5 77.2857
3790.5 96.4286
3791.5 90.4286
3792.5 120
3793.5 77.1429
3794.5 95.5714
3795.5 102.714
3796.5 69.8571
3797.5 71.5714
3798.5 81.2857
3799.5 55
3800.5 66.5714
3801.5 88.5714
3802.5 79.7143
3803.5 73.5714
3804.5 108.429
3805.5 103.571
3806.5 133.429
3807.5 181.286
3808.5 215.714
3809.5 200.143
3810.5 112
3811.5 72.7143
3812.5 66.7143
3813.5 72.2857
3814.5 73
3815.5 89.8571
3816.5 88.7143
3817.5 81.1429
3818.5 86.4286
3819.5 48.1429
3820.5 83.2857
3821.5 73.1429
3822.5 81.7143
3823.5 81.8571
3824.5 59.5714
3825.5 71.5714
3826.5 92
3827.5 60.1429
3828.5 73.4286
3829.5 71.4286
3830.5 81.5714
3831.5 95.7143
3832.5 93.5714
3833.5 66.7143
3834.5 77.2857
3835.5 97.7143
3836.5 113.571
3837.5 37.5714
3838.5 62.4286
3839.5 54.2857
3840.5 50.8571
3841.5 69.2857
3842.5 69.7143
3843.5 80.2857
3844.5 93.8571
3845.5 79.1429
3846.5 92.7143
3847.5 86
3848.5 63.1429
3849.5 100.143
3850.5 53.7143
3851.5 71
3852.5 104.429
3853.5 101.143
3854.5 75.4286
3855.5 103.429
3856.5 95.7143
3857.5 36.8571
3858.5 55.4286
3859.5 91.5714
3860.5 76.4286
3861.5 105.429
3862.5 83.5714
3863.5 80
3864.5 87
3865.5 69.8571
3866.5 66.5714
3867.5 62.2857
3868.5 117.143
3869.5 47.2857
3870.5 92.1429
3871.5 91.4286
3872.5 67.5714
3873.5 65.1429
3874.5 45.4286
3875.5 41.5714
3876.5 66
3877.5 73.8571
3878.5 83.2857
3879.5 71.7143
3880.5 42.5714
3881.5 63.2857
3882.5 61.8571
3883.5 72.1429
3884.5 79.1429
3885.5 68
3886.5 77.1429
3887.5 53.7143
3888.5 76.2857
3889.5 51.2857
3890.5 57.4286
3891.5 80.7143
3892.5 72.8571
3893.5 89.1429
3894.5 69.2857
3895.5 96.5714
3896.5 89.5714
3897.5 77.4286
3898.5 67.4286
3899.5 93.2857
3900.5 130.714
3901.5 180.286
3902.5 204
3903.5 194.714
3904.5 138.143
3905.5 99.5714
3906.5 97.8571
3907.5 64.5714
3908.5 78
3909.5 108.857
3910.5 99.7143
3911.5 76.4286
3912.5 82.1429
3913.5 82.2857
3914.5 84.2857
3915.5 77
3916.5 107.429
3917.5 55
3918.5 68.5714
3919.5 64.5714
3920.5 75.8571
3921.5 91.1429
3922.5 64.8571
3923.5 66.8571
3924.5 76
3925.5 95
3926.5 75
3927.5 71.1429
3928.5 69.5714
3929.5 50.1429
3930.5 58.5714
3931.5 98.7143
3932.5 89.2857
3933.5 42.4286
3934.5 56.5714
3935.5 100.429
3936.5 44.5714
3937.5 89.4286
3938.5 54.2857
3939.5 72.8571
3940.5 74.5714
3941.5 56
3942.5 97.4286
3943.5 75.8571
3944.5 83.1429
3945.5 90
3946.5 56.4286
3947.5 93.2857
3948.5 63.4286
3949.5 63.1429
3950.5 117.286
3951.5 93.1429
3952.5 70.8571
3953.5 74
3954.5 104.714
3955.5 86.1429
3956.5 125
3957.5 92.5714
3958.5 73.8571
3959.5 90.8571
3960.5 105.429
3961.5 42
3962.5 58.1429
3963.5 82.5714
3964.5 62
3965.5 94.8571
3966.5 88.4286
3967.5 62.8571
3968.5 66.8571
3969.5 99
3970.5 110
3971.5 96.1429
3972.5 115.571
3973.5 132.286
3974.5 99.8571
3975.5 121.429
3976.5 71
3977.5 120.714
3978.5 72.8571
3979.5 68.4286
3980.5 68.1429
3981.5 78.4286
3982.5 67.7143
3983.5 81.2857
3984.5 67.1429
3985.5 34.8571
3986.5 80.2857
3987.5 96.5714
3988.5 95
3989.5 80.2857
3990.5 76.1429
3991.5 123.571
3992.5 186.857
3993.5 267.857
3994.5 434.429
3995.5 541.571
3996.5 604.429
3997.5 497.286
3998.5 302.571
3999.5 182.714
4000.5 108.857
4001.5 78.2857
4002.5 79
4003.5 89.2857
4004.5 74.4286
4005.5 89.7143
4006.5 56.7143
4007.5 113.857
4008.5 92.7143
4009.5 99
4010.5 76.1429
4011.5 80
4012.5 80.8571
4013.5 71.5714
4014.5 52.4286
4015.5 71.5714
4016.5 80
4017.5 93.8571
4018.5 46.1429
4019.5 75.5714
4020.5 63.1429
4021.5 79.5714
4022.5 79.8571
4023.5 70.7143
4024.5 82.2857
4025.5 74.7143
4026.5 54.8571
4027.5 51.4286
4028.5 91
4029.5 77.8571
4030.5 82.7143
4031.5 90.4286
4032.5 120.571
4033.5 93.7143
4034.5 104.429
4035.5 126.143
4036.5 62
4037.5 55.1429
4038.5 59.7143
4039.5 92.4286
4040.5 62.1429
4041.5 55.2857
4042.5 64.1429
4043.5 61.2857
4044.5 68.7143
4045.5 48.8571
4046.5 77.4286
4047.5 53.8571
4048.5 67.4286
4049.5 60.2857
4050.5 45.1429
4051.5 103
4052.5 55.4286
4053.5 65.8571
4054.5 85.1429
4055.5 68
4056.5 64.7143
4057.5 70.7143
4058.5 87.1429
4059.5 82.2857
4060.5 95.2857
4061.5 73.8571
4062.5 74.2857
4063.5 114.286
4064.5 63.5714
4065.5 94.8571
4066.5 106.714
4067.5 86
4068.5 90.5714
4069.5 100.714
4070.5 61.4286
4071.5 82.2857
4072.5 38.8571
4073.5 85.1429
4074.5 85.8571
4075.5 67.2857
4076.5 88.1429
4077.5 69
4078.5 45.7143
4079.5 121.571
4080.5 66.1429
4081.5 32.2857
4082.5 99.2857
4083.5 79.8571
4084.5 71.2857
4085.5 101.857
4086.5 73.5714
4087.5 77.2857
4088.5 55.2857
4089.5 109.143
4090.5 101.857
4091.5 73.2857
4092.5 84.7143
4093.5 87.1429
4094.5 70.7143
4095.5 49.7143
4096.5 60.1429
4097.5 78.1429
4098.5 72.4286
4099.5 77
4100.5 60
4101.5 56.4286
4102.5 53
4103.5 71.4286
4104.5 56.2857
4105.5 58
4106.5 86.1429
4107.5 74
4108.5 55.8571
4109.5 80.8571
4110.5 81.5714
4111.5 67.4286
4112.5 84.5714
4113.5 54.7143
4114.5 97
4115.5 87.8571
4116.5 74
4117.5 72
4118.5 99.2857
4119.5 70.4286
4120.5 63.4286
4121.5 76.2857
4122.5 77
4123.5 77.8571
4124.5 103.143
4125.5 64.8571
4126.5 82.8571
4127.5 44.2857
4128.5 52
4129.5 99.7143
4130.5 84.2857
4131.5 64.5714
4132.5 72.1429
4133.5 73.4286
4134.5 73.2857
4135.5 61.4286
4136.5 70.2857
4137.5 90.1429
4138.5 61.1429
4139.5 86.1429
4140.5 100.714
4141.5 125.714
4142.5 118.571
4143.5 88.8571
4144.5 98.7143
4145.5 114.857
4146.5 68.8571
4147.5 105.571
4148.5 73.5714
4149.5 53
4150.5 80.5714
4151.5 61.1429
4152.5 87.8571
4153.5 60.5714
4154.5 70.7143
4155.5 76.5714
4156.5 46.4286
4157.5 67.2857
4158.5 55.4286
4159.5 43.5714
4160.5 70
4161.5 56.2857
4162.5 53.4286
4163.5 82.5714
4164.5 73
4165.5 117.286
4166.5 144.857
4167.5 176.286
4168.5 177.714
4169.5 184.857
4170.5 137.714
4171.5 130.143
4172.5 117.857
4173.5 146.429
4174.5 152.286
4175.5 107
4176.5 96.8571
4177.5 109.714
4178.5 74.1429
4179.5 66.2857
4180.5 84.1429
4181.5 83.4286
4182.5 88.7143
4183.5 103
4184.5 61
4185.5 74.5714
4186.5 74.1429
4187.5 68.5714
4188.5 76.1429
4189.5 58.8571
4190.5 50.7143
4191.5 63
4192.5 83.4286
4193.5 62
4194.5 57
4195.5 69.8571
4196.5 56.1429
4197.5 102.143
4198.5 73
4199.5 60.5714
4200.5 73.1429
4201.5 74.5714
4202.5 52
4203.5 81.2857
4204.5 76.4286
4205.5 79.2857
4206.5 88.5714
4207.5 110.429
4208.5 115
4209.5 118
4210.5 113.571
4211.5 86.2857
4212.5 100.143
4213.5 67
4214.5 85
4215.5 103
4216.5 50.5714
4217.5 70.1429
4218.5 61.7143
4219.5 62.7143
4220.5 56.8571
4221.5 65.4286
4222.5 86.4286
4223.5 55.2857
4224.5 81.8571
4225.5 70.5714
4226.5 74.2857
4227.5 73.7143
4228.5 93.2857
4229.5 80
4230.5 63.5714
4231.5 64.1429
4232.5 63.5714
4233.5 60.5714
4234.5 80.7143
4235.5 44.5714
4236.5 68.7143
4237.5 47.5714
4238.5 70.1429
4239.5 88.4286
4240.5 87.2857
4241.5 67.4286
4242.5 86.7143
4243.5 69.8571
4244.5 75.2857
4245.5 53.7143
4246.5 68.8571
4247.5 88.5714
4248.5 101.143
4249.5 93.5714
4250.5 96.2857
4251.5 66
4252.5 80.1429
4253.5 82.4286
4254.5 59.7143
4255.5 46.4286
4256.5 75.8571
4257.5 111.857
4258.5 78.5714
4259.5 94.7143
4260.5 73.8571
4261.5 54.4286
4262.5 66.5714
4263.5 75.2857
4264.5 101.429
4265.5 104.286
4266.5 92.7143
4267.5 84.8571
4268.5 100.143
4269.5 81.8571
4270.5 76.8571
4271.5 68.8571
4272.5 82.5714
4273.5 114.857
4274.5 124.143
4275.5 112.714
4276.5 106.714
4277.5 67
4278.5 57.8571
4279.5 80.5714
4280.5 61
4281.5 73.1429
4282.5 96.5714
4283.5 46.7143
4284.5 48.8571
4285.5 63.5714
4286.5 82.7143
4287.5 61.8571
4288.5 64.4286
4289.5 89.1429
4290.5 45
4291.5 91.2857
4292.5 88.4286
4293.5 70.7143
4294.5 77.4286
4295.5 73.7143
4296.5 75.4286
4297.5 93.5714
4298.5 86.4286
4299.5 69
4300.5 88.8571
4301.5 71.8571
4302.5 88.1429
4303.5 98
4304.5 80.1429
4305.5 102.286
4306.5 75
4307.5 100.143
4308.5 92.5714
4309.5 92.7143
4310.5 103.571
4311.5 87
4312.5 88.5714
4313.5 80.1429
4314.5 102.571
4315.5 87.5714
4316.5 76.4286
4317.5 106.714
4318.5 105.286
4319.5 71.2857
4320.5 56.4286
4321.5 62
4322.5 87.4286
4323.5 76.2857
4324.5 94.5714
4325.5 74.7143
4326.5 92.1429
4327.5 71.5714
4328.5 62.7143
4329.5 71.7143
4330.5 72.4286
4331.5 65.8571
4332.5 66.8571
4333.5 78.8571
4334.5 88.5714
4335.5 79.1429
4336.5 111.714
4337.5 75
4338.5 70.2857
4339.5 98.8571
4340.5 50.7143
4341.5 66.7143
4342.5 89.5714
4343.5 70.1429
4344.5 93.5714
4345.5 72.8571
4346.5 93.5714
4347.5 93.7143
4348.5 81.8571
4349.5 84.8571
4350.5 64
4351.5 86.1429
4352.5 70.5714
4353.5 71.2857
4354.5 103.571
4355.5 79.5714
4356.5 104.286
4357.5 63.4286
4358.5 75.8571
4359.5 112.143
4360.5 71
4361.5 102.571
4362.5 93.1429
4363.5 83.7143
4364.5 101.429
4365.5 88.5714
4366.5 61.1429
4367.5 75.4286
4368.5 75.5714
4369.5 83.7143
4370.5 70.7143
4371.5 72.1429
4372.5 57.2857
4373.5 55.7143
4374.5 86.4286
4375.5 45
4376.5 74.4286
4377.5 75.8571
4378.5 74.2857
4379.5 103.286
4380.5 119
4381.5 88.2857
4382.5 108.429
4383.5 72.5714
4384.5 90.1429
4385.5 106.143
4386.5 116.714
4387.5 84.1429
4388.5 99.1429
4389.5 105.286
4390.5 110.286
4391.5 106.857
4392.5 74.4286
4393.5 88
4394.5 95.1429
4395.5 117.571
4396.5 54.7143
4397.5 61
4398.5 91.5714
4399.5 100.571
4400.5 60.5714
4401.5 90.7143
4402.5 96.1429
4403.5 58.8571
4404.5 77.4286
4405.5 68.5714
4406.5 92.8571
4407.5 80.7143
4408.5 93.7143
4409.5 46.2857
4410.5 84
4411.5 75.4286
4412.5 103
4413.5 92.1429
4414.5 73.8571
4415.5 56.8571
4416.5 51.8571
4417.5 56.4286
4418.5 25.5714
4419.5 101.429
4420.5 44.1429
4421.5 73.2857
4422.5 90.5714
4423.5 73.1429
4424.5 99.2857
4425.5 81.2857
4426.5 123.857
4427.5 74.4286
4428.5 96.1429
4429.5 89.5714
4430.5 87.5714
4431.5 81.2857
4432.5 93.4286
4433.5 87.5714
4434.5 97.1429
4435.5 75.7143
4436.5 75.1429
4437.5 74
4438.5 102.429
4439.5 84.5714
4440.5 77.1429
4441.5 59.4286
4442.5 69.1429
4443.5 88.5714
4444.5 72.5714
4445.5 70.2857
4446.5 88.1429
4447.5 82.5714
4448.5 73.7143
4449.5 96.2857
4450.5 85.2857
4451.5 81
4452.5 80.7143
4453.5 72.5714
4454.5 75.4286
4455.5 52.2857
4456.5 116
4457.5 77.8571
4458.5 107
4459.5 67.8571
4460.5 115.714
4461.5 125.286
4462.5 112.286
4463.5 122.857
4464.5 104.571
4465.5 95.1429
4466.5 124.429
4467.5 59.8571
4468.5 75
4469.5 81
4470.5 75.4286
4471.5 54.5714
4472.5 67.4286
4473.5 73.8571
4474.5 60.2857
4475.5 82.4286
4476.5 102.571
4477.5 107.286
4478.5 77.8571
4479.5 35.8571
4480.5 95.7143
4481.5 73
4482.5 90.4286
4483.5 105.143
4484.5 95.8571
4485.5 144.286
4486.5 132.143
4487.5 197
4488.5 254.286
4489.5 388.429
4490.5 598.429
4491.5 973
4492.5 1213.14
4493.5 1223.14
4494.5 829.286
4495.5 451.857
4496.5 230
4497.5 142.714
4498.5 145.143
4499.5 141.857
4500.5 117.286
4501.5 118.571
4502.5 133.143
4503.5 112.571
4504.5 183.429
4505.5 159.571
4506.5 177.857
4507.5 178.857
4508.5 157.429
4509.5 150.714
4510.5 118.143
4511.5 142
4512.5 118.714
4513.5 72.5714
4514.5 94.1429
4515.5 134.143
4516.5 137.143
4517.5 109.571
4518.5 140.714
4519.5 143.143
4520.5 148.429
4521.5 109.571
4522.5 88.2857
4523.5 100.286
4524.5 91.1429
4525.5 106.143
4526.5 106.571
4527.5 115.429
4528.5 146.429
4529.5 139.571
4530.5 139.857
4531.5 118.143
4532.5 111.857
4533.5 123.143
4534.5 115.857
4535.5 111.571
4536.5 113.143
4537.5 91.5714
4538.5 119.429
4539.5 111.857
4540.5 141.571
4541.5 118.714
4542.5 89.5714
4543.5 111.143
4544.5 132.286
4545.5 112.286
4546.5 126.143
4547.5 121.286
4548.5 104.857
4549.5 90.8571
4550.5 143.714
4551.5 120.714
4552.5 106.143
4553.5 102
4554.5 110.714
4555.5 157.429
4556.5 96.7143
4557.5 116.429
4558.5 95.7143
4559.5 157.143
4560.5 133
4561.5 119.714
4562.5 135.143
4563.5 105.857
4564.5 116.714
4565.5 126.571
4566.5 134
4567.5 122.571
4568.5 167.857
4569.5 159.857
4570.5 168.429
4571.5 131.429
4572.5 115
4573.5 166.143
4574.5 140.571
4575.5 109.143
4576.5 118.429
4577.5 103.571
4578.5 109.714
4579.5 145.714
4580.5 125.857
4581.5 114.286
4582.5 133.286
4583.5 124.714
4584.5 113.429
4585.5 126
4586.5 138
4587.5 121.143
4588.5 115.143
4589.5 114.714
4590.5 123.429
4591.5 120.857
4592.5 114.571
4593.5 118
4594.5 126.571
4595.5 114.714
4596.5 112.429
4597.5 141.286
4598.5 131.143
4599.5 171.714
4600.5 166.857
4601.5 158.571
4602.5 173.143
4603.5 129
4604.5 146.429
4605.5 161.571
4606.5 131.857
4607.5 106
4608.5 116.571
4609.5 125.429
4610.5 119.714
4611.5 141.143
4612.5 148.286
4613.5 138.571
4614.5 161.143
4615.5 154
4616.5 135.857
4617.5 106.571
4618.5 121.857
4619.5 120.429
4620.5 131.571
4621.5 116.429
4622.5 132.286
4623.5 117.286
4624.5 141.143
4625.5 132.714
4626.5 120.143
4627.5 149
4628.5 135.857
4629.5 127.143
4630.5 132.571
4631.5 143.429
4632.5 139
4633.5 116.286
4634.5 159.857
4635.5 144.286
4636.5 112.857
4637.5 83.5714
4638.5 120.429
4639.5 141.857
4640.5 143.571
4641.5 147.429
4642.5 141
4643.5 104.429
4644.5 123.286
4645.5 118.571
4646.5 129
4647.5 131
4648.5 192.571
4649.5 165.143
4650.5 228.143
4651.5 241.429
4652.5 246.143
4653.5 296.857
4654.5 312
4655.5 224
4656.5 201.143
4657.5 156.857
4658.5 153.286
4659.5 162.143
4660.5 140.429
4661.5 158
4662.5 134.857
4663.5 134.714
4664.5 136.429
4665.5 150
4666.5 144.857
4667.5 143.714
4668.5 152.714
4669.5 123.571
4670.5 151.143
4671.5 128.714
4672.5 113.143
4673.5 126
4674.5 141.857
4675.5 140
4676.5 119.571
4677.5 125.143
4678.5 163.429
4679.5 138.429
4680.5 144.429
4681.5 124.571
4682.5 133.571
4683.5 152.714
4684.5 184
4685.5 144.571
4686.5 140
4687.5 151.857
4688.5 148.286
4689.5 138.143
4690.5 139.429
4691.5 135
4692.5 141.429
4693.5 167.429
4694.5 188.143
4695.5 111.143
4696.5 139.571
4697.5 118
4698.5 136.429
4699.5 132.571
4700.5 128.286
4701.5 189.714
4702.5 158.857
4703.5 122.571
4704.5 149.857
4705.5 154.429
4706.5 149.571
4707.5 124.143
4708.5 163.286
4709.5 132.571
4710.5 124.571
4711.5 153.286
4712.5 146.286
4713.5 120.857
4714.5 144.429
4715.5 155.714
4716.5 152.571
4717.5 157.571
4718.5 165.714
4719.5 156
4720.5 168.429
4721.5 168.143
4722.5 176.429
4723.5 127.143
4724.5 126.286
4725.5 106.286
4726.5 151.714
4727.5 131.143
4728.5 158.429
4729.5 173
4730.5 140.286
4731.5 133.143
4732.5 162
4733.5 148.286
4734.5 103.714
4735.5 166.143
4736.5 175.429
4737.5 161.429
4738.5 171
4739.5 114.429
4740.5 125.286
4741.5 146.857
4742.5 149
4743.5 141.714
4744.5 114.714
4745.5 170.143
4746.5 186.571
4747.5 138.857
4748.5 164.857
4749.5 151.857
4750.5 186.857
4751.5 131.143
4752.5 192.429
4753.5 178.143
4754.5 178.714
4755.5 207.571
4756.5 146.857
4757.5 125.286
4758.5 107.857
4759.5 116.571
4760.5 171.857
4761.5 160.857
4762.5 160.143
4763.5 145.286
4764.5 152.571
4765.5 115
4766.5 156.714
4767.5 158.429
4768.5 167.571
4769.5 163.143
4770.5 134
4771.5 156.429
4772.5 165.143
4773.5 146.143
4774.5 189.429
4775.5 145.429
4776.5 185.429
4777.5 158.857
4778.5 170.429
4779.5 161.143
4780.5 156.571
4781.5 189
4782.5 134.143
4783.5 169.286
4784.5 154.571
4785.5 116.286
4786.5 144.714
4787.5 142.143
4788.5 175.857
4789.5 205.714
4790.5 145.429
4791.5 140.571
4792.5 152
4793.5 135.571
4794.5 182.857
4795.5 180
4796.5 138.429
4797.5 155.857
4798.5 153.571
4799.5 178.286
4800.5 164
4801.5 191.286
4802.5 201
4803.5 188.571
4804.5 192.286
4805.5 150.286
4806.5 165.571
4807.5 169.143
4808.5 199.143
4809.5 186.143
4810.5 192
4811.5 192.571
4812.5 187.571
4813.5 228.143
4814.5 176.429
4815.5 179.857
4816.5 158
4817.5 187.571
4818.5 203.571
4819.5 171.571
4820.5 177.714
4821.5 198.286
4822.5 156.143
4823.5 159
4824.5 192.714
4825.5 158.429
4826.5 187.429
4827.5 181.857
4828.5 158.857
4829.5 176.571
4830.5 207
4831.5 170.857
4832.5 148.143
4833.5 197.714
4834.5 152
4835.5 173.143
4836.5 139.429
4837.5 159.857
4838.5 151
4839.5 166.143
4840.5 168.143
4841.5 134.429
4842.5 169
4843.5 153.571
4844.5 155.286
4845.5 126.571
4846.5 152.429
4847.5 193.571
4848.5 163
4849.5 155.143
4850.5 155.143
4851.5 165.143
4852.5 159.857
4853.5 178.714
4854.5 167
4855.5 161
4856.5 147.286
4857.5 141
4858.5 166.286
4859.5 179.714
4860.5 139.143
4861.5 139.714
4862.5 168
4863.5 106.857
4864.5 146.714
4865.5 133.286
4866.5 155.286
4867.5 123.429
4868.5 177.286
4869.5 114.857
4870.5 170.857
4871.5 109.857
4872.5 160.571
4873.5 177.429
4874.5 145.429
4875.5 142
4876.5 151.143
4877.5 127.571
4878.5 118.571
4879.5 136.286
4880.5 160.857
4881.5 182.143
4882.5 141.143
4883.5 138.286
4884.5 147.286
4885.5 144.571
4886.5 157.143
4887.5 156.286
4888.5 142.571
4889.5 199.571
4890.5 136.286
4891.5 173.286
4892.5 136.143
4893.5 150.714
4894.5 144.571
4895.5 178.714
4896.5 173.857
4897.5 152
4898.5 151.857
4899.5 121.857
4900.5 142.714
4901.5 137
4902.5 131.143
4903.5 119.571
4904.5 139.286
4905.5 120.714
4906.5 103.714
4907.5 138.429
4908.5 132.571
4909.5 128.857
4910.5 117.143
4911.5 138.857
4912.5 161.143
4913.5 143.714
4914.5 113.714
4915.5 154.571
4916.5 165.286
4917.5 187
4918.5 125.857
4919.5 180.429
4920.5 173.714
4921.5 130
4922.5 150.857
4923.5 148.857
4924.5 141.429
4925.5 129.429
4926.5 164.571
4927.5 131.429
4928.5 127.714
4929.5 130.143
4930.5 131.857
4931.5 129.857
4932.5 146.857
4933.5 139.429
4934.5 142.857
4935.5 119.857
4936.5 159.286
4937.5 136.857
4938.5 131.857
4939.5 142
4940.5 162.143
4941.5 146.286
4942.5 162
4943.5 146.571
4944.5 131.143
4945.5 113.571
4946.5 169.571
4947.5 144.143
4948.5 161
4949.5 157.143
4950.5 136.571
4951.5 157.857
4952.5 147.429
4953.5 134.714
4954.5 109.143
4955.5 159.286
4956.5 163.286
4957.5 94.5714
4958.5 119.714
4959.5 134.714
4960.5 120.429
4961.5 151.571
4962.5 121.714
4963.5 131.857
4964.5 142.143
4965.5 119.571
4966.5 123.286
4967.5 118.143
4968.5 134.429
4969.5 142.714
4970.5 113.429
4971.5 146.571
4972.5 125.857
4973.5 139
4974.5 120.857
4975.5 153.429
4976.5 181.286
4977.5 97.1429
4978.5 135
4979.5 159.571
4980.5 120.714
4981.5 132.429
4982.5 159.143
4983.5 147.857
4984.5 162.429
4985.5 134
4986.5 140.286
4987.5 176.857
4988.5 128.714
4989.5 119
4990.5 171.429
4991.5 151.143
4992.5 172.714
4993.5 188.429
4994.5 202.143
4995.5 225.286
4996.5 362.429
4997.5 470.857
4998.5 741.286
4999.5 1073.57
5000.5 1624.57
5001.5 2333.57
5002.5 3058.86
5003.5 3382.86
5004.5 3161.57
5005.5 2408.43
5006.5 1491.57
5007.5 819.571
5008.5 460.429
5009.5 280.857
5010.5 231.571
5011.5 197.429
5012.5 183.143
5013.5 197.429
5014.5 187.429
5015.5 203.857
5016.5 166.143
5017.5 160.857
5018.5 170.286
5019.5 177.857
5020.5 130.429
5021.5 156.143
5022.5 128.143
5023.5 139.571
5024.5 190.429
5025.5 156.429
5026.5 158.286
5027.5 154.143
5028.5 176.286
5029.5 149.143
5030.5 143.857
5031.5 137.571
5032.5 149.714
5033.5 146.429
5034.5 122.143
5035.5 131.571
5036.5 127.857
5037.5 154
5038.5 82.5714
5039.5 153
5040.5 163.857
5041.5 163.429
5042.5 160.714
5043.5 142.429
5044.5 166.714
5045.5 159.143
5046.5 190.857
5047.5 188.857
5048.5 179.571
5049.5 175
5050.5 149
5051.5 156.143
5052.5 159
5053.5 189.857
5054.5 153.143
5055.5 147.571
5056.5 163.143
5057.5 147.571
5058.5 146.571
5059.5 161.571
5060.5 166.143
5061.5 157
5062.5 177
5063.5 184.571
5064.5 148.143
5065.5 169.571
5066.5 140.714
5067.5 171.714
5068.5 168.857
5069.5 178.714
5070.5 156.143
5071.5 145.571
5072.5 154.857
5073.5 166.143
5074.5 149.571
5075.5 160.429
5076.5 171.857
5077.5 150.571
5078.5 158.857
5079.5 171.429
5080.5 166.286
5081.5 179.429
5082.5 183
5083.5 163.571
5084.5 163.286
5085.5 161.143
5086.5 147.857
5087.5 161.714
5088.5 150.857
5089.5 194.286
5090.5 162
5091.5 182.286
5092.5 163.143
5093.5 163.143
5094.5 180
5095.5 186.714
5096.5 160.429
5097.5 159.714
5098.5 158.571
5099.5 183.571
5100.5 169.286
5101.5 146
5102.5 167.286
5103.5 177.714
5104.5 136.286
5105.5 144.571
5106.5 156.571
5107.5 186.286
5108.5 177.571
5109.5 148.286
5110.5 142.857
5111.5 173.714
5112.5 170.429
5113.5 159.714
5114.5 196.143
5115.5 137.857
5116.5 179.429
5117.5 198
5118.5 184.857
5119.5 175.286
5120.5 163.286
5121.5 179.857
5122.5 136.714
5123.5 153
5124.5 168.857
5125.5 158.286
5126.5 124.429
5127.5 174.857
5128.5 147.857
5129.5 179.714
5130.5 172.857
5131.5 176
5132.5 175.429
5133.5 193
5134.5 183.143
5135.5 219.286
5136.5 177.571
5137.5 201.286
5138.5 162.143
5139.5 157.857
5140.5 175
5141.5 144.286
5142.5 171
5143.5 201
5144.5 166.429
5145.5 129.143
5146.5 185.286
5147.5 194.286
5148.5 154.143
5149.5 167.429
5150.5 164.571
5151.5 167.286
5152.5 196.143
5153.5 160
5154.5 173.571
5155.5 151
5156.5 142
5157.5 194.286
5158.5 206.429
5159.5 195.857
5160.5 249.571
5161.5 298
5162.5 386.286
5163.5 494
5164.5 590.429
5165.5 719.286
5166.5 615.857
5167.5 470.429
5168.5 369.857
5169.5 261.429
5170.5 207.857
5171.5 176.429
5172.5 196.857
5173.5 206.857
5174.5 174.286
5175.5 188.714
5176.5 208.143
5177.5 233.429
5178.5 185.429
5179.5 199.571
5180.5 190.571
5181.5 181.857
5182.5 186.429
5183.5 176.857
5184.5 149.714
5185.5 197.714
5186.5 195
5187.5 166
5188.5 206.571
5189.5 205.714
5190.5 210.143
5191.5 191.571
5192.5 202.143
5193.5 146
5194.5 145.286
5195.5 170.143
5196.5 207.143
5197.5 136
5198.5 163.571
5199.5 214
5200.5 200.429
5201.5 224
5202.5 179.571
5203.5 169.571
5204.5 204.429
5205.5 198.714
5206.5 185.286
5207.5 173.429
5208.5 182.286
5209.5 177.714
5210.5 177.571
5211.5 153.429
5212.5 166.571
5213.5 168.571
5214.5 188
5215.5 196.714
5216.5 166
5217.5 190.143
5218.5 162.143
5219.5 183
5220.5 190.143
5221.5 213.286
5222.5 195.143
5223.5 178
5224.5 180.714
5225.5 205.143
5226.5 176.714
5227.5 228
5228.5 211.143
5229.5 194.857
5230.5 188.429
5231.5 214.857
5232.5 183.143
5233.5 187.286
5234.5 193.143
5235.5 223.143
5236.5 277.571
5237.5 218.143
5238.5 214.286
5239.5 199.857
5240.5 187.143
5241.5 193.429
5242.5 209.714
5243.5 185.429
5244.5 180.714
5245.5 220.571
5246.5 185.286
5247.5 209.714
5248.5 247.857
5249.5 190.286
5250.5 212.143
5251.5 215.714
5252.5 226.571
5253.5 207.714
5254.5 191.857
5255.5 208.857
5256.5 236
5257.5 245.429
5258.5 241.857
5259.5 235.857
5260.5 221.571
5261.5 217
5262.5 223.714
5263.5 234.143
5264.5 252.286
5265.5 201.714
5266.5 187.429
5267.5 212.429
5268.5 223.857
5269.5 224.571
5270.5 169.714
5271.5 220.429
5272.5 193
5273.5 209.429
5274.5 183.429
5275.5 189.857
5276.5 171.714
5277.5 164.286
5278.5 160.857
5279.5 203.143
5280.5 159.143
5281.5 196.143
5282.5 181.143
5283.5 183.286
5284.5 167
5285.5 149.429
5286.5 168
5287.5 180.143
5288.5 141.286
5289.5 176
5290.5 159.857
5291.5 157.571
5292.5 171.714
5293.5 169.286
5294.5 178.571
5295.5 161.429
5296.5 171.143
5297.5 176.571
5298.5 204.286
5299.5 127.286
5300.5 161.857
5301.5 179.286
5302.5 152
5303.5 177.429
5304.5 151.143
5305.5 179.429
5306.5 165
5307.5 155.143
5308.5 152.143
5309.5 155.143
5310.5 157.143
5311.5 143.286
5312.5 188.286
5313.5 173.429
5314.5 137.143
5315.5 172
5316.5 182.571
5317.5 170.714
5318.5 154.429
5319.5 177
5320.5 158.857
5321.5 168
5322.5 152.571
5323.5 171.429
5324.5 161.286
5325.5 164
5326.5 164.286
5327.5 154.714
5328.5 164.286
5329.5 154
5330.5 172.857
5331.5 137.286
5332.5 185.857
5333.5 153.714
5334.5 170.286
5335.5 202.143
5336.5 167
5337.5 175
5338.5 145.857
5339.5 169.571
5340.5 188.143
5341.5 140.857
5342.5 137.286
5343.5 150.286
5344.5 168.857
5345.5 148.714
5346.5 170.286
5347.5 133
5348.5 184.286
5349.5 149.286
5350.5 142.429
5351.5 151.429
5352.5 136.857
5353.5 154.857
5354.5 180.857
5355.5 163.286
5356.5 132.286
5357.5 137.429
5358.5 129.571
5359.5 155.286
5360.5 163.857
5361.5 123.286
5362.5 153.714
5363.5 132.571
5364.5 176.714
5365.5 157.857
5366.5 147.714
5367.5 103.857
5368.5 139
5369.5 137
5370.5 113
5371.5 136.857
5372.5 135.143
5373.5 111.571
5374.5 141.714
5375.5 123.143
5376.5 154.286
5377.5 117.714
5378.5 122.857
5379.5 105.429
5380.5 117.571
5381.5 112
5382.5 132.714
5383.5 117.571
5384.5 116.714
5385.5 121.571
5386.5 106.286
5387.5 93.7143
5388.5 96.4286
5389.5 140.714
5390.5 110.714
5391.5 105
5392.5 124.857
5393.5 155.286
5394.5 146.143
5395.5 119.143
5396.5 130.857
5397.5 140.429
5398.5 123.143
5399.5 133.143
5400.5 135.857
5401.5 121
5402.5 89.7143
5403.5 116
5404.5 110.286
5405.5 76.4286
5406.5 108.714
5407.5 94.5714
5408.5 107.571
5409.5 107.571
5410.5 108.857
5411.5 107.571
5412.5 109.143
5413.5 72.1429
5414.5 74.2857
5415.5 61.2857
5416.5 68.7143
5417.5 89.1429
5418.5 70.8571
5419.5 79.5714
5420.5 86.5714
5421.5 66
5422.5 97.8571
5423.5 57.8571
5424.5 73.7143
5425.5 58.2857
5426.5 46.8571
5427.5 67.5714
5428.5 81.2857
5429.5 58.1429
5430.5 56.2857
5431.5 65
5432.5 58.7143
5433.5 38.4286
5434.5 89.5714
5435.5 85.1429
5436.5 86.1429
5437.5 81.1429
5438.5 72.8571
5439.5 70.8571
5440.5 54
5441.5 77.1429
5442.5 71
5443.5 68.5714
5444.5 70.7143
5445.5 44
5446.5 86.1429
5447.5 63.1429
5448.5 60.1429
5449.5 54.5714
5450.5 62.2857
5451.5 59
5452.5 66
5453.5 49.7143
5454.5 56
5455.5 52.1429
5456.5 65
5457.5 63.7143
5458.5 44.1429
5459.5 54.8571
5460.5 41.8571
5461.5 75
5462.5 54.4286
5463.5 49.8571
5464.5 66
5465.5 56.4286
5466.5 51
5467.5 75.5714
5468.5 65.4286
5469.5 65.7143
5470.5 63.2857
5471.5 51.7143
5472.5 46
5473.5 88.7143
5474.5 61.5714
5475.5 55.7143
5476.5 66.5714
5477.5 72.4286
5478.5 60.1429
5479.5 42.2857
5480.5 60
5481.5 63.7143
5482.5 75.4286
5483.5 66.5714
5484.5 64.4286
5485.5 64.7143
5486.5 53.7143
5487.5 48.4286
5488.5 77.5714
5489.5 77.4286
5490.5 69.4286
5491.5 49.8571
5492.5 67.1429
5493.5 58.4286
5494.5 42.4286
5495.5 58.2857
5496.5 85
5497.5 60.2857
5498.5 73.1429
5499.5 67.7143
5500.5 73.7143
5501.5 66.1429
5502.5 75.7143
5503.5 91.4286
5504.5 104
5505.5 153.571
5506.5 244.429
5507.5 350.286
5508.5 706.571
5509.5 1242.14
5510.5 2202.86
5511.5 3341.71
5512.5 4985.86
5513.5 6999.29
5514.5 8765.86
5515.5 9099.43
5516.5 7439.86
5517.5 4716
5518.5 2291.43
5519.5 963
5520.5 423.143
5521.5 242.857
5522.5 169
5523.5 91.5714
5524.5 80
5525.5 43.1429
5526.5 48.8571
5527.5 38.4286
5528.5 53.8571
5529.5 24.4286
5530.5 14.7143
5531.5 -1.14286
5532.5 11.7143
5533.5 3.14286
5534.5 17.1429
5535.5 2.28571
5536.5 -6.14286
5537.5 5.28571
5538.5 12
5539.5 -5
5540.5 11.7143
5541.5 -5.42857
5542.5 -4.42857
5543.5 3.42857
5544.5 5.85714
5545.5 -8.71429
5546.5 -5.85714
5547.5 13
5548.5 3.85714
5549.5 20.8571
5550.5 4
5551.5 6.14286
5552.5 -6.57143
5553.5 15.8571
5554.5 4.85714
5555.5 16.1429
5556.5 1.14286
5557.5 24.2857
5558.5 15.1429
5559.5 6.28571
5560.5 -8.71429
5561.5 19.5714
5562.5 -3.85714
5563.5 5.57143
5564.5 9
5565.5 4
5566.5 -5.57143
5567.5 6.28571
5568.5 -0.571429
5569.5 -8
5570.5 6.57143
5571.5 4.71429
5572.5 17.2857
5573.5 0.142857
5574.5 15.7143
5575.5 22.4286
5576.5 10
5577.5 8.14286
5578.5 28.1429
5579.5 8
5580.5 20.1429
5581.5 19.1429
5582.5 45.1429
5583.5 9.28571
5584.5 18.5714
5585.5 29.8571
5586.5 14
5587.5 17.1429
5588.5 34
5589.5 9.42857
5590.5 10.7143
5591.5 35.8571
5592.5 24.7143
5593.5 27.7143
5594.5 40.4286
5595.5 15.4286
5596.5 20.7143
5597.5 5.14286
5598.5 37.8571
5599.5 18.4286
5600.5 -4.28572
5601.5 5.85714
5602.5 34.1429
5603.5 -0.428572
5604.5 -6
5605.5 7.42857
5606.5 8.85714
5607.5 5.28571
5608.5 8.42857
5609.5 30.7143
5610.5 4
5611.5 21.5714
5612.5 5.28571
5613.5 -4.57143
5614.5 37.4286
5615.5 11.8571
5616.5 12.1429
5617.5 7.42857
5618.5 2.42857
5619.5 -7.71429
5620.5 33.4286
5621.5 3.71429
5622.5 -5.42857
5623.5 17.5714
5624.5 30.5714
5625.5 20
5626.5 27.5714
5627.5 28.5714
5628.5 34.5714
5629.5 35.7143
5630.5 5.85714
5631.5 17.5714
5632.5 13.5714
5633.5 -2
5634.5 21.4286
5635.5 5.71429
5636.5 11
5637.5 -1.28571
5638.5 11.2857
5639.5 6.71429
5640.5 19.1429
5641.5 19.7143
5642.5 10.2857
5643.5 15.7143
5644.5 11.5714
5645.5 -2.71429
5646.5 21.2857
5647.5 1.85714
5648.5 18.2857
5649.5 -2.57143
5650.5 7.28571
5651.5 18.2857
5652.5 8
5653.5 2.42857
5654.5 2.71429
5655.5 3.85714
5656.5 -1.57143
5657.5 11.4286
5658.5 -0.571429
5659.5 -5.14286
5660.5 8.71429
5661.5 5.71429
5662.5 8.57143
5663.5 10.1429
5664.5 7.14286
5665.5 4
5666.5 -8.85714
5667.5 4.57143
5668.5 30.5714
5669.5 -15.4286
5670.5 7.57143
5671.5 18.2857
5672.5 11.8571
5673.5 -4.28571
5674.5 -4.85714
5675.5 -1.71429
5676.5 15.4286
5677.5 13.1429
5678.5 20
5679.5 8.71429
5680.5 -1
5681.5 6.85714
5682.5 11.1429
5683.5 33.1429
5684.5 40
5685.5 51.5714
5686.5 61.7143
5687.5 57.1429
5688.5 55.2857
5689.5 43.4286
5690.5 36.7143
5691.5 56.1429
5692.5 15.1429
5693.5 25.5714
5694.5 29.1429
5695.5 13.4286
5696.5 -12.2857
5697.5 11.8571
5698.5 7.71429
5699.5 -5.85714
5700.5 -8.57143
5701.5 15.1429
5702.5 -2.28571
5703.5 2.57143
5704.5 -8
5705.5 12.7143
5706.5 -0.571429
5707.5 0.571428
5708.5 1.14286
5709.5 6.28571
5710.5 13
5711.5 7.28571
5712.5 18.1429
5713.5 -2.14286
5714.5 10.4286
5715.5 11.7143
5716.5 19.7143
5717.5 4.28571
5718.5 -12.1429
5719.5 -9.14286
5720.5 -23.2857
5721.5 -32.8571
5722.5 -1.57143
5723.5 -6.71429
5724.5 -14
5725.5 -3.57143
5726.5 12.1429
5727.5 26.8571
5728.5 8.71429
5729.5 1.85714
5730.5 16.7143
5731.5 9
5732.5 16.4286
5733.5 22.7143
5734.5 -5.57143
5735.5 43.5714
5736.5 3.85714
5737.5 22.1429
5738.5 6.42857
5739.5 14.7143
5740.5 -0.714286
5741.5 20.4286
5742.5 -1.71429
5743.5 7
5744.5 -3.14286
5745.5 23.7143
5746.5 14.4286
5747.5 16.8571
5748.5 4.28571
5749.5 12
5750.5 7.28571
5751.5 2.57143
5752.5 -5.85714
5753.5 -3.28571
5754.5 -11.5714
5755.5 5
5756.5 3.57143
5757.5 -3.57143
5758.5 4.85714
5759.5 19.4286
5760.5 5.42857
5761.5 1
5762.5 21.1429
5763.5 6.28571
5764.5 8.85714
5765.5 4.57143
5766.5 1.42857
5767.5 2
5768.5 14
5769.5 11.2857
5770.5 -2
5771.5 -10.1429
5772.5 10.5714
5773.5 -4
5774.5 8.42857
5775.5 5.57143
5776.5 4.42857
5777.5 -2.85714
5778.5 11
5779.5 -1.71429
5780.5 4.57143
5781.5 9.28571
5782.5 19.5714
5783.5 -0.142858
5784.5 24
5785.5 11.8571
5786.5 17
5787.5 15
5788.5 10.4286
5789.5 10.2857
5790.5 -0.857143
5791.5 15.5714
5792.5 22.4286
5793.5 17.7143
5794.5 7.42857
5795.5 15.4286
5796.5 24.4286
5797.5 -6.57143
5798.5 0.714285
5799.5 2.85714
5800.5 7
5801.5 4
5802.5 11.4286
5803.5 -4.85714
5804.5 22.7143
5805.5 5.57143
5806.5 12.2857
5807.5 2.14286
5808.5 0.571428
5809.5 -0.571429
5810.5 6.57143
5811.5 0.714285
5812.5 -2.42857
5813.5 10.1429
5814.5 -11.7143
5815.5 19.5714
5816.5 4.28571
5817.5 1.14286
5818.5 5.85714
5819.5 1.85714
5820.5 8.14286
5821.5 17.8571
5822.5 -6.14286
5823.5 3
5824.5 -7.85714
5825.5 12.8571
5826.5 0.285714
5827.5 -5.42857
5828.5 10.1429
5829.5 2.14286
5830.5 25.8571
5831.5 2
5832.5 -4
5833.5 7
5834.5 -10.5714
5835.5 4.85714
5836.5 -12
5837.5 -6.57143
5838.5 -13.1429
5839.5 4.28571
5840.5 13.5714
5841.5 8.57143
5842.5 -8.14286
5843.5 -8.14286
5844.5 5.57143
5845.5 14.1429
5846.5 31.5714
5847.5 13.5714
5848.5 15.5714
5849.5 18.7143
5850.5 24.8571
5851.5 -3.85714
5852.5 4.57143
5853.5 14.7143
5854.5 3.42857
5855.5 8
5856.5 13
5857.5 7.85714
5858.5 2.28571
5859.5 8.28571
5860.5 11.4286
5861.5 10.1429
5862.5 10.1429
5863.5 1.14286
5864.5 6.85714
5865.5 3.85714
5866.5 -5.42857
5867.5 9.71429
5868.5 -1.71429
5869.5 5.42857
5870.5 6.28571
5871.5 5.57143
5872.5 7.71429
5873.5 4.28571
5874.5 5.57143
5875.5 -16.8571
5876.5 -2.85714
5877.5 0.857143
5878.5 2
5879.5 3.57143
5880.5 -8.57143
5881.5 9.28571
5882.5 5.57143
5883.5 7.57143
5884.5 -1.42857
5885.5 13.4286
5886.5 1.57143
5887.5 1.85714
5888.5 15.2857
5889.5 -7.14286
5890.5 24.8571
5891.5 -1
5892.5 9.85714
5893.5 8.85714
5894.5 14
5895.5 -10.2857
5896.5 8
5897.5 12.1429
5898.5 -7.42857
5899.5 -0.428575
5900.5 20
5901.5 70.1429
5902.5 -13.2857
5903.5 -7.85714
5904.5 -9.28572
5905.5 11.4286
5906.5 -0.428572
5907.5 -12.5714
5908.5 7.85714
5909.5 3.14286
5910.5 19.7143
5911.5 3.28571
5912.5 21
5913.5 8.57143
5914.5 2.71429
5915.5 7.14286
5916.5 19.2857
5917.5 40.2857
5918.5 39.7143
5919.5 48.8571
5920.5 27.2857
5921.5 52.1429
5922.5 34.5714
5923.5 13.8571
5924.5 21.7143
5925.5 15.4286
5926.5 1.85714
5927.5 -6.14286
5928.5 3.57143
5929.5 1.85714
5930.5 16.5714
5931.5 -1.71429
5932.5 -4.85714
5933.5 -2.57143
5934.5 10.4286
5935.5 -12.2857
5936.5 -6.14286
5937.5 3.57143
5938.5 7.57143
5939.5 7.42857
5940.5 7.42857
5941.5 -5.71429
5942.5 -0.428572
5943.5 4.14286
5944.5 2.85714
5945.5 6.71429
5946.5 4.71429
5947.5 -9.71429
5948.5 -0.428572
5949.5 4
5950.5 4
5951.5 3.71429
5952.5 10.7143
5953.5 -2.85714
5954.5 5.42857
5955.5 0.142857
5956.5 0.571428
5957.5 13.7143
5958.5 -2.85714
5959.5 9.14286
5960.5 -2.28571
5961.5 -10.1429
5962.5 10.4286
5963.5 -12.7143
5964.5 -5.28571
5965.5 25.4286
5966.5 5
5967.5 -11.2857
5968.5 10.4286
5969.5 3.85714
5970.5 -3.28571
5971.5 5.14286
5972.5 -6.14286
5973.5 2.57143
5974.5 -9.28571
5975.5 0.142857
5976.5 -0.857143
5977.5 -9
5978.5 8.28571
5979.5 17.2857
5980.5 9
5981.5 11.5714
5982.5 8.71429
5983.5 -1.14286
5984.5 1.71429
5985.5 -6.71429
5986.5 2.14286
5987.5 10.8571
5988.5 5.28571
5989.5 5.57143
5990.5 1.85714
5991.5 -2.57143
5992.5 21.7143
5993.5 4.28571
5994.5 6.71429
5995.5 25.2857
5996.5 14.5714
5997.5 19.2857
5998.5 10.1429
5999.5 14.5714
6000.5 -3.71429
6001.5 9.57143
6002.5 7.14286
6003.5 10.1429
6004.5 4.14286
6005.5 8.28571
6006.5 3.85714
6007.5 10.5714
6008.5 -17.5714
6009.5 4.14286
6010.5 8.71429
6011.5 2.57143
6012.5 -1.85714
6013.5 -4.28571
6014.5 -0.142857
6015.5 21.5714
6016.5 8.14286
6017.5 -11.8571
6018.5 5.71429
6019.5 11.7143
6020.5 8
6021.5 4.14286
6022.5 3
6023.5 -5.71429
6024.5 -5.28571
6025.5 2.71429
6026.5 2.85714
6027.5 -0.285715
6028.5 2.71429
6029.5 5.42857
6030.5 -14
6031.5 3
6032.5 13.1429
6033.5 15
6034.5 3
6035.5 23.4286
6036.5 -15.8571
6037.5 -5.71429
6038.5 7.14286
6039.5 3.14286
6040.5 7
6041.5 13
6042.5 -9.71429
6043.5 -2.14286
6044.5 12.2857
6045.5 0.285714
6046.5 8.42857
6047.5 21.2857
6048.5 -0.142857
6049.5 2.14286
6050.5 9.42857
6051.5 2.28571
6052.5 6.85714
6053.5 8.14286
6054.5 -0.285715
6055.5 0.142857
6056.5 -8.42857
6057.5 9.71429
6058.5 5.71429
6059.5 15.2857
6060.5 -2
6061.5 1.14286
6062.5 10
6063.5 4.28571
6064.5 9
6065.5 2.71429
6066.5 6
6067.5 16.1429
6068.5 5.57143
6069.5 1.14286
6070.5 2.57143
6071.5 -4.28571
6072.5 -10.1429
6073.5 -9.14286
6074.5 2.14286
6075.5 12.8571
6076.5 -4.57143
6077.5 -11.1429
6078.5 1.57143
6079.5 0.571428
6080.5 8
6081.5 -4.71429
6082.5 1.85714
6083.5 2
6084.5 -6
6085.5 -3.71429
6086.5 -4.28571
6087.5 3
6088.5 1.71429
6089.5 4
6090.5 6.14286
6091.5 22.4286
6092.5 13.4286
6093.5 8.28571
6094.5 22.2857
6095.5 21.7143
6096.5 37.7143
6097.5 51.2857
6098.5 63.8571
6099.5 45.7143
6100.5 45.8571
6101.5 42.8571
6102.5 56
6103.5 67
6104.5 66.1429
6105.5 31
6106.5 36.8571
6107.5 42
6108.5 21.4286
6109.5 38.7143
6110.5 19.5714
6111.5 3.85714
6112.5 18.5714
6113.5 5.28571
6114.5 29.2857
6115.5 -8.42857
6116.5 2.71429
6117.5 -6.71429
6118.5 0.571428
6119.5 -7
6120.5 -11.4286
6121.5 -3.85714
6122.5 5.28571
6123.5 7.42857
6124.5 -17.2857
6125.5 15.1429
6126.5 -5.14286
6127.5 24.4286
6128.5 1.57143
6129.5 5.42857
6130.5 3.14286
6131.5 -0.285715
6132.5 10.4286
6133.5 1.14286
6134.5 -2.85714
6135.5 -1.42857
6136.5 2.57143
6137.5 6.42857
6138.5 11.4286
6139.5 3.14286
6140.5 0.142857
6141.5 6.57143
6142.5 18.5714
6143.5 -2.28571
6144.5 -3.57143
6145.5 -0.571429
6146.5 9.71429
6147.5 9.57143
6148.5 -7.85714
6149.5 -15.8571
6150.5 6
6151.5 5.28571
6152.5 -7.14286
6153.5 -8
6154.5 -14.7143
6155.5 7.57143
6156.5 0.571428
6157.5 -3.57143
6158.5 -4.71429
6159.5 -5.71429
6160.5 -4.57143
6161.5 0.285714
6162.5 -1.57143
6163.5 0.285714
6164.5 8
6165.5 -11
6166.5 2
6167.5 9.28571
6168.5 13
6169.5 5.71429
6170.5 -5.85714
6171.5 1.14286
6172.5 -0.714286
6173.5 -1.71429
6174.5 6.42857
6175.5 0.714286
6176.5 -3.28571
6177.5 -4.14286
6178.5 3.85714
6179.5 5
6180.5 6
6181.5 -5.14286
6182.5 10.4286
6183.5 13.8571
6184.5 0.285714
6185.5 4
6186.5 4
6187.5 0.714285
6188.5 4.71429
6189.5 -5.28571
6190.5 -10.5714
6191.5 5.71429
6192.5 -2.71429
6193.5 0.571428
6194.5 7.14286
6195.5 1.14286
6196.5 8.57143
6197.5 -4.14286
6198.5 10.8571
6199.5 -4.57143
6200.5 10.4286
6201.5 3.42857
6202.5 1.28571
6203.5 -8
6204.5 2.57143
6205.5 0.571428
6206.5 -4.14286
6207.5 -7.57143
6208.5 15
6209.5 4.42857
6210.5 -2
6211.5 -6.71429
6212.5 1.14286
6213.5 1.42857
6214.5 -0.857143
6215.5 -2.57143
6216.5 -0.857143
6217.5 6
6218.5 1.85714
6219.5 3
6220.5 0.571428
6221.5 2.71429
6222.5 16.8571
6223.5 9.71429
6224.5 -7
6225.5 -6.57143
6226.5 2
6227.5 -7.57143
6228.5 2
6229.5 15.1429
6230.5 1.14286
6231.5 -8.85714
6232.5 -2.42857
6233.5 7.42857
6234.5 5.85714
6235.5 6.85714
6236.5 10.8571
6237.5 -0.428572
6238.5 -1.57143
6239.5 5
6240.5 3.57143
6241.5 14.7143
6242.5 5.85714
6243.5 3
6244.5 -0.428572
6245.5 1
6246.5 -1.42857
6247.5 5.28571
6248.5 -1.57143
6249.5 12.5714
6250.5 7.14286
6251.5 1.28571
6252.5 2.14286
6253.5 -8
6254.5 10.5714
6255.5 1.71429
6256.5 7.28571
6257.5 9.28571
6258.5 2.14286
6259.5 -2.14286
6260.5 7.28571
6261.5 -5.42857
6262.5 8
6263.5 17.5714
6264.5 -3.85714
6265.5 -3.71429
6266.5 -2
6267.5 1.85714
6268.5 1.14286
6269.5 -1.28571
6270.5 -0.142857
6271.5 -0.285715
6272.5 1.42857
6273.5 8.42857
6274.5 8.14286
6275.5 12.8571
6276.5 3
6277.5 2.42857
6278.5 8
6279.5 7.42857
6280.5 6.42857
6281.5 -1.85714
6282.5 3.28571
6283.5 -1.14286
6284.5 4.57143
6285.5 -4.57143
6286.5 12.2857
6287.5 1.28571
6288.5 -2.57143
6289.5 -4
6290.5 1.85714
6291.5 4.42857
6292.5 -6.42857
6293.5 7
6294.5 2.42857
6295.5 4.71429
6296.5 -7
6297.5 6
6298.5 1.14286
6299.5 2.14286
6300.5 -1.85714
6301.5 2.85714
6302.5 2.42857
6303.5 -7.57143
6304.5 1.57143
6305.5 -1.28571
6306.5 -4
6307.5 1.28571
6308.5 -3.14286
6309.5 0.714286
6310.5 -4.42857
6311.5 12.4286
6312.5 -2.71429
6313.5 -2.57143
6314.5 9.28571
6315.5 0.142857
6316.5 -0.571429
6317.5 3.42857
6318.5 0.428571
6319.5 0.571428
6320.5 1.71429
6321.5 16
6322.5 10.7143
6323.5 5.57143
6324.5 6.57143
6325.5 8.14286
6326.5 -1.71429
6327.5 11.1429
6328.5 11.7143
6329.5 -2.28571
6330.5 5.85714
6331.5 -3.71429
6332.5 9.42857
6333.5 18.5714
6334.5 -6.28571
6335.5 14.7143
6336.5 2.85714
6337.5 2.14286
6338.5 9.85714
6339.5 9.28571
6340.5 0.571428
6341.5 7.14286
6342.5 -4.14286
6343.5 11.1429
6344.5 -4.57143
6345.5 -6
6346.5 4.28571
6347.5 3.14286
6348.5 1.85714
6349.5 11
6350.5 1.28571
6351.5 2.28571
6352.5 1
6353.5 7.28571
6354.5 16.4286
6355.5 10.4286
6356.5 10
6357.5 12.4286
6358.5 31.4286
6359.5 6.28571
6360.5 5.42857
6361.5 9
6362.5 3.28571
6363.5 10.8571
6364.5 5
6365.5 11
6366.5 -8.85714
6367.5 4.71429
6368.5 2.28571
6369.5 -3.85714
6370.5 9.28571
6371.5 1.42857
6372.5 -0.142857
6373.5 4.85714
6374.5 0.714286
6375.5 2.42857
6376.5 -1
6377.5 11.2857
6378.5 6.57143
6379.5 -5.28571
6380.5 2.14286
6381.5 -0.857143
6382.5 3.85714
6383.5 -1.19209e-07
6384.5 2.71429
6385.5 -1.42857
6386.5 1
6387.5 -0.571429
6388.5 -4.71429
6389.5 5.85714
6390.5 -3.14286
6391.5 4.57143
6392.5 -4.28571
6393.5 -1.85714
6394.5 4.14286
6395.5 8.71429
6396.5 -4.28571
6397.5 -0.857143
6398.5 12.8571
6399.5 2.85714
6400.5 -3.14286
6401.5 4.42857
6402.5 0.714286
6403.5 2.85714
6404.5 4.71429
6405.5 8.71429
6406.5 7.28571
6407.5 7.57143
6408.5 3.71429
6409.5 7.28571
6410.5 3.42857
6411.5 3.42857
6412.5 -0.857143
6413.5 -1
6414.5 -3.42857
6415.5 3.14286
6416.5 2
6417.5 -12.2857
6418.5 -3.71429
6419.5 -7.28572
6420.5 -26.4286
6421.5 -11.4286
6422.5 -21
6423.5 -5.42857
6424.5 3.57143
6425.5 -6.28571
6426.5 6.28571
6427.5 3.85714
6428.5 15
6429.5 10.7143
6430.5 -1.42857
6431.5 2.85714
6432.5 7.28571
6433.5 6
6434.5 -2.57143
6435.5 -7.57143
6436.5 2.85714
6437.5 -11.1429
6438.5 0.857143
6439.5 -19.2857
6440.5 -0.428572
6441.5 -2
6442.5 -0.714286
6443.5 -2
6444.5 3.42857
6445.5 6.14286
6446.5 9
6447.5 -1.28571
6448.5 1.85714
6449.5 4.42857
6450.5 -8.85714
6451.5 -4
6452.5 2
6453.5 5
6454.5 6.57143
6455.5 -2.57143
6456.5 3.57143
6457.5 4.57143
6458.5 0.285714
6459.5 -1.71429
6460.5 2
6461.5 2.85714
6462.5 -0.285714
6463.5 1.28571
6464.5 4.57143
6465.5 4
6466.5 4.71429
6467.5 -1.71429
6468.5 4.57143
6469.5 1.57143
6470.5 0.714286
6471.5 -4
6472.5 3
6473.5 3.42857
6474.5 8.85714
6475.5 16.8571
6476.5 5.85714
6477.5 -3.57143
6478.5 -11.2857
6479.5 16.7143
6480.5 2.42857
6481.5 38.1429
6482.5 -10.4286
6483.5 9
6484.5 14.4286
6485.5 8.85714
6486.5 -1.19209e-07
6487.5 -0.428572
6488.5 -2.14286
6489.5 0.571428
6490.5 -0.857143
6491.5 1.57143
6492.5 6.14286
6493.5 -3.57143
6494.5 2
6495.5 -5.57143
6496.5 2.71429
6497.5 -0.571429
6498.5 8.57143
6499.5 3.42857
6500.5 10.1429
6501.5 -3
6502.5 -6.14286
6503.5 -0.571429
6504.5 4.85714
6505.5 -1.42857
6506.5 1.57143
6507.5 -3
6508.5 9.57143
6509.5 5.71429
6510.5 -6
6511.5 2.42857
6512.5 0.285714
6513.5 -5.57143
6514.5 -2.71429
6515.5 -1.14286
6516.5 -4.85714
6517.5 7
6518.5 8
6519.5 4.28571
6520.5 2.28571
6521.5 1.85714
6522.5 -3.28571
6523.5 1.42857
6524.5 3.85714
6525.5 0.714286
6526.5 -9.14286
6527.5 3.28571
6528.5 7.71429
6529.5 -2.85714
6530.5 4.57143
6531.5 2.71429
6532.5 -6
6533.5 -1.42857
6534.5 -3.14286
6535.5 2.14286
6536.5 2
6537.5 3.28571
6538.5 -6.42857
6539.5 -2.57143
6540.5 3.28571
6541.5 -4.71429
6542.5 -1
6543.5 -6
6544.5 11.8571
6545.5 -8
6546.5 -5.14286
6547.5 5.14286
6548.5 24.7143
6549.5 -2.57143
6550.5 -0.714286
6551.5 2.71429
6552.5 6.42857
6553.5 0.714286
6554.5 10
6555.5 5.85714
6556.5 4.14286
6557.5 6.42857
6558.5 5.57143
6559.5 4.85714
6560.5 -2.42857
6561.5 4.28571
6562.5 3.71429
6563.5 12
6564.5 -1.71429
6565.5 5.14286
6566.5 -10
6567.5 1.28571
6568.5 7.28571
6569.5 4.28571
6570.5 1.71429
6571.5 -0.142857
6572.5 -1.19209e-07
6573.5 -3
6574.5 1.85714
6575.5 -0.428572
6576.5 3.42857
6577.5 -4.42857
6578.5 -3.57143
6579.5 -0.285714
6580.5 -0.428572
6581.5 -0.285714
6582.5 -2.42857
6583.5 4.71429
6584.5 5.14286
6585.5 5.71429
6586.5 -0.571429
6587.5 2.85714
6588.5 0.285714
6589.5 1.57143
6590.5 7.57143
6591.5 -0.285714
6592.5 3.28571
6593.5 8.57143
6594.5 4.14286
6595.5 -0.428572
6596.5 -9.71429
6597.5 -1.14286
6598.5 2.14286
6599.5 1.28571
6600.5 -1.14286
6601.5 5.28571
6602.5 6.57143
6603.5 22.8571
6604.5 14.2857
6605.5 14
6606.5 10.7143
6607.5 27.1429
6608.5 16.5714
6609.5 25
6610.5 18.1429
6611.5 23
6612.5 19.2857
6613.5 15.7143
6614.5 6.85714
6615.5 6.71429
6616.5 7.42857
6617.5 19.8571
6618.5 8.57143
6619.5 10.2857
6620.5 11.1429
6621.5 8.42857
6622.5 3.71429
6623.5 -3.57143
6624.5 -1.42857
6625.5 3.57143
6626.5 5.71429
6627.5 0.428571
6628.5 -4.57143
6629.5 3.57143
6630.5 3.57143
6631.5 2.14286
6632.5 9.57143
6633.5 -3.57143
6634.5 -6.28571
6635.5 2.71429
6636.5 -1.85714
6637.5 2.57143
6638.5 6.14286
6639.5 0.571428
6640.5 1.42857
6641.5 0.428571
6642.5 2
6643.5 6.42857
6644.5 5.14286
6645.5 4.14286
6646.5 9.42857
6647.5 3.14286
6648.5 1.14286
6649.5 1
6650.5 1.71429
6651.5 -5.28571
6652.5 5.71429
6653.5 8.57143
6654.5 -1
6655.5 -5.96046e-08
6656.5 -1.14286
6657.5 -3.42857
6658.5 -9.71429
6659.5 6.57143
6660.5 0.428571
6661.5 1
6662.5 3.28571
6663.5 -5.28571
6664.5 -0.714286
6665.5 4.85714
6666.5 7.57143
6667.5 5.14286
6668.5 3.85714
6669.5 1.71429
6670.5 1.14286
6671.5 1.42857
6672.5 6.14286
6673.5 1.85714
6674.5 2.28571
6675.5 -0.571429
6676.5 1.14286
6677.5 1.42857
6678.5 5.14286
6679.5 -1.57143
6680.5 9.71429
6681.5 7
6682.5 6.85714
6683.5 6.14286
6684.5 2
6685.5 -0.428572
6686.5 1.85714
6687.5 10.1429
6688.5 3.42857
6689.5 1
6690.5 7
6691.5 -0.285714
6692.5 4.85714
6693.5 4.71429
6694.5 -6.57143
6695.5 4
6696.5 2.14286
6697.5 -3.71429
6698.5 1.14286
6699.5 -5.14286
6700.5 -11.4286
6701.5 -1.19209e-07
6702.5 6
6703.5 2.85714
6704.5 5.42857
6705.5 -4.85714
6706.5 3.57143
6707.5 -3.42857
6708.5 7.28571
6709.5 0.428571
6710.5 0.714286
6711.5 4.85714
6712.5 0.857143
6713.5 -3.85714
6714.5 1.28571
6715.5 4
6716.5 2.85714
6717.5 7.57143
6718.5 -3.71429
6719.5 -1.42857
6720.5 -2.85714
6721.5 3.57143
6722.5 5.28571
6723.5 -9.85714
6724.5 2.85714
6725.5 -0.428572
6726.5 2.28571
6727.5 -5.96046e-08
6728.5 5.28571
6729.5 -1.42857
6730.5 -7
6731.5 6.42857
6732.5 -5.96046e-08
6733.5 7.57143
6734.5 1.57143
6735.5 6.14286
6736.5 -4.28571
6737.5 7.42857
6738.5 -1.71429
6739.5 6.57143
6740.5 -6.28571
6741.5 5.14286
6742.5 5.57143
6743.5 6.42857
6744.5 10.4286
6745.5 -0.428572
6746.5 6.71429
6747.5 10
6748.5 4.57143
6749.5 5.42857
6750.5 2.71429
6751.5 -0.571429
6752.5 -4.42857
6753.5 -2.71429
6754.5 -9
6755.5 4.14286
6756.5 5.85714
6757.5 1.42857
6758.5 -2.28571
6759.5 4.14286
6760.5 3.28571
6761.5 6
6762.5 6.57143
6763.5 -1
6764.5 5.28571
6765.5 9.14286
6766.5 14.5714
6767.5 -1.57143
6768.5 4.85714
6769.5 5.42857
6770.5 1
6771.5 2
6772.5 13.5714
6773.5 -12.5714
6774.5 11.8571
6775.5 -0.571429
6776.5 7.71429
6777.5 1
6778.5 6
6779.5 -0.571429
6780.5 2
6781.5 3.28571
6782.5 1.42857
6783.5 4
6784.5 6.14286
6785.5 2
6786.5 -1.19209e-07
6787.5 9.14286
6788.5 2.28571
6789.5 -7.28571
6790.5 7.57143
6791.5 -2.85714
6792.5 4.85714
6793.5 -2
6794.5 -0.714286
6795.5 -1.85714
6796.5 8.85714
6797.5 2.71429
6798.5 4
6799.5 -7.71429
6800.5 6.85714
6801.5 1.85714
6802.5 1.14286
6803.5 6
6804.5 2.85714
6805.5 4.28571
6806.5 -1.42857
6807.5 10.7143
6808.5 1.71429
6809.5 -1.57143
6810.5 5.71429
6811.5 -0.428572
6812.5 3
6813.5 1
6814.5 -2.85714
6815.5 -1.71429
6816.5 2
6817.5 4.28571
6818.5 4
6819.5 -5.57143
6820.5 0.285714
6821.5 -8.28571
6822.5 6.71429
6823.5 3.14286
6824.5 0.142857
6825.5 0.571429
6826.5 2.14286
6827.5 5.85714
6828.5 -2.57143
6829.5 -1.71429
6830.5 5.57143
6831.5 2.71429
6832.5 6.14286
6833.5 -2
6834.5 0.857143
6835.5 0.571428
6836.5 2.14286
6837.5 5.85714
6838.5 6.14286
6839.5 2.42857
6840.5 -6
6841.5 -3.71429
6842.5 6.57143
6843.5 13.2857
6844.5 -1.42857
6845.5 12.7143
6846.5 2.57143
6847.5 0.285714
6848.5 10.1429
6849.5 0.714286
6850.5 3.71429
6851.5 4.85714
6852.5 1.42857
6853.5 1.42857
6854.5 -1.85714
6855.5 3
6856.5 -0.857143
6857.5 2.14286
6858.5 6.85714
6859.5 3
6860.5 1.57143
6861.5 6.57143
6862.5 2.14286
6863.5 -3.57143
6864.5 2.85714
6865.5 4.85714
6866.5 4.85714
6867.5 -2.42857
6868.5 0.285714
6869.5 6.28571
6870.5 1.28571
6871.5 5.57143
6872.5 5.71429
6873.5 7.57143
6874.5 -1.71429
6875.5 5
6876.5 0.857143
6877.5 10.4286
6878.5 2.85714
6879.5 -5.28571
6880.5 -5.96046e-08
6881.5 -1.19209e-07
6882.5 3
6883.5 4.85714
6884.5 1.71429
6885.5 -5.71429
6886.5 -3.42857
6887.5 2
6888.5 7.57143
6889.5 2.85714
6890.5 -3.14286
6891.5 4
6892.5 2.57143
6893.5 6
6894.5 3.71429
6895.5 0.857143
6896.5 3.57143
6897.5 -5.96046e-08
6898.5 -4.14286
6899.5 -2.42857
6900.5 4.85714
6901.5 0.857143
6902.5 0.571428
6903.5 -1.57143
6904.5 0.285714
6905.5 2.28571
6906.5 -1.71429
6907.5 -2.14286
6908.5 -1
6909.5 -1.14286
6910.5 -0.142857
6911.5 1.28571
6912.5 4.14286
6913.5 -4.57143
6914.5 0.857143
6915.5 2
6916.5 -5.96046e-08
6917.5 -0.714286
6918.5 7.71429
6919.5 1.57143
6920.5 3.28571
6921.5 4.14286
6922.5 4.57143
6923.5 2
6924.5 -1.71429
6925.5 -3.71429
6926.5 -1.71429
6927.5 4.85714
6928.5 5.71429
6929.5 -2.71429
6930.5 2.57143
6931.5 1.57143
6932.5 -4.85714
6933.5 -0.142857
6934.5 7.71429
6935.5 4.14286
6936.5 -3.71429
6937.5 -6.57143
6938.5 -1.19209e-07
6939.5 3.71429
6940.5 -1.28571
6941.5 -4.42857
6942.5 2.85714
6943.5 5.42857
6944.5 4
6945.5 -1.85714
6946.5 5.57143
6947.5 3
6948.5 1
6949.5 0.857143
6950.5 5.57143
6951.5 4.85714
6952.5 2.85714
6953.5 -6.28571
6954.5 -0.571429
6955.5 6.57143
6956.5 3
6957.5 -0.857143
6958.5 3.71429
6959.5 0.142857
6960.5 -1.71429
6961.5 -3.57143
6962.5 4.71429
6963.5 5
6964.5 3.57143
6965.5 2.71429
6966.5 6.28571
6967.5 -0.142857
6968.5 7.42857
6969.5 3.28571
6970.5 -2.71429
6971.5 5.28571
6972.5 1.85714
6973.5 -1
6974.5 0.571428
6975.5 0.142857
6976.5 5.71429
6977.5 -2.85714
6978.5 -3.57143
6979.5 2
6980.5 7.42857
6981.5 4.85714
6982.5 5.71429
6983.5 -0.428572
6984.5 6
6985.5 -5.96046e-08
6986.5 -5.96046e-08
6987.5 3
6988.5 -5.96046e-08
6989.5 2.85714
6990.5 6.14286
6991.5 3.71429
6992.5 0.285714
6993.5 8.57143
6994.5 6.28571
6995.5 1.71429
6996.5 4.71429
6997.5 -4.14286
6998.5 -1
6999.5 3
7000.5 5.57143
7001.5 6.14286
7002.5 1.28571
7003.5 1.28571
7004.5 3.71429
7005.5 5.57143
7006.5 -5.96046e-08
7007.5 7.42857
7008.5 5.57143
7009.5 2.14286
7010.5 1.28571
7011.5 -2.71429
7012.5 -0.285714
7013.5 -7.28571
7014.5 -4.28571
7015.5 -0.142857
7016.5 1.14286
7017.5 7.28571
7018.5 -3
7019.5 1.85714
7020.5 -1.42857
7021.5 2.71429
7022.5 -2.57143
7023.5 -3.57143
7024.5 1.14286
7025.5 3.71429
7026.5 5.57143
7027.5 7.28571
7028.5 -3
7029.5 2
7030.5 -1.14286
7031.5 -1.19209e-07
7032.5 -2
7033.5 1
7034.5 0.428571
7035.5 0.142857
7036.5 -2.28571
7037.5 -1.28571
7038.5 -0.857143
7039.5 -3.28571
7040.5 4.14286
7041.5 0.857143
7042.5 1.71429
7043.5 4.28571
7044.5 1.28571
7045.5 -2
7046.5 -2.14286
7047.5 0.142857
7048.5 -1.85714
7049.5 1
7050.5 5.28571
7051.5 8.57143
7052.5 0.714286
7053.5 4.85714
7054.5 -3.85714
7055.5 -5.71429
7056.5 -2.28571
7057.5 2.71429
7058.5 0.285714
7059.5 2.71429
7060.5 2
7061.5 0.142857
7062.5 -1
7063.5 3.28571
7064.5 -6.28571
7065.5 4.28571
7066.5 2.28571
7067.5 12.2857
7068.5 5
7069.5 0.714286
7070.5 0.714286
7071.5 -1
7072.5 -0.714286
7073.5 4.28571
7074.5 0.857143
7075.5 4.71429
7076.5 -5.96046e-08
7077.5 1.14286
7078.5 0.142857
7079.5 2.71429
7080.5 -0.714286
7081.5 1.71429
7082.5 3.57143
7083.5 0.285714
7084.5 4.57143
7085.5 4.71429
7086.5 3
7087.5 3.28571
7088.5 -0.714286
7089.5 -1.14286
7090.5 4
7091.5 -2.28571
7092.5 -4.57143
7093.5 -2.57143
7094.5 1.14286
7095.5 -1.28571
7096.5 3.14286
7097.5 -0.428572
7098.5 0.857143
7099.5 -5.42857
7100.5 1.14286
7101.5 -0.285714
7102.5 -0.857143
7103.5 -2.57143
7104.5 2.42857
7105.5 3
7106.5 2.57143
7107.5 3
7108.5 1.28571
7109.5 -0.285714
7110.5 4.14286
7111.5 7.28571
7112.5 10.5714
7113.5 4.71429
7114.5 13.7143
7115.5 5
7116.5 25.5714
7117.5 34.1429
7118.5 33.1429
7119.5 35.5714
7120.5 29.1429
7121.5 46.8571
7122.5 32.7143
7123.5 26.8571
7124.5 6.14286
7125.5 7.42857
7126.5 8
7127.5 3
7128.5 0.428571
7129.5 2.71429
7130.5 2.14286
7131.5 -1.85714
7132.5 3
7133.5 4
7134.5 4.71429
7135.5 -4.14286
7136.5 5.71429
7137.5 6
7138.5 1
7139.5 -3.28571
7140.5 -0.285714
7141.5 -1
7142.5 -2.28571
7143.5 -2.85714
7144.5 -2.71429
7145.5 -1.57143
7146.5 1.71429
7147.5 -2.57143
7148.5 -3
7149.5 2.57143
7150.5 -2
7151.5 1.14286
7152.5 -2.14286
7153.5 4.28571
7154.5 1.85714
7155.5 -0.285714
7156.5 -1.42857
7157.5 -5.96046e-08
7158.5 -1.28571
7159.5 -1.28571
7160.5 2.71429
7161.5 4.28571
7162.5 1
7163.5 0.571429
7164.5 -3
7165.5 0.428571
7166.5 5.42857
7167.5 -1.71429
7168.5 -2
7169.5 2.71429
7170.5 4.71429
7171.5 1
7172.5 -3.14286
7173.5 8.57143
7174.5 0.142857
7175.5 -1.42857
7176.5 2.85714
7177.5 -1.14286
7178.5 -0.142857
7179.5 0.571429
7180.5 3.57143
7181.5 -3.85714
7182.5 -1
7183.5 0.428571
7184.5 1.42857
7185.5 -4
7186.5 -1.42857
7187.5 -2.28571
7188.5 -1.28571
7189.5 -5.71429
7190.5 -2.85714
7191.5 -1.14286
7192.5 -0.142857
7193.5 4
7194.5 6.85714
7195.5 0.857143
7196.5 -0.142857
7197.5 1
7198.5 0.142857
7199.5 -4.42857
7200.5 -0.142857
7201.5 -1.57143
7202.5 -5.85714
7203.5 9.28571
7204.5 5.28571
7205.5 3.71429
7206.5 -0.142857
7207.5 7.28571
7208.5 16.2857
7209.5 -3.42857
7210.5 -7.85714
7211.5 4
7212.5 8.71429
7213.5 -0.571429
7214.5 3.14286
7215.5 0.857143
7216.5 2.42857
7217.5 -5.42857
7218.5 1.28571
7219.5 -7.85714
7220.5 -4.42857
7221.5 2.57143
7222.5 5.57143
7223.5 -0.857143
7224.5 5
7225.5 -2.14286
7226.5 3.57143
7227.5 6.57143
7228.5 2.28571
7229.5 -1.85714
7230.5 -3.14286
7231.5 -0.428571
7232.5 2.57143
7233.5 -0.428571
7234.5 1.14286
7235.5 -0.428571
7236.5 2.42857
7237.5 0.714286
7238.5 7.57143
7239.5 -0.142857
7240.5 -5.96046e-08
7241.5 -0.571429
7242.5 -1
7243.5 4.42857
7244.5 -2
7245.5 2.42857
7246.5 5
7247.5 -1.14286
7248.5 0.428571
7249.5 -3.28571
7250.5 -1.85714
7251.5 3.71429
7252.5 2.14286
7253.5 1
7254.5 1.14286
7255.5 -1.85714
7256.5 1.71429
7257.5 -0.142857
7258.5 -4.57143
7259.5 2.42857
7260.5 -5.28571
7261.5 -3.57143
7262.5 2.85714
7263.5 1.28571
7264.5 -1.42857
7265.5 -4.14286
7266.5 11.2857
7267.5 -0.142857
7268.5 -3.85714
7269.5 5.57143
7270.5 4.85714
7271.5 0.857143
7272.5 2.28571
7273.5 -0.142857
7274.5 3.42857
7275.5 4.57143
7276.5 2.28571
7277.5 5.57143
7278.5 -1
7279.5 2.28571
7280.5 -5.96046e-08
7281.5 -2.85714
7282.5 -1.28571
7283.5 0.571429
7284.5 0.142857
7285.5 3.85714
7286.5 -2.14286
7287.5 2.71429
7288.5 -1.42857
7289.5 1.42857
7290.5 4.42857
7291.5 2.57143
7292.5 -1.42857
7293.5 -1.42857
7294.5 -0.428571
7295.5 3.57143
7296.5 -1.42857
7297.5 6
7298.5 4.57143
7299.5 -0.714286
7300.5 -2.85714
7301.5 3.71429
7302.5 -5.96046e-08
7303.5 2.28571
7304.5 -4.42857
7305.5 6.28571
7306.5 2.57143
7307.5 2.57143
7308.5 0.857143
7309.5 -0.857143
7310.5 -1.71429
7311.5 0.428571
7312.5 -3.71429
7313.5 5.28571
7314.5 3.42857
7315.5 4.85714
7316.5 -2.42857
7317.5 -1.19209e-07
7318.5 -12.7143
7319.5 -1
7320.5 7.28571
7321.5 1.28571
7322.5 2.14286
7323.5 1.71429
7324.5 -0.428571
7325.5 2.14286
7326.5 -3
7327.5 3.57143
7328.5 4.42857
7329.5 -0.142857
7330.5 1.71429
7331.5 1.57143
7332.5 0.428571
7333.5 5.42857
7334.5 -0.428571
7335.5 0.714286
7336.5 5.28571
7337.5 3.71429
7338.5 -0.571429
7339.5 -0.428571
7340.5 -3.28571
7341.5 2.28571
7342.5 -1.28571
7343.5 -0.285714
7344.5 6.28571
7345.5 -0.285714
7346.5 5.42857
7347.5 1
7348.5 -3
7349.5 -3.28571
7350.5 -3.71429
7351.5 0.142857
7352.5 4.85714
7353.5 -13.8571
7354.5 7.71429
7355.5 4.42857
7356.5 6
7357.5 -6
7358.5 4.42857
7359.5 3
7360.5 -2.14286
7361.5 0.714286
7362.5 1.42857
7363.5 -5.96046e-08
7364.5 0.857143
7365.5 -1.14286
7366.5 3.14286
7367.5 -0.285714
7368.5 2.85714
7369.5 0.428571
7370.5 1
7371.5 0.428571
7372.5 2.71429
7373.5 -6.71429
7374.5 0.714286
7375.5 -3.85714
7376.5 -3.14286
7377.5 -2.14286
7378.5 6.14286
7379.5 2.28571
7380.5 0.428571
7381.5 0.428571
7382.5 -3.28571
7383.5 -0.428571
7384.5 -0.571429
7385.5 -3
7386.5 2.57143
7387.5 -1.57143
7388.5 -1.57143
7389.5 1.28571
7390.5 2.42857
7391.5 1.28571
7392.5 0.571429
7393.5 2.28571
7394.5 2.14286
7395.5 -3
7396.5 -0.428571
7397.5 -2.28571
7398.5 -3.14286
7399.5 -1.14286
7400.5 1.28571
7401.5 1.85714
7402.5 1.14286
7403.5 4.57143
7404.5 -5.14286
7405.5 4.28571
7406.5 -1.14286
7407.5 -0.571429
7408.5 -2.42857
7409.5 7.14286
7410.5 2.14286
7411.5 -0.857143
7412.5 3.85714
7413.5 7.42857
7414.5 1.57143
7415.5 8.42857
7416.5 1
7417.5 -3.57143
7418.5 5.57143
7419.5 10.5714
7420.5 1.28571
7421.5 2.28571
7422.5 0.714286
7423.5 0.571429
7424.5 -0.571429
7425.5 1.57143
7426.5 3.14286
7427.5 -1.14286
7428.5 2.57143
7429.5 1.57143
7430.5 0.857143
7431.5 -0.714286
7432.5 0.428571
7433.5 2.71429
7434.5 0.428571
7435.5 -1.42857
7436.5 -2.42857
7437.5 -0.285714
7438.5 -0.571429
7439.5 -0.285714
7440.5 -5.96046e-08
7441.5 -0.285714
7442.5 2.28571
7443.5 -2.14286
7444.5 -2.14286
7445.5 3.14286
7446.5 4.42857
7447.5 -0.142857
7448.5 -1.42857
7449.5 -1
7450.5 -1.85714
7451.5 3
7452.5 -2.71429
7453.5 -0.142857
7454.5 0.857143
7455.5 -1.28571
7456.5 -2
7457.5 -2.28571
7458.5 6.42857
7459.5 2.57143
7460.5 -0.428571
7461.5 -4.71429
7462.5 3.71429
7463.5 0.857143
7464.5 4.14286
7465.5 5.28571
7466.5 5.14286
7467.5 1.57143
7468.5 -0.571429
7469.5 0.857143
7470.5 -5
7471.5 -0.428571
7472.5 -3.28571
7473.5 -5.57143
7474.5 -2.42857
7475.5 1.28571
7476.5 -0.857143
7477.5 -4
7478.5 -1.28571
7479.5 -0.428571
7480.5 -3.28571
7481.5 7
7482.5 -0.285714
7483.5 3.42857
7484.5 -3.42857
7485.5 4.28571
7486.5 -1.57143
7487.5 1.28571
7488.5 1.42857
7489.5 -1.57143
7490.5 -1.28571
7491.5 2.28571
7492.5 -1.71429
7493.5 1.28571
7494.5 -5.71429
7495.5 0.857143
7496.5 0.428571
7497.5 -3.85714
7498.5 2.42857
7499.5 0.142857
7500.5 -0.285714
7501.5 7.28571
7502.5 -1.14286
7503.5 -1.28571
7504.5 -2
7505.5 -2.57143
7506.5 -0.428571
7507.5 -2.85714
7508.5 3.28571
7509.5 1.57143
7510.5 -1.57143
7511.5 -1.14286
7512.5 -0.571429
7513.5 0.571429
7514.5 3.42857
7515.5 -2.28571
7516.5 2.14286
7517.5 -0.428571
7518.5 0.571429
7519.5 1.14286
7520.5 4.28571
7521.5 1.71429
7522.5 0.714286
7523.5 -1.42857
7524.5 2.57143
7525.5 3.14286
7526.5 0.857143
7527.5 -3.14286
7528.5 2.14286
7529.5 -8.28571
7530.5 2.42857
7531.5 -0.428571
7532.5 -2.71429
7533.5 -3.14286
7534.5 -3.14286
7535.5 -1.57143
7536.5 -3.71429
7537.5 -6.71429
7538.5 3.42857
7539.5 -0.285714
7540.5 0.857143
7541.5 1.71429
7542.5 3.14286
7543.5 -0.142857
7544.5 2.28571
7545.5 -1.57143
7546.5 2.57143
7547.5 2.14286
7548.5 2.57143
7549.5 -2.42857
7550.5 -0.571429
7551.5 2.14286
7552.5 -0.571429
7553.5 -1.28571
7554.5 1.42857
7555.5 -0.428571
7556.5 -3.28571
7557.5 -0.428571
7558.5 1.42857
7559.5 -4.85714
7560.5 -1.28571
7561.5 -1.57143
7562.5 -4.14286
7563.5 1.57143
7564.5 -0.571429
7565.5 -0.142857
7566.5 -3
7567.5 3.14286
7568.5 3.57143
7569.5 -3.57143
7570.5 4.71429
7571.5 -0.285714
7572.5 3.14286
7573.5 -1.42857
7574.5 -2.85714
7575.5 -3.28571
7576.5 3.85714
7577.5 -0.428572
7578.5 0.857143
7579.5 -5.96046e-08
7580.5 4.57143
7581.5 -0.285714
7582.5 0.285714
7583.5 0.714286
7584.5 -5.14286
7585.5 -2.57143
7586.5 0.428571
7587.5 -2.14286
7588.5 2.71429
7589.5 4.42857
7590.5 -1.57143
7591.5 5.14286
7592.5 6.14286
7593.5 -0.571429
7594.5 2.14286
7595.5 2.42857
7596.5 2.14286
7597.5 -3.42857
7598.5 0
7599.5 -1.42857
7600.5 -4
7601.5 -0.285714
7602.5 2
7603.5 4
7604.5 4.42857
7605.5 -0.428571
7606.5 1.42857
7607.5 1.42857
7608.5 2.42857
7609.5 2.28571
7610.5 -2.57143
7611.5 -1.14286
7612.5 -1.42857
7613.5 -3.28571
7614.5 3
7615.5 2.57143
7616.5 3
7617.5 3
7618.5 2.28571
7619.5 -0.428571
7620.5 -0.428571
7621.5 2.28571
7622.5 2.14286
7623.5 1.71429
7624.5 3.42857
7625.5 0.428571
7626.5 -0.571429
7627.5 0.428571
7628.5 2.85714
7629.5 -0.428571
7630.5 -3
7631.5 0.571429
7632.5 -1.42857
7633.5 -1.42857
7634.5 1.42857
7635.5 -5.85714
7636.5 1.42857
7637.5 -3.28571
7638.5 2.57143
7639.5 -1.57143
7640.5 -1.14286
7641.5 2
7642.5 -0.428571
7643.5 3.42857
7644.5 -1.57143
7645.5 1.28571
7646.5 -1.14286
7647.5 -4
7648.5 2.14286
7649.5 -1.14286
7650.5 -5.96046e-08
7651.5 3.14286
7652.5 1.57143
7653.5 2.42857
7654.5 1
7655.5 -1.57143
7656.5 1.28571
7657.5 -1.42857
7658.5 -3.42857
7659.5 -3.14286
7660.5 -4.14286
7661.5 1.28571
7662.5 -0.714286
7663.5 0.571429
7664.5 -1.57143
7665.5 0.142857
7666.5 3.42857
7667.5 2.28571
7668.5 3.28571
7669.5 1.28571
7670.5 -0.571429
7671.5 -3.28571
7672.5 1.57143
7673.5 -4.14286
7674.5 -0.428571
7675.5 0.285714
7676.5 3.14286
7677.5 -1.14286
7678.5 -2.42857
7679.5 -1.42857
7680.5 -0.428571
7681.5 -1.42857
7682.5 -1.71429
7683.5 -0.428571
7684.5 1.28571
7685.5 0.285714
7686.5 0.428571
7687.5 -2.42857
7688.5 4.14286
7689.5 0.285714
7690.5 0.428571
7691.5 -2.14286
7692.5 -0.285714
7693.5 1.14286
7694.5 -0.428571
7695.5 3
7696.5 2
7697.5 -0.714286
7698.5 2.14286
7699.5 0.285714
7700.5 -0.714286
7701.5 1
7702.5 1.28571
7703.5 -0.571429
7704.5 -0.714286
7705.5 -3.14286
7706.5 -0.571429
7707.5 -2.85714
7708.5 2.57143
7709.5 -1.14286
7710.5 -4.14286
7711.5 -4
7712.5 -1.71429
7713.5 2.14286
7714.5 -0.714286
7715.5 2.14286
7716.5 1.14286
7717.5 1.42857
7718.5 1.28571
7719.5 6.42857
7720.5 2.28571
7721.5 -0.857143
7722.5 -2.14286
7723.5 0.142857
7724.5 2.57143
7725.5 0.714286
7726.5 1.28571
7727.5 2.42857
7728.5 1.28571
7729.5 0.142857
7730.5 2.42857
7731.5 0.428571
7732.5 2.42857
7733.5 3.42857
7734.5 5.42857
7735.5 5.42857
7736.5 2.28571
7737.5 1.14286
7738.5 4.14286
7739.5 2.28571
7740.5 -0.285714
7741.5 0.142857
7742.5 -0.571429
7743.5 1.28571
7744.5 -1.57143
7745.5 2.28571
7746.5 3
7747.5 -0.571429
7748.5 -2.57143
7749.5 -0.714286
7750.5 -2.28571
7751.5 -0.714286
7752.5 0.285714
7753.5 5
7754.5 3.14286
7755.5 1.14286
7756.5 0.285714
7757.5 -1.57143
7758.5 -2.28571
7759.5 0.142857
7760.5 0.571429
7761.5 0.142857
7762.5 -3.42857
7763.5 -1.71429
7764.5 -1.57143
7765.5 -3.57143
7766.5 3.28571
7767.5 -2.42857
7768.5 0.428571
7769.5 4.85714
7770.5 -3.14286
7771.5 2.71429
7772.5 -5.57143
7773.5 -2.71429
7774.5 -4
7775.5 5.57143
7776.5 13.1429
7777.5 10.1429
7778.5 -0.857143
7779.5 -0.285714
7780.5 3.28571
7781.5 3.14286
7782.5 3.28571
7783.5 2.28571
7784.5 -1.42857
7785.5 6.14286
7786.5 -2.28571
7787.5 0.142857
7788.5 4.14286
7789.5 1.71429
7790.5 0.142857
7791.5 -1.71429
7792.5 2
7793.5 6
7794.5 -0.571429
7795.5 0.285714
7796.5 1.57143
7797.5 -1.42857
7798.5 3.14286
7799.5 2.28571
7800.5 -0.857143
7801.5 0.428571
7802.5 1.14286
7803.5 0.285714
7804.5 -1.57143
7805.5 2.14286
7806.5 1
7807.5 -1.71429
7808.5 -2.57143
7809.5 0.142857
7810.5 0.142857
7811.5 -3.28571
7812.5 0.285714
7813.5 0.714286
7814.5 0.571429
7815.5 -3.28571
7816.5 -1.14286
7817.5 0.714286
7818.5 1.57143
7819.5 -2.28571
7820.5 -1
7821.5 -2.57143
7822.5 2.14286
7823.5 8.14286
7824.5 -1.14286
7825.5 1
7826.5 3.85714
7827.5 11
7828.5 10
7829.5 3.14286
7830.5 2.42857
7831.5 -3.28571
7832.5 7.85714
7833.5 1.14286
7834.5 -3.14286
7835.5 1.28571
7836.5 0.142857
7837.5 -0.571429
7838.5 -4.14286
7839.5 -0.714286
7840.5 -0.714286
7841.5 1.14286
7842.5 -3.42857
7843.5 1.14286
7844.5 0.142857
7845.5 -0.571429
7846.5 0
7847.5 -0.714286
7848.5 -1.71429
7849.5 1
7850.5 1
7851.5 2.14286
7852.5 1.14286
7853.5 -1.71429
7854.5 2
7855.5 -1.71429
7856.5 -0.714286
7857.5 -2.57143
7858.5 0
7859.5 -1.71429
7860.5 -0.857143
7861.5 -0.857143
7862.5 1.42857
7863.5 -2.57143
7864.5 1
7865.5 -0.857143
7866.5 0
7867.5 -3.28571
7868.5 -2.42857
7869.5 0.142857
7870.5 0.571429
7871.5 0.142857
7872.5 0.285714
7873.5 -0.714286
7874.5 -0.571429
7875.5 0.285714
7876.5 1.14286
7877.5 -4.28571
7878.5 3
7879.5 -2.28571
7880.5 -1.42857
7881.5 0.571429
7882.5 4
7883.5 0.142857
7884.5 -6
7885.5 1.14286
7886.5 0.285714
7887.5 1.28571
7888.5 -0.571429
7889.5 1
7890.5 2
7891.5 3
7892.5 -1.71429
7893.5 -1.71429
7894.5 3
7895.5 0
7896.5 -1.42857
7897.5 0.142857
7898.5 1.14286
7899.5 1.14286
7900.5 2
7901.5 -0.714286
7902.5 1
7903.5 -1.71429
7904.5 -2.57143
7905.5 1.28571
7906.5 1.14286
7907.5 2.14286
7908.5 -1.71429
7909.5 1
7910.5 0.285714
7911.5 0.142857
7912.5 -1.57143
7913.5 4
7914.5 1
7915.5 1
7916.5 -0.714286
7917.5 3.14286
7918.5 1
7919.5 -0.571429
7920.5 -0.571429
7921.5 -1.71429
7922.5 -0.857143
7923.5 0.142857
7924.5 0
7925.5 -0.714286
7926.5 -2.42857
7927.5 1.14286
7928.5 0.142857
7929.5 -1.71429
7930.5 0.285714
7931.5 0.142857
7932.5 1
7933.5 2.14286
7934.5 -0.857143
7935.5 -2.57143
7936.5 -0.571429
7937.5 0.142857
7938.5 1
7939.5 0.142857
7940.5 3
7941.5 -1.71429
7942.5 2.14286
7943.5 -0.857143
7944.5 1.14286
7945.5 1
7946.5 1
7947.5 1.28571
7948.5 0.142857
7949.5 -1.71429
7950.5 1.14286
7951.5 -1.57143
7952.5 -2.57143
7953.5 3.14286
7954.5 0.285714
7955.5 1.28571
7956.5 0.285714
7957.5 0.428571
7958.5 1.28571
7959.5 0.285714
7960.5 1.14286
7961.5 1
7962.5 0.285714
7963.5 1
7964.5 4.14286
7965.5 -4.28571
7966.5 1
7967.5 0.142857
7968.5 0.142857
7969.5 -0.857143
7970.5 -1.71429
7971.5 2.14286
7972.5 -1.71429
7973.5 1.14286
7974.5 2
7975.5 0.142857
7976.5 3.14286
7977.5 -0.857143
7978.5 2.14286
7979.5 0.714286
7980.5 1.14286
7981.5 0.142857
7982.5 3
7983.5 0.142857
7984.5 -2.57143
7985.5 -2.57143
7986.5 -5.85714
7987.5 0.571429
7988.5 -4.85714
7989.5 -1.42857
7990.5 -3.28571
7991.5 0.285714
7992.5 1.28571
7993.5 -0.428571
7994.5 -0.714286
7995.5 -2.57143
7996.5 0.142857
7997.5 1.28571
7998.5 0.142857
7999.5 -1.71429
8000.5 -2.57143
8001.5 -2.42857
8002.5 -1.71429
8003.5 4
8004.5 -1.71429
8005.5 -1.42857
8006.5 0.285714
8007.5 1.28571
8008.5 -0.714286
8009.5 1
8010.5 1.14286
8011.5 1.14286
8012.5 3
8013.5 -0.857143
8014.5 0
8015.5 1
8016.5 0.142857
8017.5 1.14286
8018.5 0.428571
8019.5 1
8020.5 1
8021.5 1
8022.5 2
8023.5 -0.714286
8024.5 1.14286
8025.5 0.428571
8026.5 -0.857143
8027.5 2
8028.5 -0.571429
8029.5 1.14286
8030.5 1
8031.5 -0.857143
8032.5 -0.857143
8033.5 -2.57143
8034.5 -0.857143
8035.5 0.285714
8036.5 -1.71429
8037.5 -0.714286
8038.5 0.285714
8039.5 2.14286
8040.5 1
8041.5 1
8042.5 -0.571429
8043.5 2
8044.5 -0.857143
8045.5 -0.857143
8046.5 0.142857
8047.5 -1.57143
8048.5 2
8049.5 2
8050.5 0.142857
8051.5 0
8052.5 0
8053.5 1.14286
8054.5 0
8055.5 -1.57143
8056.5 1
8057.5 0
8058.5 1
8059.5 0
8060.5 0
8061.5 1
8062.5 1
8063.5 3
8064.5 1
8065.5 1.14286
8066.5 1
8067.5 0
8068.5 2.14286
8069.5 0.142857
8070.5 -1.71429
8071.5 0.285714
8072.5 3
8073.5 -0.857143
8074.5 1
8075.5 -0.571429
8076.5 1
8077.5 1.71429
8078.5 0.285714
8079.5 7
8080.5 -2.14286
8081.5 -2.14286
8082.5 3.57143
8083.5 -4.71429
8084.5 2.85714
8085.5 0.285714
8086.5 4
8087.5 -4.57143
8088.5 3.71429
8089.5 3.14286
8090.5 -5.96046e-08
8091.5 -2.28571
8092.5 4
8093.5 -0.857143
8094.5 0
8095.5 3
8096.5 -0.714286
8097.5 4
8098.5 0.142857
8099.5 1
8100.5 1.14286
8101.5 -0.857143
8102.5 -2.42857
8103.5 1.14286
8104.5 -2.57143
8105.5 0
8106.5 0
8107.5 1
8108.5 0.142857
8109.5 0.285714
8110.5 -0.857143
8111.5 -0.857143
8112.5 -2.57143
8113.5 -1.71429
8114.5 1
8115.5 -0.857143
8116.5 2
8117.5 -3.42857
8118.5 -0.714286
8119.5 0.142857
8120.5 0.142857
8121.5 -0.857143
8122.5 1.14286
8123.5 -0.857143
8124.5 0
8125.5 1
8126.5 1
8127.5 -0.714286
8128.5 1
8129.5 -1.71429
8130.5 0.142857
8131.5 0
8132.5 1
8133.5 4
8134.5 -0.857143
8135.5 -1.57143
8136.5 -1.71429
8137.5 0
8138.5 2
8139.5 -0.857143
8140.5 0.142857
8141.5 1
8142.5 1.14286
8143.5 1
8144.5 -0.857143
8145.5 0
8146.5 1
8147.5 1
8148.5 -0.857143
8149.5 -1.71429
8150.5 0
8151.5 -0.857143
8152.5 -0.857143
8153.5 0.142857
8154.5 2
8155.5 0.142857
8156.5 -0.857143
8157.5 0
8158.5 1
8159.5 0.142857
8160.5 -0.857143
8161.5 -0.714286
8162.5 0.142857
8163.5 0.142857
8164.5 0.285714
8165.5 2.14286
8166.5 2
8167.5 0.142857
8168.5 1
8169.5 -1.71429
8170.5 -0.857143
8171.5 -1.71429
8172.5 0
8173.5 0.142857
8174.5 2
8175.5 0.142857
8176.5 0
8177.5 0
8178.5 0.142857
8179.5 0.142857
8180.5 -0.857143
8181.5 -0.714286
8182.5 -0.714286
8183.5 0
8184.5 0
8185.5 -0.857143
8186.5 -0.857143
8187.5 1
8188.5 1
8189.5 0.142857
8190.5 0
8191.5 1.14286
8192.5 0
8193.5 -0.857143
8194.5 0
8195.5 -0.857143
8196.5 1.14286
8197.5 0
8198.5 0.285714
8199.5 0.285714
8200.5 1
8201.5 0
8202.5 -1.71429
8203.5 1
8204.5 -0.857143
8205.5 -0.857143
8206.5 -1.71429
8207.5 2
8208.5 -0.857143
8209.5 -0.714286
8210.5 -0.857143
8211.5 1
8212.5 0
8213.5 0.142857
8214.5 -1.71429
8215.5 3.14286
8216.5 0.142857
8217.5 0
8218.5 -0.857143
8219.5 0
8220.5 -1.71429
8221.5 2
8222.5 -0.714286
8223.5 -0.714286
8224.5 1
8225.5 -1.57143
8226.5 -0.857143
8227.5 1.14286
8228.5 1.14286
8229.5 1
8230.5 0
8231.5 0
8232.5 1.14286
8233.5 -0.857143
8234.5 1
8235.5 2
8236.5 1
8237.5 0
8238.5 0
8239.5 1
8240.5 0.285714
8241.5 2
8242.5 1.14286
8243.5 3
8244.5 4
8245.5 2.28571
8246.5 4
8247.5 11
8248.5 2.14286
8249.5 1.28571
8250.5 2
8251.5 2
8252.5 1
8253.5 0
8254.5 -0.857143
8255.5 0.142857
8256.5 0.142857
8257.5 1.14286
8258.5 1.14286
8259.5 -0.571429
8260.5 0.285714
8261.5 3
8262.5 -0.857143
8263.5 0.142857
8264.5 1
8265.5 -0.857143
8266.5 1
8267.5 -0.857143
8268.5 0.142857
8269.5 0
8270.5 1
8271.5 -0.714286
8272.5 0
8273.5 -0.857143
8274.5 1.14286
8275.5 2.14286
8276.5 1.14286
8277.5 -1.71429
8278.5 0.142857
8279.5 -1.42857
8280.5 0
8281.5 0
8282.5 0
8283.5 0
8284.5 -0.714286
8285.5 -0.857143
8286.5 0.142857
8287.5 0
8288.5 1
8289.5 -0.857143
8290.5 1
8291.5 1
8292.5 0
8293.5 1
8294.5 1
8295.5 1
8296.5 0
8297.5 -1.71429
8298.5 1
8299.5 0.142857
8300.5 0
8301.5 0.142857
8302.5 1.14286
8303.5 -1.71429
8304.5 0
8305.5 -0.857143
8306.5 0
8307.5 -2.57143
8308.5 -1.71429
8309.5 1
8310.5 -1.57143
8311.5 0
8312.5 1
8313.5 -0.714286
8314.5 0
8315.5 0
8316.5 1
8317.5 0.142857
8318.5 -0.857143
8319.5 -0.857143
8320.5 0.142857
8321.5 -2.57143
8322.5 0
8323.5 0
8324.5 0
8325.5 -0.857143
8326.5 0
8327.5 1
8328.5 0.142857
8329.5 3
8330.5 -0.857143
8331.5 0.142857
8332.5 0
8333.5 0
8334.5 0
8335.5 1
8336.5 -0.857143
8337.5 0.142857
8338.5 0.142857
8339.5 -1.71429
8340.5 -0.857143
8341.5 -0.857143
8342.5 0
8343.5 1
8344.5 0.142857
8345.5 -1.71429
8346.5 -0.714286
8347.5 -0.857143
8348.5 0
8349.5 0
8350.5 -0.857143
8351.5 -1.71429
8352.5 0
8353.5 0
8354.5 -0.857143
8355.5 -1.71429
8356.5 -1.71429
8357.5 -0.857143
8358.5 0
8359.5 -0.857143
8360.5 -3.28571
8361.5 2
8362.5 0
8363.5 0
8364.5 1
8365.5 0
8366.5 1
8367.5 0
8368.5 -0.857143
8369.5 -0.857143
8370.5 0.142857
8371.5 -0.714286
8372.5 0
8373.5 0
8374.5 1
8375.5 0
8376.5 0.142857
8377.5 0.142857
8378.5 1
8379.5 -0.714286
8380.5 0
8381.5 1
8382.5 0
8383.5 0
8384.5 -0.857143
8385.5 1
8386.5 0.142857
8387.5 0
8388.5 -0.857143
8389.5 1
8390.5 0
8391.5 0
8392.5 -0.857143
8393.5 1
8394.5 -0.857143
8395.5 0
8396.5 0
8397.5 1
8398.5 0
8399.5 -0.857143
8400.5 -0.857143
8401.5 -0.857143
8402.5 0
8403.5 0
8404.5 0
8405.5 2
8406.5 -0.857143
8407.5 1
8408.5 2
8409.5 0.142857
8410.5 0.142857
8411.5 0
8412.5 0
8413.5 1
8414.5 0
8415.5 2
8416.5 0
8417.5 0.142857
8418.5 0
8419.5 0.142857
8420.5 0
8421.5 -0.857143
8422.5 -0.857143
8423.5 0
8424.5 0
8425.5 0
8426.5 1
8427.5 -2.57143
8428.5 0
8429.5 0
8430.5 -0.857143
8431.5 -0.857143
8432.5 -0.857143
8433.5 0
8434.5 1
8435.5 1
8436.5 0
8437.5 0
8438.5 0
8439.5 1
8440.5 0
8441.5 -0.857143
8442.5 -2.57143
8443.5 0
8444.5 -1.71429
8445.5 2
8446.5 -0.857143
8447.5 -0.857143
8448.5 0
8449.5 1
8450.5 0
8451.5 0
8452.5 1
8453.5 -0.857143
8454.5 0
8455.5 0
8456.5 2
8457.5 0.142857
8458.5 0
8459.5 0
8460.5 0
8461.5 2
8462.5 0.142857
8463.5 0
8464.5 0.142857
8465.5 -0.857143
8466.5 -0.857143
8467.5 1
8468.5 0.142857
8469.5 1
8470.5 2
8471.5 -1.71429
8472.5 -0.714286
8473.5 1
8474.5 1
8475.5 -0.714286
8476.5 1.14286
8477.5 0.142857
8478.5 0
8479.5 0
8480.5 0
8481.5 -0.857143
8482.5 0
8483.5 -0.857143
8484.5 1
8485.5 -0.857143
8486.5 1.14286
8487.5 -0.857143
8488.5 -0.714286
8489.5 0
8490.5 0
8491.5 -1.71429
8492.5 0
8493.5 -0.857143
8494.5 -0.857143
8495.5 -0.857143
8496.5 -4.28571
8497.5 -0.857143
8498.5 -1.71429
8499.5 -3.42857
8500.5 -2.57143
8501.5 -6
8502.5 -1.71429
8503.5 0
8504.5 -0.857143
8505.5 0.142857
8506.5 -1.71429
8507.5 2
8508.5 -1.71429
8509.5 0
8510.5 2
8511.5 0
8512.5 0.142857
8513.5 1
8514.5 0.142857
8515.5 0
8516.5 -1.71429
8517.5 0
8518.5 0
8519.5 1
8520.5 0
8521.5 1
8522.5 0
8523.5 0
8524.5 1
8525.5 -0.857143
8526.5 0
8527.5 -1.71429
8528.5 0
8529.5 0
8530.5 -0.857143
8531.5 0
8532.5 -0.857143
8533.5 -1.57143
8534.5 1
8535.5 1
8536.5 0
8537.5 -0.857143
8538.5 0.142857
8539.5 1
8540.5 0
8541.5 0
8542.5 0.142857
8543.5 -0.857143
8544.5 0
8545.5 0
8546.5 1
8547.5 -1.71429
8548.5 -0.857143
8549.5 0.142857
8550.5 0
8551.5 1
8552.5 0
8553.5 0
8554.5 0
8555.5 0
8556.5 1
8557.5 -1.71429
8558.5 0.142857
8559.5 1.14286
8560.5 0
8561.5 0
8562.5 1
8563.5 2
8564.5 0
8565.5 0
8566.5 3
8567.5 0
8568.5 1
8569.5 1
8570.5 0
8571.5 1
8572.5 0
8573.5 1
8574.5 0
8575.5 1
8576.5 0
8577.5 0
8578.5 1
8579.5 0
8580.5 0.142857
8581.5 0
8582.5 0.142857
8583.5 0.142857
8584.5 -0.857143
8585.5 0
8586.5 0
8587.5 0
8588.5 0.142857
8589.5 1
8590.5 0
8591.5 0
8592.5 -0.857143
8593.5 -1.71429
8594.5 0
8595.5 -0.857143
8596.5 -0.857143
8597.5 0.142857
8598.5 1
8599.5 0
8600.5 0
8601.5 1
8602.5 0
8603.5 0
8604.5 1
8605.5 -1.71429
8606.5 -0.857143
8607.5 2
8608.5 -0.857143
8609.5 1
8610.5 0
8611.5 0
8612.5 -0.857143
8613.5 0
8614.5 0
8615.5 1
8616.5 -0.857143
8617.5 -0.857143
8618.5 0
8619.5 0
8620.5 0
8621.5 0
8622.5 0
8623.5 0
8624.5 1
8625.5 0
8626.5 -1.71429
8627.5 0
8628.5 1
8629.5 0
8630.5 0
8631.5 1
8632.5 0
8633.5 1
8634.5 0
8635.5 0
8636.5 0.142857
8637.5 -0.714286
8638.5 0
8639.5 0
8640.5 1
8641.5 1
8642.5 0
8643.5 0
8644.5 0
8645.5 0
8646.5 1
8647.5 0
8648.5 0.142857
8649.5 0
8650.5 -2.57143
8651.5 0
8652.5 0
8653.5 2
8654.5 0
8655.5 0
8656.5 -0.857143
8657.5 1
8658.5 0
8659.5 -0.857143
8660.5 0.142857
8661.5 0
8662.5 0
8663.5 0
8664.5 0
8665.5 1
8666.5 0
8667.5 0
8668.5 -0.857143
8669.5 0
8670.5 -0.857143
8671.5 0
8672.5 1
8673.5 1
8674.5 -0.857143
8675.5 0
8676.5 0.142857
8677.5 0
8678.5 -0.857143
8679.5 0
8680.5 0
8681.5 -0.857143
8682.5 0
8683.5 0
8684.5 0
8685.5 0
8686.5 0
8687.5 -0.857143
8688.5 -0.857143
8689.5 -0.857143
8690.5 0
8691.5 -1.71429
8692.5 0
8693.5 -0.857143
8694.5 2
8695.5 2
8696.5 0
8697.5 2
8698.5 1
8699.5 0
8700.5 -0.857143
8701.5 0
8702.5 0
8703.5 0
8704.5 1
8705.5 0
8706.5 0
8707.5 0
8708.5 0
8709.5 0
8710.5 0
8711.5 0
8712.5 1
8713.5 0
8714.5 0
8715.5 1
8716.5 -0.857143
8717.5 1
8718.5 0
8719.5 0
8720.5 0
8721.5 -0.857143
8722.5 0
8723.5 1
8724.5 0
8725.5 0
8726.5 1
8727.5 0
8728.5 -0.857143
8729.5 0
8730.5 -0.857143
8731.5 1
8732.5 -0.857143
8733.5 1
8734.5 1
8735.5 0
8736.5 -0.857143
8737.5 0.142857
8738.5 0
8739.5 1
8740.5 1
8741.5 0
8742.5 1
8743.5 1
8744.5 0
8745.5 2
8746.5 0
8747.5 0
8748.5 0
8749.5 0
8750.5 0
8751.5 0
8752.5 1
8753.5 1
8754.5 0
8755.5 1
8756.5 -0.857143
8757.5 0
8758.5 0
8759.5 1
8760.5 1
8761.5 0.142857
8762.5 0
8763.5 1
8764.5 0
8765.5 0
8766.5 0
8767.5 -0.857143
8768.5 0.142857
8769.5 1
8770.5 0
8771.5 0
8772.5 0
8773.5 0
8774.5 0
8775.5 0
8776.5 0
8777.5 1
8778.5 -0.857143
8779.5 -0.857143
8780.5 -0.857143
8781.5 -0.857143
8782.5 0
8783.5 0.142857
8784.5 0
8785.5 0
8786.5 0
8787.5 -0.857143
8788.5 -0.857143
8789.5 0
8790.5 -0.857143
8791.5 0
8792.5 0
8793.5 0
8794.5 0
8795.5 3
8796.5 1
8797.5 -0.857143
8798.5 -0.857143
8799.5 0
8800.5 0
8801.5 0
8802.5 0
8803.5 -0.714286
8804.5 0
8805.5 0
8806.5 0
8807.5 0
8808.5 -0.857143
8809.5 0
8810.5 -0.857143
8811.5 0
8812.5 0
8813.5 -0.857143
8814.5 1
8815.5 2
8816.5 0
8817.5 -0.857143
8818.5 2
8819.5 1
8820.5 -0.857143
8821.5 0
8822.5 1
8823.5 -0.857143
8824.5 -0.857143
8825.5 0
8826.5 0
8827.5 2
8828.5 0
8829.5 0
8830.5 0
8831.5 -0.857143
8832.5 -0.857143
8833.5 -0.857143
8834.5 1
8835.5 0
8836.5 1
8837.5 -2.57143
8838.5 -0.857143
8839.5 0
8840.5 0
8841.5 1
8842.5 2
8843.5 1
8844.5 0
8845.5 1
8846.5 -0.714286
8847.5 -0.714286
8848.5 1
8849.5 -1.71429
8850.5 2
8851.5 0
8852.5 0
8853.5 0
8854.5 0
8855.5 0
8856.5 -0.857143
8857.5 0
8858.5 0
8859.5 0
8860.5 -0.857143
8861.5 0
8862.5 1
8863.5 0
8864.5 -0.857143
8865.5 0
8866.5 0
8867.5 0
8868.5 0
8869.5 -0.857143
8870.5 0
8871.5 0
8872.5 0
8873.5 0
8874.5 0
8875.5 0
8876.5 0
8877.5 0
8878.5 0
8879.5 1
8880.5 0
8881.5 0
8882.5 1
8883.5 -1.71429
8884.5 1
8885.5 -0.857143
8886.5 -0.857143
8887.5 0
8888.5 0
8889.5 2
8890.5 -0.857143
8891.5 -0.857143
8892.5 1
8893.5 0
8894.5 0.142857
8895.5 0
8896.5 0
8897.5 0
8898.5 -0.857143
8899.5 1.14286
8900.5 2
8901.5 0
8902.5 0
8903.5 -0.857143
8904.5 1
8905.5 1
8906.5 -0.857143
8907.5 0
8908.5 0
8909.5 0
8910.5 0.142857
8911.5 0
8912.5 1
8913.5 0
8914.5 0
8915.5 0
8916.5 -0.857143
8917.5 0
8918.5 0
8919.5 0
8920.5 0
8921.5 0
8922.5 1
8923.5 0
8924.5 0
8925.5 0
8926.5 0
8927.5 0.142857
8928.5 0
8929.5 -0.857143
8930.5 -0.857143
8931.5 0
8932.5 -1.71429
8933.5 -0.857143
8934.5 0
8935.5 0
8936.5 0
8937.5 0
8938.5 -0.857143
8939.5 2
8940.5 0
8941.5 2
8942.5 -0.857143
8943.5 0
8944.5 0
8945.5 0
8946.5 2
8947.5 0
8948.5 2
8949.5 0
8950.5 -0.857143
8951.5 0
8952.5 0
8953.5 0
8954.5 0.142857
8955.5 -0.857143
8956.5 -0.857143
8957.5 -0.857143
8958.5 0
8959.5 -0.857143
8960.5 0
8961.5 0
8962.5 -0.857143
8963.5 -0.857143
8964.5 -1.71429
8965.5 1.14286
8966.5 -0.857143
8967.5 0
8968.5 -0.857143
8969.5 -1.71429
8970.5 -0.857143
8971.5 1
8972.5 0
8973.5 0
8974.5 0
8975.5 0
8976.5 2
8977.5 0
8978.5 0
8979.5 0
8980.5 1
8981.5 -0.857143
8982.5 0.142857
8983.5 0
8984.5 0
8985.5 0
8986.5 0
8987.5 0
8988.5 2
8989.5 -0.857143
8990.5 0
8991.5 0
8992.5 2
8993.5 -0.857143
8994.5 1
8995.5 0
8996.5 0
8997.5 1
8998.5 0
8999.5 1
9000.5 1
9001.5 1
9002.5 -0.714286
9003.5 0.142857
9004.5 0.142857
9005.5 0
9006.5 1
9007.5 1
9008.5 1
9009.5 -0.857143
9010.5 0
9011.5 0
9012.5 1
9013.5 0
9014.5 1
9015.5 -0.857143
9016.5 -0.857143
9017.5 0
9018.5 0
9019.5 0
9020.5 0
9021.5 0
9022.5 -0.857143
9023.5 0
9024.5 0
9025.5 0
9026.5 0
9027.5 0
9028.5 1
9029.5 0
9030.5 1
9031.5 1
9032.5 0
9033.5 0
9034.5 -1.71429
9035.5 0
9036.5 0
9037.5 0
9038.5 0
9039.5 0.142857
9040.5 0
9041.5 2
9042.5 0
9043.5 2
9044.5 0
9045.5 -1.71429
9046.5 0
9047.5 1
9048.5 -0.857143
9049.5 0
9050.5 0
9051.5 0
9052.5 1
9053.5 0
9054.5 0
9055.5 0
9056.5 0
9057.5 1.14286
9058.5 0
9059.5 1
9060.5 1
9061.5 0
9062.5 0
9063.5 1
9064.5 0
9065.5 0
9066.5 1
9067.5 0
9068.5 0
9069.5 0
9070.5 0
9071.5 0
9072.5 -0.857143
9073.5 1
9074.5 -0.857143
9075.5 -0.857143
9076.5 0
9077.5 0
9078.5 0
9079.5 0
9080.5 0
9081.5 0
9082.5 -0.857143
9083.5 0
9084.5 0
9085.5 -0.857143
9086.5 0
9087.5 -0.857143
9088.5 0.142857
9089.5 1
9090.5 0
9091.5 0
9092.5 1
9093.5 0.142857
9094.5 1
9095.5 -2.57143
9096.5 1
9097.5 0
9098.5 0
9099.5 0
9100.5 -0.857143
9101.5 1
9102.5 -0.857143
9103.5 0
9104.5 0
9105.5 1.14286
9106.5 0.142857
9107.5 0
9108.5 0.142857
9109.5 0
9110.5 -0.857143
9111.5 1
9112.5 0
9113.5 0
9114.5 -0.857143
9115.5 1
9116.5 0
9117.5 0
9118.5 0
9119.5 0
9120.5 0
9121.5 1
9122.5 0
9123.5 -0.857143
9124.5 0
9125.5 -0.857143
9126.5 0
9127.5 0
9128.5 0
9129.5 0
9130.5 -0.857143
9131.5 0
9132.5 0
9133.5 0
9134.5 0
9135.5 0
9136.5 0
9137.5 0
9138.5 0.142857
9139.5 0
9140.5 0.142857
9141.5 0
9142.5 0
9143.5 0.142857
9144.5 -0.857143
9145.5 1
9146.5 -0.857143
9147.5 0
9148.5 0
9149.5 0
9150.5 0
9151.5 0
9152.5 1
9153.5 -0.857143
9154.5 0
9155.5 0
9156.5 -0.857143
9157.5 0
9158.5 0.142857
9159.5 0
9160.5 -0.857143
9161.5 1
9162.5 1
9163.5 1
9164.5 1
9165.5 1
9166.5 1
9167.5 0
9168.5 0
9169.5 -0.857143
9170.5 -0.857143
9171.5 1
9172.5 0
9173.5 0
9174.5 0
9175.5 0
9176.5 0
9177.5 -1.71429
9178.5 0
9179.5 0
9180.5 0
9181.5 0
9182.5 0
9183.5 0
9184.5 0.142857
9185.5 0
9186.5 0
9187.5 0
9188.5 0
9189.5 0
9190.5 0
9191.5 0
9192.5 1
9193.5 0
9194.5 0
9195.5 0
9196.5 1
9197.5 0
9198.5 1
9199.5 0
9200.5 0
9201.5 0
9202.5 0
9203.5 0
9204.5 1
9205.5 0
9206.5 0
9207.5 -0.857143
9208.5 0
9209.5 0
9210.5 0
9211.5 -0.857143
9212.5 -1.71429
9213.5 0
9214.5 -0.714286
9215.5 0
9216.5 1
9217.5 1
9218.5 0
9219.5 0
9220.5 0
9221.5 0
9222.5 0
9223.5 0
9224.5 0
9225.5 0
9226.5 0
9227.5 0
9228.5 1
9229.5 0
9230.5 0
9231.5 1
9232.5 1
9233.5 0
9234.5 0
9235.5 0.142857
9236.5 1
9237.5 -0.857143
9238.5 0
9239.5 0
9240.5 -0.857143
9241.5 0
9242.5 1
9243.5 0.142857
9244.5 1
9245.5 1
9246.5 0
9247.5 1
9248.5 0
9249.5 -0.857143
9250.5 0
9251.5 0
9252.5 0
9253.5 0
9254.5 -0.857143
9255.5 0
9256.5 0
9257.5 1
9258.5 0
9259.5 -0.857143
9260.5 0
9261.5 0
9262.5 0
9263.5 0
9264.5 1
9265.5 0
9266.5 0
9267.5 0
9268.5 0
9269.5 0
9270.5 0
9271.5 0
9272.5 -0.857143
9273.5 0
9274.5 0
9275.5 -0.857143
9276.5 0
9277.5 0
9278.5 1
9279.5 -0.857143
9280.5 0
9281.5 0
9282.5 1
9283.5 0
9284.5 0
9285.5 -0.857143
9286.5 0
9287.5 0
9288.5 0
9289.5 0
9290.5 -0.857143
9291.5 -0.857143
9292.5 0
9293.5 0
9294.5 0
9295.5 2
9296.5 1
9297.5 0
9298.5 3
9299.5 2
9300.5 0
9301.5 0
9302.5 0
9303.5 -0.857143
9304.5 0
9305.5 0
9306.5 0
9307.5 0
9308.5 1
9309.5 0
9310.5 0
9311.5 0
9312.5 0
9313.5 1
9314.5 1
9315.5 -0.857143
9316.5 0
9317.5 0
9318.5 0.142857
9319.5 0
9320.5 -0.857143
9321.5 0
9322.5 1
9323.5 0
9324.5 1
9325.5 0
9326.5 0
9327.5 1
9328.5 0
9329.5 0
9330.5 0
9331.5 -0.857143
9332.5 0
9333.5 0
9334.5 0
9335.5 -0.857143
9336.5 1
9337.5 0
9338.5 0
9339.5 0
9340.5 1
9341.5 -0.857143
9342.5 0
9343.5 -0.857143
9344.5 0
9345.5 0
9346.5 -0.857143
9347.5 0
9348.5 0
9349.5 0
9350.5 0
9351.5 0
9352.5 0
9353.5 0
9354.5 0.142857
9355.5 0
9356.5 1
9357.5 1.14286
9358.5 0
9359.5 0
9360.5 1
9361.5 0
9362.5 -0.857143
9363.5 0.142857
9364.5 0
9365.5 0
9366.5 1
9367.5 0
9368.5 2
9369.5 0
9370.5 0
9371.5 2
9372.5 0
9373.5 0
9374.5 0
9375.5 -0.857143
9376.5 0
9377.5 0
9378.5 0
9379.5 0
9380.5 0
9381.5 0
9382.5 -0.857143
9383.5 0
9384.5 0
9385.5 0
9386.5 3
9387.5 1
9388.5 0
9389.5 0
9390.5 0
9391.5 0
9392.5 -0.857143
9393.5 0
9394.5 0
9395.5 -0.857143
9396.5 0
9397.5 0
9398.5 0
9399.5 0
9400.5 0
9401.5 0
9402.5 -0.857143
9403.5 0
9404.5 0
9405.5 0
9406.5 0
9407.5 -0.857143
9408.5 0
9409.5 0
9410.5 0
9411.5 0
9412.5 1
9413.5 0
9414.5 0
9415.5 0
9416.5 0
9417.5 -0.857143
9418.5 0
9419.5 1.14286
9420.5 0
9421.5 0
9422.5 1
9423.5 0
9424.5 0
9425.5 0
9426.5 -0.857143
9427.5 0
9428.5 0
9429.5 0
9430.5 -1.71429
9431.5 -0.857143
9432.5 0
9433.5 0
9434.5 0
9435.5 -0.857143
9436.5 0
9437.5 0
9438.5 0
9439.5 0
9440.5 0
9441.5 -2.57143
9442.5 0
9443.5 0
9444.5 -0.857143
9445.5 0.142857
9446.5 0
9447.5 0
9448.5 -0.714286
9449.5 1
9450.5 0
9451.5 0
9452.5 0
9453.5 -0.857143
9454.5 0
9455.5 0
9456.5 1
9457.5 -0.857143
9458.5 0
9459.5 1
9460.5 -0.857143
9461.5 0
9462.5 0
9463.5 0
9464.5 -0.857143
9465.5 0
9466.5 0
9467.5 0
9468.5 0
9469.5 0
9470.5 0
9471.5 1
9472.5 -0.857143
9473.5 0
9474.5 -1.71429
9475.5 0
9476.5 0
9477.5 -0.857143
9478.5 0
9479.5 -1.71429
9480.5 0
9481.5 0
9482.5 0
9483.5 0
9484.5 0
9485.5 0
9486.5 0
9487.5 0
9488.5 1
9489.5 0
9490.5 0
9491.5 2
9492.5 0
9493.5 0
9494.5 0
9495.5 -0.857143
9496.5 0
9497.5 0
9498.5 0
9499.5 0
9500.5 1
9501.5 -0.857143
9502.5 0
9503.5 0
9504.5 1
9505.5 0
9506.5 -0.857143
9507.5 0
9508.5 0
9509.5 0
9510.5 0
9511.5 0
9512.5 0
9513.5 0
9514.5 0
9515.5 0
9516.5 0
9517.5 0
9518.5 1
9519.5 0
9520.5 1
9521.5 0
9522.5 0
9523.5 0
9524.5 0
9525.5 1
9526.5 -0.857143
9527.5 0
9528.5 0
9529.5 0
9530.5 1
9531.5 0
9532.5 0
9533.5 0
9534.5 0
9535.5 -0.857143
9536.5 0
9537.5 0
9538.5 0
9539.5 0
9540.5 0
9541.5 0
9542.5 0
9543.5 1
9544.5 0
9545.5 0
9546.5 0
9547.5 0
9548.5 0
9549.5 -0.857143
9550.5 1
9551.5 -0.857143
9552.5 -0.857143
9553.5 -0.857143
9554.5 0
9555.5 0
9556.5 0
9557.5 0
9558.5 -0.857143
9559.5 0
9560.5 2
9561.5 0
9562.5 0
9563.5 1
9564.5 -0.857143
9565.5 0
9566.5 0
9567.5 1
9568.5 0
9569.5 1
9570.5 0
9571.5 0
9572.5 0
9573.5 0
9574.5 0
9575.5 0
9576.5 -1.71429
9577.5 1
9578.5 1.14286
9579.5 0
9580.5 0
9581.5 0
9582.5 0
9583.5 1
9584.5 0
9585.5 0
9586.5 0
9587.5 0
9588.5 0
9589.5 1
9590.5 0
9591.5 0
9592.5 0
9593.5 1
9594.5 -0.857143
9595.5 0
9596.5 -0.857143
9597.5 0
9598.5 1
9599.5 0
9600.5 0
9601.5 -0.857143
9602.5 -0.857143
9603.5 0
9604.5 1
9605.5 0
9606.5 0
9607.5 0
9608.5 0
9609.5 0
9610.5 0
9611.5 0
9612.5 0
9613.5 0
9614.5 0
9615.5 0
9616.5 0
9617.5 -1.71429
9618.5 0
9619.5 1
9620.5 0.142857
9621.5 1
9622.5 0
9623.5 0
9624.5 0
9625.5 0
9626.5 0
9627.5 0
9628.5 0
9629.5 0
9630.5 0
9631.5 -0.857143
9632.5 0
9633.5 0
9634.5 0
9635.5 0
9636.5 0
9637.5 1
9638.5 0
9639.5 0
9640.5 0
9641.5 0
9642.5 1
9643.5 1
9644.5 0
9645.5 0
9646.5 0
9647.5 0
9648.5 0
9649.5 0
9650.5 0
9651.5 0
9652.5 -0.857143
9653.5 0
9654.5 0
9655.5 0
9656.5 -0.857143
9657.5 0
9658.5 1
9659.5 -0.857143
9660.5 0
9661.5 0
9662.5 0
9663.5 0
9664.5 0
9665.5 0
9666.5 0
9667.5 0
9668.5 0
9669.5 0
9670.5 0
9671.5 0
9672.5 1
9673.5 0
9674.5 0
9675.5 0
9676.5 0
9677.5 -0.857143
9678.5 0
9679.5 0
9680.5 1
9681.5 0
9682.5 0
9683.5 0
9684.5 0
9685.5 0
9686.5 0
9687.5 0
9688.5 0
9689.5 0
9690.5 0
9691.5 1
9692.5 0
9693.5 0
9694.5 1
9695.5 0
9696.5 1
9697.5 -0.857143
9698.5 0
9699.5 0
9700.5 1
9701.5 0
9702.5 0
9703.5 0
9704.5 0
9705.5 0
9706.5 0
9707.5 0
9708.5 0
9709.5 -0.857143
9710.5 0
9711.5 0
9712.5 0
9713.5 0
9714.5 0
9715.5 0
9716.5 0
9717.5 0
9718.5 0
9719.5 0
9720.5 -0.857143
9721.5 -0.857143
9722.5 0
9723.5 0
9724.5 0
9725.5 0
9726.5 0
9727.5 -0.857143
9728.5 0
9729.5 0
9730.5 0
9731.5 0
9732.5 0
9733.5 0
9734.5 0
9735.5 0
9736.5 0
9737.5 0
9738.5 0
9739.5 0
9740.5 -0.857143
9741.5 0
9742.5 0
9743.5 0
9744.5 0
9745.5 0
9746.5 0
9747.5 0
9748.5 0
9749.5 0
9750.5 0
9751.5 0
9752.5 -0.857143
9753.5 -0.857143
9754.5 0
9755.5 0
9756.5 0
9757.5 0
9758.5 0
9759.5 0
9760.5 0
9761.5 0
9762.5 0
9763.5 0
9764.5 0
9765.5 0
9766.5 0
9767.5 0
9768.5 1
9769.5 0
9770.5 0
9771.5 0
9772.5 0
9773.5 0
9774.5 0
9775.5 1
9776.5 0
9777.5 0
9778.5 0
9779.5 0
9780.5 0
9781.5 0
9782.5 0
9783.5 0
9784.5 0
9785.5 1
9786.5 1
9787.5 0
9788.5 0
9789.5 0
9790.5 0
9791.5 0
9792.5 0
9793.5 0
9794.5 0
9795.5 0
9796.5 0
9797.5 0
9798.5 -0.857143
9799.5 0
9800.5 -0.857143
9801.5 -0.857143
9802.5 -0.857143
9803.5 0
9804.5 0
9805.5 0
9806.5 1
9807.5 0
9808.5 0
9809.5 0
9810.5 0
9811.5 0
9812.5 0
9813.5 0
9814.5 1
9815.5 0
9816.5 0
9817.5 0
9818.5 -0.857143
9819.5 1
9820.5 0
9821.5 0
9822.5 0
9823.5 0
9824.5 0
9825.5 0
9826.5 0
9827.5 0
9828.5 0
9829.5 0
9830.5 0
9831.5 0
9832.5 0
9833.5 0
9834.5 0
9835.5 0
9836.5 0
9837.5 -0.857143
9838.5 0
9839.5 0
9840.5 0
9841.5 0
9842.5 0
9843.5 0
9844.5 0
9845.5 0
9846.5 0
9847.5 -0.857143
9848.5 0
9849.5 -0.857143
9850.5 0
9851.5 0
9852.5 -0.857143
9853.5 0
9854.5 0
9855.5 0
9856.5 0
9857.5 0
9858.5 0
9859.5 0
9860.5 0
9861.5 0
9862.5 0
9863.5 0
9864.5 0
9865.5 0
9866.5 0
9867.5 -0.857143
9868.5 0
9869.5 1
9870.5 0
9871.5 -0.857143
9872.5 0
9873.5 0
9874.5 0
9875.5 -0.857143
9876.5 0
9877.5 0
9878.5 0
9879.5 0
9880.5 1
9881.5 0
9882.5 0
9883.5 0
9884.5 0
9885.5 0
9886.5 0
9887.5 0
9888.5 0
9889.5 0
9890.5 0
9891.5 0
9892.5 0
9893.5 0
9894.5 0
9895.5 0
9896.5 0
9897.5 0
9898.5 0
9899.5 0
9900.5 0
9901.5 0
9902.5 0
9903.5 0
9904.5 0.142857
9905.5 0
9906.5 0
9907.5 0
9908.5 0
9909.5 0
9910.5 0
9911.5 -0.857143
9912.5 0
9913.5 0
9914.5 0
9915.5 -0.857143
9916.5 0
9917.5 0
9918.5 0
9919.5 0
9920.5 0
9921.5 2
9922.5 0
9923.5 0
9924.5 0
9925.5 0
9926.5 0
9927.5 0
9928.5 0
9929.5 0
9930.5 0
9931.5 0
9932.5 0
9933.5 0
9934.5 0
9935.5 0
9936.5 1
9937.5 1
9938.5 0.142857
9939.5 0
9940.5 0
9941.5 0
9942.5 0
9943.5 0
9944.5 0
9945.5 0
9946.5 0
9947.5 0
9948.5 0
9949.5 0
9950.5 0
9951.5 0
9952.5 0
9953.5 0
9954.5 0
9955.5 0
9956.5 0
9957.5 0
9958.5 0
9959.5 0
9960.5 0
9961.5 0
9962.5 0
9963.5 0
9964.5 0
9965.5 0
9966.5 0
9967.5 0
9968.5 0
9969.5 -0.857143
9970.5 0
9971.5 0
9972.5 0
9973.5 0
9974.5 0
9975.5 0
9976.5 0
9977.5 0
9978.5 0
9979.5 0
9980.5 0
9981.5 0
9982.5 0
9983.5 0
9984.5 0
9985.5 1
9986.5 0
9987.5 0
9988.5 0
9989.5 1
9990.5 0
9991.5 0
9992.5 0
9993.5 0
9994.5 0
9995.5 0
9996.5 0
9997.5 0
9998.5 0
9999.5 0
10000.5 0
10001.5 0
10002.5 1
10003.5 1
10004.5 0
10005.5 0
10006.5 -0.857143
10007.5 1
10008.5 0
10009.5 0
10010.5 0
10011.5 0
10012.5 0
10013.5 0
10014.5 0
10015.5 0
10016.5 0
10017.5 0
10018.5 0
10019.5 0
10020.5 0
10021.5 0
10022.5 0
10023.5 0
10024.5 0
10025.5 0
10026.5 0
10027.5 0
10028.5 0
10029.5 0
10030.5 0
10031.5 0
10032.5 0
10033.5 0
10034.5 0
10035.5 0
10036.5 0
10037.5 1
10038.5 0
10039.5 0
10040.5 0
10041.5 0
10042.5 0
10043.5 0
10044.5 0
10045.5 0
10046.5 0
10047.5 0
10048.5 0
10049.5 0
10050.5 0
10051.5 0
10052.5 0
10053.5 0
10054.5 0
10055.5 1
10056.5 0
10057.5 0
10058.5 0
10059.5 0
10060.5 0
10061.5 0
10062.5 0
10063.5 0
10064.5 0
10065.5 0
10066.5 0
10067.5 0
10068.5 0
10069.5 0
10070.5 0
10071.5 0
10072.5 0
10073.5 0
10074.5 0
10075.5 0
10076.5 0
10077.5 0
10078.5 0
10079.5 0
10080.5 0
10081.5 0
10082.5 0
10083.5 0
10084.5 0
10085.5 -0.857143
10086.5 0
10087.5 0
10088.5 1
10089.5 0
10090.5 0
10091.5 0
10092.5 0
10093.5 0
10094.5 0
10095.5 0
10096.5 0
10097.5 0
10098.5 0
10099.5 0
10100.5 0
10101.5 0
10102.5 0
10103.5 0
10104.5 -0.857143
10105.5 0
10106.5 0
10107.5 0
10108.5 0
10109.5 0
10110.5 0
10111.5 0
10112.5 1
10113.5 0
10114.5 0
10115.5 0
10116.5 0
10117.5 0
10118.5 0
10119.5 0
10120.5 0
10121.5 0
10122.5 0
10123.5 0
10124.5 0
10125.5 0
10126.5 0
10127.5 0
10128.5 0
10129.5 0
10130.5 0
10131.5 0
10132.5 0
10133.5 0
10134.5 0
10135.5 0
10136.5 0
10137.5 0
10138.5 0
10139.5 0
10140.5 0
10141.5 0
10142.5 0
10143.5 0
10144.5 0
10145.5 0
10146.5 0
10147.5 0
10148.5 0
10149.5 0
10150.5 0
10151.5 0
10152.5 0
10153.5 0
10154.5 0
10155.5 0
10156.5 0
10157.5 0
10158.5 1
10159.5 0
10160.5 0
10161.5 0
10162.5 0
10163.5 0
10164.5 0
10165.5 1
10166.5 0
10167.5 0
10168.5 0
10169.5 0
10170.5 0
10171.5 0
10172.5 0
10173.5 0
10174.5 0
10175.5 0
10176.5 0
10177.5 0
10178.5 0
10179.5 0
10180.5 0
10181.5 0
10182.5 0
10183.5 0
10184.5 0
10185.5 0
10186.5 0
10187.5 0
10188.5 0
10189.5 0
10190.5 0
10191.5 0
10192.5 0
10193.5 0
10194.5 0
10195.5 0
10196.5 0
10197.5 0
10198.5 0
10199.5 0
10200.5 0
10201.5 0
10202.5 0
10203.5 0
10204.5 0
10205.5 0
10206.5 0
10207.5 0
10208.5 0
10209.5 0
10210.5 0
10211.5 0
10212.5 0
10213.5 0
10214.5 0
10215.5 0
10216.5 0
10217.5 0
10218.5 0
10219.5 0
10220.5 0
10221.5 0
10222.5 0
10223.5 0
10224.5 0
10225.5 1
10226.5 0
10227.5 0
10228.5 0
10229.5 0
10230.5 -0.857143
10231.5 0
10232.5 0
10233.5 -0.857143
10234.5 0
10235.5 0
10236.5 0
10237.5 0
10238.5 0
10239.5 0
10240.5 -0.857143
10241.5 -0.857143
10242.5 0
10243.5 0
10244.5 0
10245.5 0
10246.5 0
10247.5 0
10248.5 0
10249.5 0
10250.5 0
10251.5 0
10252.5 0
10253.5 0
10254.5 0
10255.5 0
10256.5 0
10257.5 0
10258.5 0
10259.5 0
10260.5 0
10261.5 0
10262.5 0
10263.5 0
10264.5 0
10265.5 0
10266.5 0
10267.5 0
10268.5 0
10269.5 0
10270.5 0
10271.5 0
10272.5 0
10273.5 0
10274.5 0
10275.5 0
10276.5 0
10277.5 0
10278.5 0
10279.5 0
10280.5 0
10281.5 0
10282.5 0
10283.5 0
10284.5 0
10285.5 0
10286.5 0
10287.5 0
10288.5 0
10289.5 0
10290.5 0
10291.5 0
10292.5 0
10293.5 0
10294.5 0
10295.5 0
10296.5 0
10297.5 0
10298.5 0
10299.5 0
10300.5 0
10301.5 0
10302.5 0
10303.5 0
10304.5 0
10305.5 0
10306.5 0
10307.5 0
10308.5 0
10309.5 0
10310.5 1
10311.5 0
10312.5 0
10313.5 0
10314.5 0
10315.5 0
10316.5 0
10317.5 0
10318.5 0
10319.5 0
10320.5 0
10321.5 0
10322.5 0
10323.5 0
10324.5 0
10325.5 0
10326.5 0
10327.5 0
10328.5 0
10329.5 0
10330.5 0
10331.5 0
10332.5 -0.857143
10333.5 0
10334.5 0
10335.5 1
10336.5 0
10337.5 0
10338.5 0
10339.5 0
10340.5 0
10341.5 0
10342.5 0
10343.5 0
10344.5 0
10345.5 -0.857143
10346.5 0
10347.5 0
10348.5 0
10349.5 0
10350.5 0
10351.5 0
10352.5 0
10353.5 0
10354.5 0
10355.5 0
10356.5 0
10357.5 0
10358.5 0
10359.5 0
10360.5 0
10361.5 0
10362.5 0
10363.5 0
10364.5 0
10365.5 0
10366.5 0
10367.5 0
10368.5 0
10369.5 0
10370.5 0
10371.5 0
10372.5 0
10373.5 0
10374.5 0
10375.5 0
10376.5 0
10377.5 0
10378.5 0
10379.5 1
10380.5 0
10381.5 0
10382.5 0
10383.5 0
10384.5 2
10385.5 0
10386.5 0
10387.5 0
10388.5 0
10389.5 0
10390.5 0
10391.5 0
10392.5 0
10393.5 0
10394.5 0
10395.5 0
10396.5 0
10397.5 0
10398.5 0
10399.5 0
10400.5 0
10401.5 0
10402.5 -0.857143
10403.5 -0.857143
10404.5 0
10405.5 0
10406.5 0
10407.5 0
10408.5 0
10409.5 0
10410.5 0
10411.5 0
10412.5 0
10413.5 0
10414.5 0
10415.5 0
10416.5 0
10417.5 0
10418.5 0
10419.5 0
10420.5 0
10421.5 1
10422.5 0
10423.5 0
10424.5 0
10425.5 0
10426.5 0
10427.5 0
10428.5 0
10429.5 0
10430.5 0
10431.5 0
10432.5 0
10433.5 0
10434.5 -0.857143
10435.5 0
10436.5 0
10437.5 0
10438.5 0
10439.5 0
10440.5 0
10441.5 0
10442.5 0
10443.5 0
10444.5 0
10445.5 0
10446.5 0
10447.5 0
10448.5 0
10449.5 0
10450.5 0
10451.5 0
10452.5 0
10453.5 0
10454.5 0
10455.5 0
10456.5 0
10457.5 0
10458.5 0
10459.5 0
10460.5 0
10461.5 0
10462.5 0
10463.5 0
10464.5 -0.857143
10465.5 0
10466.5 0
10467.5 0
10468.5 0
10469.5 0
10470.5 0
10471.5 0
10472.5 0
10473.5 0
10474.5 0
10475.5 0
10476.5 0
10477.5 0
10478.5 0
10479.5 0
10480.5 0
10481.5 0
10482.5 0
10483.5 0
10484.5 0
10485.5 1
10486.5 0
10487.5 0
10488.5 0
10489.5 0
10490.5 0
10491.5 0
10492.5 0
10493.5 0
10494.5 0
10495.5 0
10496.5 0
10497.5 0
10498.5 0
10499.5 0
10500.5 0
10501.5 0
10502.5 0
10503.5 0
10504.5 0
10505.5 0
10506.5 0
10507.5 0
10508.5 0
10509.5 0
10510.5 0
10511.5 0
10512.5 0
10513.5 0
10514.5 0
10515.5 0
10516.5 0
10517.5 0
10518.5 0
10519.5 0
10520.5 0
10521.5 0
10522.5 0
10523.5 0
10524.5 0
10525.5 0
10526.5 0
10527.5 0
10528.5 0
10529.5 0
10530.5 0
10531.5 0
10532.5 0
10533.5 0
10534.5 0
10535.5 0
10536.5 0
10537.5 0
10538.5 0
10539.5 0
10540.5 0
10541.5 0
10542.5 0
10543.5 0
10544.5 0
10545.5 0
10546.5 0
10547.5 0
10548.5 0
10549.5 0
10550.5 0
10551.5 0
10552.5 0
10553.5 0
10554.5 0
10555.5 0
10556.5 0
10557.5 0
10558.5 0
10559.5 0
10560.5 0
10561.5 0
10562.5 0
10563.5 0
10564.5 0
10565.5 0
10566.5 0
10567.5 0
10568.5 0
10569.5 0
10570.5 0
10571.5 0
10572.5 1
10573.5 0
10574.5 0
10575.5 0
10576.5 0
10577.5 0
10578.5 0
10579.5 0
10580.5 0
10581.5 0
10582.5 0
10583.5 0
10584.5 0
10585.5 0
10586.5 0
10587.5 0
10588.5 0
10589.5 0
10590.5 0
10591.5 0
10592.5 0
10593.5 0
10594.5 0
10595.5 0
10596.5 0
10597.5 0
10598.5 0
10599.5 0
10600.5 0
10601.5 0
10602.5 0
10603.5 0
10604.5 0
10605.5 0
10606.5 0
10607.5 0
10608.5 0
10609.5 0
10610.5 0
10611.5 0
10612.5 0
10613.5 0
10614.5 0
10615.5 0
10616.5 0
10617.5 0
10618.5 0
10619.5 0
10620.5 0
10621.5 0
10622.5 0
10623.5 0
10624.5 0
10625.5 0
10626.5 0
10627.5 0
10628.5 0
10629.5 0
10630.5 0
10631.5 0
10632.5 0
10633.5 0
10634.5 0
10635.5 0
10636.5 0
10637.5 0
10638.5 0
10639.5 0
10640.5 0
10641.5 0
10642.5 0
10643.5 0
10644.5 0
10645.5 0
10646.5 0
10647.5 0
10648.5 0
10649.5 0
10650.5 0
10651.5 0
10652.5 0
10653.5 0
10654.5 0
10655.5 0
10656.5 0
10657.5 0
10658.5 0
10659.5 0
10660.5 0
10661.5 0
10662.5 0
10663.5 0
10664.5 0
10665.5 0
10666.5 0
10667.5 0
10668.5 0
10669.5 0
10670.5 0
10671.5 0
10672.5 0
10673.5 0
10674.5 0
10675.5 0
10676.5 0
10677.5 0
10678.5 0
10679.5 0
10680.5 0
10681.5 0
10682.5 0
10683.5 0
10684.5 0
10685.5 0
10686.5 0
10687.5 0
10688.5 0
10689.5 0
10690.5 0
10691.5 0
10692.5 0
10693.5 0
10694.5 0
10695.5 0
10696.5 0
10697.5 0
10698.5 0
10699.5 -0.857143
10700.5 0
10701.5 0
10702.5 0
10703.5 0
10704.5 0
10705.5 0
10706.5 0
10707.5 0
10708.5 0
10709.5 0
10710.5 0
10711.5 0
10712.5 0
10713.5 0
10714.5 0
10715.5 0
10716.5 0
10717.5 0
10718.5 0
10719.5 0
10720.5 0
10721.5 0
10722.5 0
10723.5 0
10724.5 0
10725.5 0
10726.5 0
10727.5 0
10728.5 0
10729.5 -0.857143
10730.5 0
10731.5 0
10732.5 0
10733.5 0
10734.5 0
10735.5 0
10736.5 0
10737.5 0
10738.5 0
10739.5 0
10740.5 0
10741.5 0
10742.5 0
10743.5 0
10744.5 0
10745.5 0
10746.5 -0.857143
10747.5 0
10748.5 0
10749.5 0
10750.5 0
10751.5 0
10752.5 0
10753.5 0
10754.5 0
10755.5 0
10756.5 0
10757.5 0
10758.5 0
10759.5 0
10760.5 0
10761.5 0
10762.5 0
10763.5 0
10764.5 0
10765.5 0
10766.5 0
10767.5 0
10768.5 0
10769.5 0
10770.5 0
10771.5 0
10772.5 0
10773.5 0
10774.5 0
10775.5 0
10776.5 0
10777.5 0
10778.5 0
10779.5 0
10780.5 0
10781.5 0
10782.5 0
10783.5 0
10784.5 0
10785.5 0
10786.5 0
10787.5 0
10788.5 0
10789.5 1
10790.5 0
10791.5 0
10792.5 0
10793.5 0
10794.5 0
10795.5 -0.857143
10796.5 0
10797.5 0
10798.5 0
10799.5 0
10800.5 0
10801.5 0
10802.5 0
10803.5 0
10804.5 0
10805.5 0
10806.5 0
10807.5 0
10808.5 0
10809.5 0
10810.5 0
10811.5 0
10812.5 0
10813.5 0
10814.5 1
10815.5 0
10816.5 0
10817.5 0
10818.5 0
10819.5 0
10820.5 0
10821.5 0
10822.5 0
10823.5 0
10824.5 0
10825.5 0
10826.5 0
10827.5 0
10828.5 0
10829.5 0
10830.5 0
10831.5 0
10832.5 -0.857143
10833.5 0
10834.5 0
10835.5 0
10836.5 0
10837.5 0
10838.5 0
10839.5 0
10840.5 0
10841.5 1
10842.5 0
10843.5 0
10844.5 0
10845.5 0
10846.5 0
10847.5 0
10848.5 0
10849.5 0
10850.5 0
10851.5 0
10852.5 0
10853.5 0
10854.5 0
10855.5 0
10856.5 0
10857.5 0
10858.5 0
10859.5 0
10860.5 0
10861.5 0
10862.5 0
10863.5 0
10864.5 0
10865.5 0
10866.5 0
10867.5 0
10868.5 0
10869.5 0
10870.5 0
10871.5 0
10872.5 0
10873.5 0
10874.5 0
10875.5 0
10876.5 0
10877.5 0
10878.5 0
10879.5 0
10880.5 -0.857143
10881.5 0
10882.5 0
10883.5 0
10884.5 0
10885.5 0
10886.5 0
10887.5 0
10888.5 0
10889.5 0
10890.5 0
10891.5 0
10892.5 0
10893.5 0
10894.5 0
10895.5 0
10896.5 1
10897.5 0
10898.5 0
10899.5 0
10900.5 1
10901.5 0
10902.5 0
10903.5 0
10904.5 0
10905.5 0
10906.5 0
10907.5 0
10908.5 0
10909.5 0
10910.5 0
10911.5 0
10912.5 0
10913.5 0
10914.5 0
10915.5 0
10916.5 0
10917.5 0
10918.5 0
10919.5 0
10920.5 0
10921.5 0
10922.5 0
10923.5 0
10924.5 0
10925.5 1
10926.5 0
10927.5 0
10928.5 0
10929.5 0
10930.5 0
10931.5 0
10932.5 0
10933.5 0
10934.5 0
10935.5 0
10936.5 1
10937.5 0
10938.5 0
10939.5 0
10940.5 0
10941.5 0
10942.5 0
10943.5 0
10944.5 0
10945.5 0
10946.5 0
10947.5 0
10948.5 0
10949.5 0
10950.5 0
10951.5 0
10952.5 0
10953.5 0
10954.5 0
10955.5 -0.857143
10956.5 1
10957.5 0
10958.5 0
10959.5 0
10960.5 0
10961.5 0
10962.5 0
10963.5 0
10964.5 0
10965.5 0
10966.5 0
10967.5 0
10968.5 0
10969.5 0
10970.5 -0.857143
10971.5 0
10972.5 0
10973.5 0
10974.5 0
10975.5 0
10976.5 0
10977.5 0
10978.5 0
10979.5 0
10980.5 0
10981.5 0
10982.5 0
10983.5 0
10984.5 1
10985.5 0
10986.5 0
10987.5 0
10988.5 0
10989.5 0
10990.5 0
10991.5 0
10992.5 0
10993.5 0
10994.5 0
10995.5 0
10996.5 0
10997.5 0
10998.5 0
10999.5 0
11000.5 0
11001.5 0
11002.5 0
11003.5 0
11004.5 0
11005.5 0
11006.5 0
11007.5 0
11008.5 0
11009.5 0
11010.5 0
11011.5 0
11012.5 0
11013.5 0
11014.5 0
11015.5 0
11016.5 0
11017.5 0
11018.5 1
11019.5 0
11020.5 0
11021.5 0
11022.5 0
11023.5 0
11024.5 1
11025.5 0
11026.5 0
11027.5 0
11028.5 0
11029.5 0
11030.5 0
11031.5 0
11032.5 0
11033.5 0
11034.5 0
11035.5 0
11036.5 0
11037.5 0
11038.5 0
11039.5 0
11040.5 0
11041.5 0
11042.5 0
11043.5 0
11044.5 0
11045.5 -0.857143
11046.5 0
11047.5 0
11048.5 0
11049.5 0
11050.5 0
11051.5 0
11052.5 0
11053.5 0
11054.5 0
11055.5 0
11056.5 0
11057.5 0
11058.5 0
11059.5 0
11060.5 0
11061.5 0
11062.5 0
11063.5 0
11064.5 0
11065.5 0
11066.5 0
11067.5 0
11068.5 0
11069.5 0
11070.5 0
11071.5 0
11072.5 0
11073.5 0
11074.5 0
11075.5 0
11076.5 0
11077.5 0
11078.5 0
11079.5 0
11080.5 0
11081.5 0
11082.5 0
11083.5 0
11084.5 0
11085.5 0
11086.5 0
11087.5 0
11088.5 0
11089.5 0
11090.5 0
11091.5 0
11092.5 0
11093.5 0
11094.5 0
11095.5 0
11096.5 0
11097.5 0
11098.5 0
11099.5 2
11100.5 0
11101.5 0
11102.5 0
11103.5 0
11104.5 0
11105.5 0
11106.5 0
11107.5 0
11108.5 0
11109.5 0
11110.5 0
11111.5 0
11112.5 0
11113.5 0
11114.5 0
11115.5 0
11116.5 0
11117.5 0
11118.5 0
11119.5 0
11120.5 0
11121.5 0
11122.5 0
11123.5 0
11124.5 -0.857143
11125.5 0
11126.5 0
11127.5 0
11128.5 0
11129.5 0
11130.5 0
11131.5 0
11132.5 0
11133.5 0
11134.5 0
11135.5 0
11136.5 0
11137.5 0
11138.5 0
11139.5 0
11140.5 0
11141.5 0
11142.5 0
11143.5 0
11144.5 0
11145.5 0
11146.5 0
11147.5 0
11148.5 0
11149.5 0
11150.5 0
11151.5 0
11152.5 0
11153.5 0
11154.5 0
11155.5 0
11156.5 0
11157.5 0
11158.5 0
11159.5 0
11160.5 0
11161.5 0
11162.5 0
11163.5 0
11164.5 0
11165.5 0
11166.5 0
11167.5 0
11168.5 1
11169.5 0
11170.5 0
11171.5 0
11172.5 0
11173.5 0
11174.5 0
11175.5 0
11176.5 0
11177.5 0
11178.5 0
11179.5 0
11180.5 0
11181.5 0
11182.5 0
11183.5 0
11184.5 0
11185.5 0
11186.5 0
11187.5 0
11188.5 0
11189.5 0
11190.5 0
11191.5 0
11192.5 0
11193.5 0
11194.5 0
11195.5 0
11196.5 0
11197.5 0
11198.5 0
11199.5 0
11200.5 0
11201.5 0
11202.5 0
11203.5 0
11204.5 0
11205.5 0
11206.5 0
11207.5 0
11208.5 0
11209.5 0
11210.5 0
11211.5 0
11212.5 0
11213.5 0
11214.5 0
11215.5 0
11216.5 0
11217.5 0
11218.5 0
11219.5 0
11220.5 0
11221.5 0
11222.5 0
11223.5 0
11224.5 0
11225.5 0
11226.5 0
11227.5 0
11228.5 0
11229.5 0
11230.5 0
11231.5 0
11232.5 0
11233.5 0
11234.5 0
11235.5 0
11236.5 0
11237.5 0
11238.5 0
11239.5 0
11240.5 0
11241.5 0
11242.5 0
11243.5 0
11244.5 0
11245.5 0
11246.5 0
11247.5 0
11248.5 0
11249.5 0
11250.5 0
11251.5 0
11252.5 0
11253.5 0
11254.5 1
11255.5 0
11256.5 0
11257.5 0
11258.5 0
11259.5 0
11260.5 0
11261.5 0
11262.5 0
11263.5 0
11264.5 0
11265.5 0
11266.5 0
11267.5 0
11268.5 0
11269.5 0
11270.5 0
11271.5 0
11272.5 0
11273.5 0
11274.5 0
11275.5 0
11276.5 0
11277.5 0
11278.5 0
11279.5 0
11280.5 0
11281.5 0
11282.5 0
11283.5 0
11284.5 0
11285.5 0
11286.5 0
11287.5 0
11288.5 0
11289.5 0
11290.5 0
11291.5 0
11292.5 0
11293.5 0
11294.5 0
11295.5 0
11296.5 0
11297.5 0
11298.5 0
11299.5 0
11300.5 0
11301.5 0
11302.5 0
11303.5 0
11304.5 0
11305.5 0
11306.5 0
11307.5 0
11308.5 0
11309.5 0
11310.5 0
11311.5 0
11312.5 0
11313.5 0
11314.5 0
11315.5 0
11316.5 0
11317.5 0
11318.5 0
11319.5 0
11320.5 0
11321.5 0
11322.5 0
11323.5 0
11324.5 0
11325.5 0
11326.5 0
11327.5 0
11328.5 0
11329.5 0
11330.5 0
11331.5 0
11332.5 0
11333.5 0
11334.5 0
11335.5 0
11336.5 0
11337.5 0
11338.5 0
11339.5 0
11340.5 0
11341.5 0
11342.5 0
11343.5 0
11344.5 0
11345.5 0
11346.5 0
11347.5 0
11348.5 0
11349.5 0
11350.5 0
11351.5 0
11352.5 0
11353.5 0
11354.5 0
11355.5 0
11356.5 0
11357.5 0
11358.5 0
11359.5 0
11360.5 0
11361.5 0
11362.5 0
11363.5 0
11364.5 0
11365.5 0
11366.5 0
11367.5 0
11368.5 0
11369.5 0
11370.5 0
11371.5 0
11372.5 0
11373.5 0
11374.5 0
11375.5 0
11376.5 0
11377.5 0
11378.5 0
11379.5 0
11380.5 0
11381.5 0
11382.5 0
11383.5 0
11384.5 0
11385.5 0
11386.5 0
11387.5 0
11388.5 0
11389.5 0
11390.5 0
11391.5 0
11392.5 0
11393.5 0
11394.5 0
11395.5 0
11396.5 0
11397.5 0
11398.5 0
11399.5 -0.857143
11400.5 0
11401.5 0
11402.5 0
11403.5 -0.857143
11404.5 0
11405.5 0
11406.5 0
11407.5 0
11408.5 0
11409.5 0
11410.5 0
11411.5 0
11412.5 0
11413.5 0
11414.5 0
11415.5 0
11416.5 0
11417.5 1
11418.5 0
11419.5 0
11420.5 0
11421.5 0
11422.5 0
11423.5 0
11424.5 0
11425.5 0
11426.5 0
11427.5 0
11428.5 0
11429.5 0
11430.5 0
11431.5 0
11432.5 0
11433.5 0
11434.5 0
11435.5 1
11436.5 0
11437.5 0
11438.5 0
11439.5 0
11440.5 0
11441.5 0
11442.5 0
11443.5 0
11444.5 0
11445.5 0
11446.5 0
11447.5 0
11448.5 0
11449.5 0
11450.5 0
11451.5 0
11452.5 0
11453.5 0
11454.5 0
11455.5 0
11456.5 0
11457.5 0
11458.5 0
11459.5 0
11460.5 0
11461.5 0
11462.5 0
11463.5 0
11464.5 0
11465.5 0
11466.5 0
11467.5 0
11468.5 0
11469.5 0
11470.5 0
11471.5 0
11472.5 0
11473.5 0
11474.5 0
11475.5 0
11476.5 0
11477.5 1
11478.5 0
11479.5 -0.857143
11480.5 0
11481.5 0
11482.5 0
11483.5 0
11484.5 0
11485.5 0
11486.5 0
11487.5 0
11488.5 1
11489.5 0
11490.5 0
11491.5 0
11492.5 0
11493.5 0
11494.5 0
11495.5 0
11496.5 0
11497.5 0
11498.5 0
11499.5 0
11500.5 0
11501.5 0
11502.5 0
11503.5 0
11504.5 0
11505.5 0
11506.5 0
11507.5 0
11508.5 0
11509.5 0
11510.5 0
11511.5 0
11512.5 0
11513.5 0
11514.5 0
11515.5 0
11516.5 0
11517.5 0
11518.5 0
11519.5 1
11520.5 0
11521.5 0
11522.5 0
11523.5 0
11524.5 0
11525.5 0
11526.5 0
11527.5 0
11528.5 0
11529.5 0
11530.5 0
11531.5 0
11532.5 0
11533.5 0
11534.5 1
11535.5 0
11536.5 0
11537.5 0
11538.5 0
11539.5 0
11540.5 0
11541.5 0
11542.5 0
11543.5 0
11544.5 0
11545.5 0
11546.5 0
11547.5 0
11548.5 0
11549.5 0
11550.5 0
11551.5 0
11552.5 0
11553.5 0
11554.5 0
11555.5 0
11556.5 0
11557.5 0
11558.5 0
11559.5 0
11560.5 0
11561.5 1
11562.5 0
11563.5 0
11564.5 0
11565.5 0
11566.5 0
11567.5 0
11568.5 0
11569.5 0
11570.5 0
11571.5 0
11572.5 0
11573.5 0
11574.5 0
11575.5 0
11576.5 0
11577.5 0
11578.5 0
11579.5 0
11580.5 0
11581.5 0
11582.5 0
11583.5 0
11584.5 0
11585.5 0
11586.5 0
11587.5 0
11588.5 0
11589.5 0
11590.5 0
11591.5 0
11592.5 0
11593.5 1
11594.5 0
11595.5 0
11596.5 0
11597.5 0
11598.5 0
11599.5 0
11600.5 0
11601.5 0
11602.5 1
11603.5 0
11604.5 0
11605.5 0
11606.5 0
11607.5 0
11608.5 0
11609.5 0
11610.5 0
11611.5 0
11612.5 0
11613.5 0
11614.5 0
11615.5 0
11616.5 0
11617.5 0
11618.5 0
11619.5 0
11620.5 0
11621.5 0
11622.5 0
11623.5 0
11624.5 0
11625.5 0
11626.5 0
11627.5 0
11628.5 0
11629.5 0
11630.5 0
11631.5 0
11632.5 0
11633.5 0
11634.5 0
11635.5 0
11636.5 0
11637.5 0
11638.5 0
11639.5 0
11640.5 0
11641.5 0
11642.5 0
11643.5 0
11644.5 0
11645.5 0
11646.5 0
11647.5 0
11648.5 0
11649.5 0
11650.5 0
11651.5 0
11652.5 0
11653.5 0
11654.5 0
11655.5 0
11656.5 0
11657.5 0
11658.5 0
11659.5 0
11660.5 0
11661.5 0
11662.5 0
11663.5 0
11664.5 0
11665.5 0
11666.5 0
11667.5 0
11668.5 0
11669.5 0
11670.5 0
11671.5 0
11672.5 0
11673.5 0
11674.5 0
11675.5 0
11676.5 0
11677.5 0
11678.5 0
11679.5 0
11680.5 0
11681.5 0
11682.5 0
11683.5 0
11684.5 0
11685.5 0
11686.5 0
11687.5 0
11688.5 -0.857143
11689.5 0
11690.5 0
11691.5 0
11692.5 0
11693.5 0
11694.5 0
11695.5 0
11696.5 0
11697.5 0
11698.5 0
11699.5 0
11700.5 0
11701.5 0
11702.5 0
11703.5 -0.857143
11704.5 0
11705.5 0
11706.5 0
11707.5 0
11708.5 0
11709.5 0
11710.5 0
11711.5 0
11712.5 0
11713.5 0
11714.5 0
11715.5 0
11716.5 0
11717.5 0
11718.5 0
11719.5 0
11720.5 0
11721.5 0
11722.5 0
11723.5 0
11724.5 0
11725.5 0
11726.5 0
11727.5 0
11728.5 0
11729.5 0
11730.5 0
11731.5 0
11732.5 0
11733.5 0
11734.5 0
11735.5 0
11736.5 0
11737.5 0
11738.5 0
11739.5 0
11740.5 0
11741.5 0
11742.5 0
11743.5 0
11744.5 1
11745.5 0
11746.5 0
11747.5 0
11748.5 0
11749.5 0
11750.5 0
11751.5 0
11752.5 0
11753.5 0
11754.5 0
11755.5 0
11756.5 0
11757.5 0
11758.5 0
11759.5 0
11760.5 0
11761.5 0
11762.5 0
11763.5 0
11764.5 0
11765.5 0
11766.5 0
11767.5 0
11768.5 0
11769.5 0
11770.5 0
11771.5 0
11772.5 0
11773.5 0
11774.5 0
11775.5 0
11776.5 0
11777.5 0
11778.5 0
11779.5 0
11780.5 0
11781.5 0
11782.5 0
11783.5 0
11784.5 0
11785.5 0
11786.5 0
11787.5 0
11788.5 0
11789.5 0
11790.5 0
11791.5 0
11792.5 0
11793.5 0
11794.5 0
11795.5 0
11796.5 0
11797.5 0
11798.5 0
11799.5 0
11800.5 0
11801.5 0
11802.5 0
11803.5 0
11804.5 0
11805.5 0
11806.5 0
11807.5 0
11808.5 0
11809.5 0
11810.5 0
11811.5 0
11812.5 0
11813.5 0
11814.5 0
11815.5 0
11816.5 0
11817.5 0
11818.5 0
11819.5 0
11820.5 0
11821.5 0
11822.5 0
11823.5 0
11824.5 0
11825.5 0
11826.5 0
11827.5 0
11828.5 0
11829.5 0
11830.5 0
11831.5 0
11832.5 0
11833.5 0
11834.5 0
11835.5 0
11836.5 0
11837.5 0
11838.5 0
11839.5 0
11840.5 0
11841.5 0
11842.5 0
11843.5 0
11844.5 0
11845.5 0
11846.5 0
11847.5 0
11848.5 0
11849.5 0
11850.5 0
11851.5 0
11852.5 0
11853.5 0
11854.5 0
11855.5 0
11856.5 0
11857.5 1
11858.5 0
11859.5 0
11860.5 0
11861.5 0
11862.5 0
11863.5 0
11864.5 0
11865.5 0
11866.5 0
11867.5 0
11868.5 0
11869.5 0
11870.5 0
11871.5 0
11872.5 0
11873.5 0
11874.5 0
11875.5 0
11876.5 0
11877.5 0
11878.5 0
11879.5 0
11880.5 0
11881.5 0
11882.5 0
11883.5 0
11884.5 0
11885.5 0
11886.5 0
11887.5 0
11888.5 0
11889.5 0
11890.5 0
11891.5 0
11892.5 0
11893.5 0
11894.5 0
11895.5 0
11896.5 0
11897.5 0
11898.5 0
11899.5 0
11900.5 0
11901.5 0
11902.5 0
11903.5 0
11904.5 0
11905.5 0
11906.5 0
11907.5 0
11908.5 0
11909.5 0
11910.5 0
11911.5 0
11912.5 0
11913.5 0
11914.5 0
11915.5 0
11916.5 0
11917.5 0
11918.5 0
11919.5 0
11920.5 0
11921.5 0
11922.5 0
11923.5 0
11924.5 0
11925.5 0
11926.5 0
11927.5 0
11928.5 0
11929.5 0
11930.5 0
11931.5 0
11932.5 0
11933.5 0
11934.5 0
11935.5 0
11936.5 0
11937.5 0
11938.5 0
11939.5 0
11940.5 0
11941.5 0
11942.5 0
11943.5 0
11944.5 0
11945.5 0
11946.5 0
11947.5 0
11948.5 0
11949.5 0
11950.5 0
11951.5 0
11952.5 0
11953.5 0
11954.5 0
11955.5 0
11956.5 0
11957.5 0
11958.5 0
11959.5 0
11960.5 0
11961.5 0
11962.5 0
11963.5 0
11964.5 0
11965.5 0
11966.5 0
11967.5 0
11968.5 0
11969.5 0
11970.5 0
11971.5 0
11972.5 0
11973.5 0
11974.5 0
11975.5 0
11976.5 0
11977.5 -0.857143
11978.5 0
11979.5 0
11980.5 0
11981.5 0
11982.5 0
11983.5 0
11984.5 0
11985.5 0
11986.5 0
11987.5 0
11988.5 0
11989.5 0
11990.5 0
11991.5 0
11992.5 0
11993.5 0
11994.5 0
11995.5 0
11996.5 0
11997.5 0
11998.5 0
11999.5 0
