# EGG_ProjY_E2168.5(4.5)_B2130.0(2.0)_B2206.5(1.5)
# X axis : Energy (keV) [Y axis]
# Y axis : Counts/1 keV
# N Bins : 12000
# X Min : 0
# X Max : 12000
# X value at the center of the bins
0.5 0
1.5 0
2.5 0
3.5 0
4.5 0
5.5 -0.571428
6.5 -24
7.5 9
8.5 -14.1429
9.5 14.1429
10.5 16.5714
11.5 5
12.5 -0.857141
13.5 7.85714
14.5 15.2857
15.5 -32.8571
16.5 -19.8571
17.5 1.42858
18.5 -0.285707
19.5 10.2857
20.5 -4.57142
21.5 22.5714
22.5 -20.5714
23.5 7.14287
24.5 57
25.5 80.4286
26.5 115.857
27.5 1.28574
28.5 44.5715
29.5 213.286
30.5 132.286
31.5 182.714
32.5 40.4286
33.5 -59.7142
34.5 203.714
35.5 121.143
36.5 -48.8571
37.5 34.7143
38.5 268.857
39.5 231.286
40.5 96.7143
41.5 -1.1428
42.5 178
43.5 121.572
44.5 243.857
45.5 234.286
46.5 -47
47.5 213.714
48.5 170.571
49.5 214.571
50.5 362.429
51.5 209.429
52.5 153
53.5 307.857
54.5 364.714
55.5 466.857
56.5 309.429
57.5 18.7143
58.5 462
59.5 206.857
60.5 284
61.5 117.143
62.5 74.4286
63.5 -20
64.5 203.857
65.5 -48.5714
66.5 136.714
67.5 34.5715
68.5 115.857
69.5 -30.9999
70.5 -113.857
71.5 38.8572
72.5 250
73.5 -7.14279
74.5 97.5715
75.5 321
76.5 307.429
77.5 399
78.5 112.857
79.5 122.572
80.5 187.143
81.5 78.1429
82.5 32.8572
83.5 115.714
84.5 87.1429
85.5 -17.9999
86.5 44.7144
87.5 204.429
88.5 -136
89.5 -119.857
90.5 -537.286
91.5 -658
92.5 -886.429
93.5 -623.429
94.5 -300
95.5 -72.7142
96.5 -155.143
97.5 136.286
98.5 54.0001
99.5 257.429
100.5 154.571
101.5 227.143
102.5 170
103.5 81.8572
104.5 139.571
105.5 343.143
106.5 122.571
107.5 280.286
108.5 14.5715
109.5 182.429
110.5 -55.1428
111.5 208
112.5 111
113.5 119.571
114.5 215
115.5 72.4286
116.5 289.857
117.5 -76.1428
118.5 95.2858
119.5 30.8572
120.5 148.286
121.5 126.143
122.5 111.143
123.5 227.714
124.5 200
125.5 112.714
126.5 -92.2856
127.5 277.857
128.5 167.429
129.5 312.286
130.5 278.571
131.5 209.286
132.5 219.143
133.5 311.571
134.5 138.143
135.5 188.571
136.5 -14.8571
137.5 101.429
138.5 -66.7142
139.5 -74.9999
140.5 -47.8571
141.5 133
142.5 196.857
143.5 100.286
144.5 54.7144
145.5 82.1429
146.5 105.572
147.5 161.286
148.5 101.714
149.5 1.42864
150.5 23.1429
151.5 29.0001
152.5 162.572
153.5 157.429
154.5 240.714
155.5 51.1429
156.5 286.572
157.5 305.143
158.5 -56.7142
159.5 20.1429
160.5 101.714
161.5 216.572
162.5 221.143
163.5 345.714
164.5 330.143
165.5 158.429
166.5 -103.428
167.5 53.7144
168.5 -107
169.5 -29.5713
170.5 147.143
171.5 32.1429
172.5 169.857
173.5 121.286
174.5 212.286
175.5 499.429
176.5 305.286
177.5 279
178.5 275.572
179.5 175.429
180.5 358.143
181.5 336.572
182.5 545.143
183.5 303.714
184.5 302.286
185.5 8.71436
186.5 145.286
187.5 286.286
188.5 240.572
189.5 128.572
190.5 227.429
191.5 209.429
192.5 300.572
193.5 121.857
194.5 225
195.5 267.714
196.5 80.7144
197.5 173
198.5 61.7144
199.5 97.0001
200.5 -46.7142
201.5 237.572
202.5 266.857
203.5 66.0001
204.5 -117.571
205.5 178.714
206.5 129.143
207.5 21.7144
208.5 48.8572
209.5 335.429
210.5 186.572
211.5 275.714
212.5 113.286
213.5 84.5715
214.5 166.143
215.5 233.286
216.5 152.572
217.5 134
218.5 -54.2856
219.5 80.8572
220.5 -238.286
221.5 -156.428
222.5 -15.9999
223.5 -63.8571
224.5 -176.143
225.5 92.2858
226.5 -358.714
227.5 102.857
228.5 -100.428
229.5 53.0001
230.5 119.572
231.5 -32.2856
232.5 -7.57136
233.5 103.857
234.5 203.429
235.5 176.714
236.5 209.143
237.5 125
238.5 194.714
239.5 110.572
240.5 102.571
241.5 124
242.5 198.714
243.5 152.571
244.5 82.4286
245.5 -79.1428
246.5 112.143
247.5 190.857
248.5 52.7144
249.5 82.1429
250.5 249.429
251.5 218.429
252.5 59.8572
253.5 56.0001
254.5 165
255.5 362.857
256.5 325.143
257.5 592.857
258.5 264.714
259.5 568.857
260.5 386.429
261.5 301.571
262.5 484.143
263.5 435.143
264.5 406.429
265.5 358.143
266.5 327.143
267.5 363.286
268.5 455.143
269.5 200.857
270.5 426.571
271.5 293.143
272.5 287
273.5 311.143
274.5 286.286
275.5 328
276.5 298.143
277.5 342.714
278.5 255.714
279.5 300.429
280.5 413.286
281.5 143.857
282.5 30.8572
283.5 -42.4285
284.5 -76.9999
285.5 68.5715
286.5 -26.8571
287.5 -28.2857
288.5 -120.571
289.5 53.0001
290.5 172.714
291.5 155.857
292.5 137.857
293.5 100
294.5 -12.1428
295.5 131.714
296.5 -88.9999
297.5 21.0001
298.5 -2.99994
299.5 56.1429
300.5 -27.4285
301.5 -58.9999
302.5 -43.8571
303.5 59.5715
304.5 81.5715
305.5 -18.7142
306.5 -117
307.5 -82.4285
308.5 -97.8571
309.5 -268.857
310.5 -387.143
311.5 -371.714
312.5 -465.571
313.5 -251.857
314.5 -365.857
315.5 -136.429
316.5 -135.571
317.5 101.429
318.5 -63.8571
319.5 80.0001
320.5 -9.57138
321.5 -27.5714
322.5 103.857
323.5 213.429
324.5 277.857
325.5 159.429
326.5 193.143
327.5 263.714
328.5 256.429
329.5 325.429
330.5 424.429
331.5 38.0001
332.5 212.286
333.5 124.714
334.5 225
335.5 221.143
336.5 211.429
337.5 69.2858
338.5 -8.85709
339.5 170.429
340.5 146
341.5 247
342.5 304.286
343.5 120.143
344.5 309.143
345.5 305.857
346.5 605.429
347.5 823.286
348.5 724.429
349.5 696.857
350.5 814.143
351.5 763.429
352.5 766.429
353.5 566.857
354.5 536.571
355.5 438.571
356.5 543.143
357.5 177.143
358.5 226.429
359.5 260.571
360.5 425.857
361.5 373.286
362.5 296.286
363.5 237
364.5 170.714
365.5 55.4286
366.5 62.4286
367.5 -29
368.5 -104.857
369.5 -16.5714
370.5 54.8572
371.5 111.857
372.5 -33.2857
373.5 -14.1428
374.5 -38.5714
375.5 192.143
376.5 143.714
377.5 269.286
378.5 34.8572
379.5 24.1429
380.5 13.7143
381.5 96.8572
382.5 104.714
383.5 -50.2857
384.5 72.5715
385.5 -72.2857
386.5 -426.714
387.5 -418.571
388.5 -438.429
389.5 -250
390.5 -206.571
391.5 3.42861
392.5 71.1429
393.5 -103
394.5 -2.14282
395.5 -48
396.5 -193.286
397.5 -145.429
398.5 -281.571
399.5 -35
400.5 -127.286
401.5 -65.4285
402.5 -184.286
403.5 -450.428
404.5 -583.143
405.5 -5.28566
406.5 -108.429
407.5 155.714
408.5 84
409.5 59.1429
410.5 -88.5714
411.5 -129.286
412.5 -15.8571
413.5 -165.286
414.5 4.85718
415.5 43.7143
416.5 60.7143
417.5 -96.4285
418.5 152.429
419.5 92.4286
420.5 114
421.5 133.143
422.5 85.2857
423.5 81.5715
424.5 226.714
425.5 126.286
426.5 -12.1428
427.5 199.571
428.5 -67.8571
429.5 135
430.5 17.8572
431.5 58.5715
432.5 207.143
433.5 56.5715
434.5 136.571
435.5 208.286
436.5 191.143
437.5 284.857
438.5 241.857
439.5 152.571
440.5 217.857
441.5 182.286
442.5 325.571
443.5 167.857
444.5 100.714
445.5 336
446.5 295.571
447.5 380.429
448.5 301.714
449.5 190.571
450.5 360.714
451.5 194.143
452.5 224.857
453.5 236
454.5 93.5715
455.5 135.143
456.5 -12.4285
457.5 65.1429
458.5 4.57146
459.5 85.5715
460.5 7.4286
461.5 -16.1428
462.5 -3.5714
463.5 98.5715
464.5 127.714
465.5 -15.7143
466.5 8.28575
467.5 230
468.5 209.286
469.5 -7.5714
470.5 59.2857
471.5 103.286
472.5 -14.5714
473.5 -3.28568
474.5 14.8572
475.5 61.7143
476.5 20.2858
477.5 84.8572
478.5 2.42861
479.5 136.429
480.5 -51.1428
481.5 -10.2857
482.5 -81.1428
483.5 115.429
484.5 230.571
485.5 8.57146
486.5 -86
487.5 -0.999967
488.5 -61
489.5 33.1429
490.5 42.2857
491.5 25.7143
492.5 267.714
493.5 141.714
494.5 128.571
495.5 120.571
496.5 157.429
497.5 172.857
498.5 52.2857
499.5 90
500.5 24.8572
501.5 151.286
502.5 185.143
503.5 87.1429
504.5 104
505.5 25.4286
506.5 206.714
507.5 377.429
508.5 663.572
509.5 719
510.5 1183.43
511.5 706.857
512.5 200.572
513.5 -103.286
514.5 -120.143
515.5 1.57146
516.5 -46.8571
517.5 -63
518.5 4.28575
519.5 65.2857
520.5 100.857
521.5 146.143
522.5 5.4286
523.5 -19.4285
524.5 -13.1428
525.5 -126.714
526.5 -99.2857
527.5 -28.2857
528.5 140
529.5 56.8572
530.5 -0.285688
531.5 48.2857
532.5 66.5715
533.5 87
534.5 74.2857
535.5 -30.2857
536.5 75.2857
537.5 -40.4285
538.5 -6.28569
539.5 -10.5714
540.5 28.8572
541.5 96.4286
542.5 73.4286
543.5 118.143
544.5 97.4286
545.5 59.8572
546.5 197.571
547.5 153.571
548.5 272.143
549.5 351.714
550.5 311.857
551.5 356.429
552.5 308.429
553.5 354.714
554.5 297
555.5 316.429
556.5 275
557.5 270.571
558.5 137.429
559.5 94.8572
560.5 178.714
561.5 133
562.5 103.429
563.5 202.429
564.5 129.143
565.5 -37.1428
566.5 167.857
567.5 118.714
568.5 57.1429
569.5 93.7143
570.5 85.7143
571.5 154.286
572.5 70
573.5 141.429
574.5 143
575.5 100.857
576.5 131.143
577.5 59.4286
578.5 85.7143
579.5 -9.5714
580.5 108.714
581.5 36.8572
582.5 128.286
583.5 332.286
584.5 19.2858
585.5 208.857
586.5 75.4286
587.5 86.1429
588.5 -166.857
589.5 -68
590.5 -118.143
591.5 -40.8571
592.5 -72.7143
593.5 -19.8571
594.5 -47.5714
595.5 -33.8571
596.5 -72.8571
597.5 -1.85712
598.5 104.857
599.5 21.1429
600.5 124.143
601.5 0.714308
602.5 56.4286
603.5 -75.4285
604.5 153.571
605.5 78.8572
606.5 -23.5714
607.5 179
608.5 77
609.5 33
610.5 -48.2857
611.5 -22.5714
612.5 64.1429
613.5 93.1429
614.5 95.8572
615.5 107.714
616.5 26
617.5 147.571
618.5 49.2857
619.5 70.1429
620.5 126
621.5 148.143
622.5 -40.8571
623.5 -82.1428
624.5 67.1429
625.5 82.1429
626.5 4.4286
627.5 154.714
628.5 127.857
629.5 199.857
630.5 5.4286
631.5 120.143
632.5 104.286
633.5 38.8572
634.5 88.2857
635.5 -40.2857
636.5 -152.857
637.5 -129.286
638.5 -148.857
639.5 54
640.5 30
641.5 133
642.5 37.7143
643.5 123.571
644.5 -11.8571
645.5 52.7143
646.5 240.286
647.5 105
648.5 -2.28569
649.5 95.8572
650.5 13.7143
651.5 113.857
652.5 126.429
653.5 3.4286
654.5 12.5715
655.5 55.1429
656.5 -14.2857
657.5 166.143
658.5 99.8572
659.5 0.57145
660.5 220.857
661.5 85.5714
662.5 22.7143
663.5 -0.428548
664.5 -16.5714
665.5 3.85717
666.5 75.7143
667.5 50.5715
668.5 71
669.5 88.7143
670.5 144.286
671.5 148.429
672.5 135
673.5 -10.8571
674.5 193.571
675.5 190.286
676.5 106.857
677.5 146.571
678.5 159.429
679.5 194.571
680.5 32.8572
681.5 29.4286
682.5 76.7143
683.5 73.8572
684.5 17.7143
685.5 59.5714
686.5 63.5714
687.5 102.143
688.5 52.8572
689.5 165.429
690.5 130.571
691.5 43.8572
692.5 37
693.5 68.7143
694.5 149.286
695.5 58.4286
696.5 46.8572
697.5 -6.42855
698.5 120.429
699.5 127.143
700.5 62.7143
701.5 47.4286
702.5 37.8572
703.5 91.4286
704.5 173
705.5 37.2857
706.5 161.571
707.5 -3.14284
708.5 39.2857
709.5 82.8572
710.5 -2.57141
711.5 -16.7143
712.5 20.1429
713.5 -92.4286
714.5 -8.71427
715.5 -25.1428
716.5 -76.5714
717.5 -25
718.5 210.571
719.5 106.857
720.5 136.571
721.5 112.286
722.5 192.857
723.5 77.2857
724.5 125.143
725.5 3.85717
726.5 30.4286
727.5 3.85717
728.5 115.714
729.5 162.286
730.5 58
731.5 33.2857
732.5 26.5714
733.5 1.85716
734.5 29.8572
735.5 -60.1428
736.5 45.2857
737.5 -155.857
738.5 2.42859
739.5 -142.857
740.5 -99.7143
741.5 91.4286
742.5 22.2857
743.5 58.2857
744.5 22.8572
745.5 155.429
746.5 195
747.5 122.857
748.5 59.2857
749.5 68.4286
750.5 -15.1428
751.5 120.714
752.5 113.714
753.5 81.2857
754.5 77
755.5 19.2857
756.5 -8.71427
757.5 128.857
758.5 102.429
759.5 313.571
760.5 1113.29
761.5 1019.14
762.5 524.286
763.5 138.143
764.5 94.5714
765.5 169.143
766.5 61.4286
767.5 15.4286
768.5 90.5714
769.5 167
770.5 250
771.5 66.1429
772.5 51.7143
773.5 202.857
774.5 231.286
775.5 270.429
776.5 273.571
777.5 273
778.5 200
779.5 320.429
780.5 119
781.5 198.714
782.5 257.429
783.5 209.143
784.5 46.1429
785.5 208.286
786.5 86.5714
787.5 129.714
788.5 191.429
789.5 21.4286
790.5 164.286
791.5 104.143
792.5 98.1429
793.5 157
794.5 -24.4286
795.5 -24.1428
796.5 71.2857
797.5 49
798.5 -6.14284
799.5 54.4286
800.5 50
801.5 194
802.5 137.143
803.5 103
804.5 37
805.5 -73
806.5 -15.4285
807.5 -99.5714
808.5 -41.1428
809.5 64.5714
810.5 -14.5714
811.5 64.7143
812.5 -16.5714
813.5 -80.5714
814.5 -145.714
815.5 -61.2857
816.5 -53.4286
817.5 -20.2857
818.5 61.7143
819.5 36.1429
820.5 26
821.5 92.7143
822.5 -66.8571
823.5 66
824.5 15.2857
825.5 -42.1428
826.5 110
827.5 48.2857
828.5 40.2857
829.5 -2.71427
830.5 -41.1428
831.5 -52.7143
832.5 47.1429
833.5 28.1429
834.5 59.1429
835.5 215
836.5 134.714
837.5 140.857
838.5 132.571
839.5 105.143
840.5 99
841.5 135.286
842.5 158
843.5 82.7143
844.5 82.8572
845.5 4.42859
846.5 58.5714
847.5 150
848.5 51.7143
849.5 66.2857
850.5 36.8572
851.5 18.4286
852.5 -36.4286
853.5 152.429
854.5 51.7143
855.5 98.5714
856.5 73.1429
857.5 188.857
858.5 -2.14284
859.5 139.571
860.5 45.4286
861.5 44.5714
862.5 148
863.5 125.143
864.5 82.7143
865.5 361.571
866.5 206.286
867.5 348.857
868.5 474
869.5 490.286
870.5 357.286
871.5 220.143
872.5 182.286
873.5 154.714
874.5 94.7143
875.5 3.85717
876.5 -37.5714
877.5 268.571
878.5 138.571
879.5 30.8572
880.5 76.1429
881.5 214.143
882.5 125.857
883.5 100.714
884.5 73.1429
885.5 121.286
886.5 121
887.5 108.143
888.5 130.143
889.5 147
890.5 183.143
891.5 135
892.5 153.571
893.5 92.8572
894.5 42.8572
895.5 56.7143
896.5 54.8572
897.5 122.286
898.5 11.7143
899.5 159.143
900.5 51.4286
901.5 61.1429
902.5 -3.71426
903.5 125.857
904.5 61.4286
905.5 37.7143
906.5 149.143
907.5 22
908.5 37.4286
909.5 116.857
910.5 84.4286
911.5 15
912.5 112.571
913.5 50.4286
914.5 158
915.5 166.714
916.5 226.714
917.5 17
918.5 108.571
919.5 -44.7143
920.5 85.7143
921.5 65.4286
922.5 27.4286
923.5 -27.7143
924.5 88.4286
925.5 182
926.5 148
927.5 0.14288
928.5 21.2857
929.5 161.857
930.5 101.143
931.5 91.4286
932.5 -40
933.5 133.286
934.5 77.2857
935.5 47.8572
936.5 22.2857
937.5 78.1429
938.5 145.429
939.5 128
940.5 228.571
941.5 17.1429
942.5 56.5715
943.5 52
944.5 150.429
945.5 64.7143
946.5 68
947.5 104.571
948.5 -0.571408
949.5 91.1429
950.5 75.8572
951.5 53.4286
952.5 66.7143
953.5 94.4286
954.5 116.857
955.5 150.714
956.5 2.7143
957.5 83.1429
958.5 83
959.5 100.286
960.5 87.1429
961.5 89.1429
962.5 135.143
963.5 91.4286
964.5 95
965.5 249.286
966.5 177.429
967.5 155.857
968.5 194.286
969.5 -6.2857
970.5 51
971.5 91.8572
972.5 186.571
973.5 87
974.5 67.5714
975.5 47.4286
976.5 16
977.5 49.2857
978.5 110.286
979.5 77.1429
980.5 24.1429
981.5 3.7143
982.5 -36.2857
983.5 54.7143
984.5 -0.142836
985.5 57.2857
986.5 68.7143
987.5 97.5714
988.5 -5.42856
989.5 120.286
990.5 -40.8571
991.5 71.1429
992.5 104.286
993.5 98.4286
994.5 73.4286
995.5 54.8572
996.5 146.286
997.5 177.429
998.5 44.2857
999.5 164.714
1000.5 443.429
1001.5 677.714
1002.5 465.429
1003.5 219.857
1004.5 136.429
1005.5 -2.2857
1006.5 13.5714
1007.5 -60.7143
1008.5 -83.8571
1009.5 57
1010.5 58.7143
1011.5 58.2857
1012.5 22.5714
1013.5 -9.71427
1014.5 69
1015.5 28.5714
1016.5 89.5714
1017.5 99.7143
1018.5 22.4286
1019.5 109.286
1020.5 68.8572
1021.5 35.2857
1022.5 114
1023.5 96
1024.5 -38.4285
1025.5 120.286
1026.5 31
1027.5 -45.1428
1028.5 38.7143
1029.5 105.429
1030.5 -47.1428
1031.5 49.2857
1032.5 26.4286
1033.5 65.5714
1034.5 134.286
1035.5 119.143
1036.5 15
1037.5 70.1429
1038.5 171.429
1039.5 -34.1428
1040.5 99.1429
1041.5 45.7143
1042.5 48.5714
1043.5 46
1044.5 13.4286
1045.5 -9.71427
1046.5 -31.7143
1047.5 61.8572
1048.5 -24.7143
1049.5 -165.143
1050.5 -214.143
1051.5 -112.286
1052.5 12.8572
1053.5 108.286
1054.5 -5.2857
1055.5 31.1429
1056.5 -18.2857
1057.5 170
1058.5 45.2857
1059.5 79.7143
1060.5 75.8572
1061.5 21
1062.5 49.5714
1063.5 47
1064.5 89.7143
1065.5 -56
1066.5 42
1067.5 69.8572
1068.5 49.5714
1069.5 24.7143
1070.5 85.8572
1071.5 151.429
1072.5 394.714
1073.5 692.286
1074.5 654.857
1075.5 413.429
1076.5 140.429
1077.5 34.5714
1078.5 53.7143
1079.5 12.7143
1080.5 10.5714
1081.5 36.5714
1082.5 97.5714
1083.5 80.4286
1084.5 8.57144
1085.5 40
1086.5 89.5714
1087.5 27.4286
1088.5 42.8572
1089.5 29.1429
1090.5 59.4286
1091.5 25.4286
1092.5 57.1429
1093.5 8.00001
1094.5 132.429
1095.5 37.2857
1096.5 65.5714
1097.5 50.4286
1098.5 37
1099.5 -78.8571
1100.5 57.5714
1101.5 28.2857
1102.5 45
1103.5 51.7143
1104.5 -1.42856
1105.5 94.8572
1106.5 -37.4286
1107.5 11.5714
1108.5 11
1109.5 -99.4286
1110.5 62.4286
1111.5 30.8572
1112.5 -18
1113.5 -4.57142
1114.5 -37.2857
1115.5 54.8572
1116.5 -60.8571
1117.5 62.2857
1118.5 29.7143
1119.5 -36.1428
1120.5 -48.5714
1121.5 3.00001
1122.5 70
1123.5 240.429
1124.5 1480.57
1125.5 3614.14
1126.5 3423
1127.5 1533.29
1128.5 298.714
1129.5 158.714
1130.5 -12.7143
1131.5 26.5714
1132.5 28.8572
1133.5 40.8572
1134.5 34.1429
1135.5 62.1429
1136.5 -11.8571
1137.5 43.5714
1138.5 -5.42856
1139.5 21.5714
1140.5 43.4286
1141.5 -21.8571
1142.5 38.1429
1143.5 30.7143
1144.5 9.57144
1145.5 42.7143
1146.5 -14.4286
1147.5 70.7143
1148.5 50.7143
1149.5 22.2857
1150.5 25.1429
1151.5 -8.71428
1152.5 65
1153.5 128.714
1154.5 259.714
1155.5 582.858
1156.5 2233
1157.5 3100.29
1158.5 790.429
1159.5 371.429
1160.5 28.8572
1161.5 84.7143
1162.5 61.8572
1163.5 -20.5714
1164.5 37.5714
1165.5 21.4286
1166.5 43
1167.5 25
1168.5 26.2857
1169.5 32.1429
1170.5 3.57144
1171.5 54
1172.5 -8.57142
1173.5 68.7143
1174.5 7.00001
1175.5 45.8571
1176.5 -5.71428
1177.5 35.5714
1178.5 21.1429
1179.5 36.5714
1180.5 -3.71428
1181.5 -94.2857
1182.5 -64.5714
1183.5 -6.71427
1184.5 12.7143
1185.5 60.2857
1186.5 20.8572
1187.5 56.5714
1188.5 33
1189.5 -2.99999
1190.5 -53.8571
1191.5 -64.4286
1192.5 -3.42856
1193.5 -6.14285
1194.5 90.5714
1195.5 55.4286
1196.5 37.8571
1197.5 57
1198.5 22.7143
1199.5 35.4286
1200.5 -19.4286
1201.5 22.2857
1202.5 -33.8571
1203.5 -73.8571
1204.5 47.4286
1205.5 -44.7143
1206.5 79.5714
1207.5 38
1208.5 41.8571
1209.5 47.4286
1210.5 6.00001
1211.5 26.8571
1212.5 -32.7143
1213.5 45.4286
1214.5 64.4286
1215.5 11.7143
1216.5 45.2857
1217.5 102.857
1218.5 34.5714
1219.5 45.4286
1220.5 -6.28571
1221.5 7.71429
1222.5 16.2857
1223.5 -6.57142
1224.5 18.4286
1225.5 53.1429
1226.5 134.143
1227.5 134.429
1228.5 87.5714
1229.5 7.42858
1230.5 53.8572
1231.5 44.4286
1232.5 22
1233.5 -53.7143
1234.5 19.1429
1235.5 21.1429
1236.5 75.7143
1237.5 13
1238.5 22.4286
1239.5 6.71429
1240.5 28.2857
1241.5 20.2857
1242.5 60.2857
1243.5 60.7143
1244.5 57
1245.5 -5.57142
1246.5 12.2857
1247.5 22.5714
1248.5 15.7143
1249.5 14.2857
1250.5 6.14286
1251.5 39.5714
1252.5 52.2857
1253.5 5.42858
1254.5 -24.2857
1255.5 48.1429
1256.5 58.7143
1257.5 -54.7143
1258.5 15.4286
1259.5 15.7143
1260.5 72.4286
1261.5 121.429
1262.5 66.5714
1263.5 -35.5714
1264.5 33.7143
1265.5 50.4286
1266.5 21.7143
1267.5 3.42858
1268.5 -0.714278
1269.5 -4.85714
1270.5 33.7143
1271.5 59.1429
1272.5 29.8571
1273.5 69.7143
1274.5 31
1275.5 54.4286
1276.5 110.571
1277.5 75
1278.5 -0.571421
1279.5 37.2857
1280.5 32
1281.5 119.857
1282.5 42.5714
1283.5 139.714
1284.5 3.00001
1285.5 6.42858
1286.5 53
1287.5 33.2857
1288.5 48.1429
1289.5 -12.1429
1290.5 40
1291.5 30.7143
1292.5 0.571435
1293.5 11.7143
1294.5 22.1429
1295.5 5.00001
1296.5 9.71429
1297.5 21.4286
1298.5 23.7143
1299.5 57
1300.5 21.1429
1301.5 23.5714
1302.5 -17.8571
1303.5 -0.142851
1304.5 4.85715
1305.5 64.2857
1306.5 5.28572
1307.5 50.5714
1308.5 19.1429
1309.5 12.1429
1310.5 -28.1428
1311.5 39.8571
1312.5 82.8571
1313.5 24.1429
1314.5 8.42858
1315.5 33.5714
1316.5 -1.14285
1317.5 41.7143
1318.5 -26.8571
1319.5 -6.14285
1320.5 6.57143
1321.5 17
1322.5 44.7143
1323.5 -0.428564
1324.5 26.1429
1325.5 -20.2857
1326.5 16.2857
1327.5 27.8571
1328.5 -56.7143
1329.5 84.8571
1330.5 130.429
1331.5 39.1429
1332.5 19.1429
1333.5 77.2857
1334.5 20.1429
1335.5 12.2857
1336.5 -29.8571
1337.5 -17.5714
1338.5 50
1339.5 12.8571
1340.5 44.5714
1341.5 59.8571
1342.5 13.4286
1343.5 -5.99999
1344.5 -3.99999
1345.5 22.8571
1346.5 20.5714
1347.5 35.2857
1348.5 -22.7143
1349.5 52.2857
1350.5 -5.57142
1351.5 50.2857
1352.5 -0.285707
1353.5 2.42858
1354.5 -4.14285
1355.5 -20.8571
1356.5 -12.7143
1357.5 39.1429
1358.5 -13
1359.5 82.8571
1360.5 17.8571
1361.5 9.42858
1362.5 25.7143
1363.5 8.71429
1364.5 64.8571
1365.5 0.714292
1366.5 49.1429
1367.5 9.14286
1368.5 1.28572
1369.5 74.1429
1370.5 6.19888e-06
1371.5 -18
1372.5 0.571436
1373.5 8.42858
1374.5 23.8571
1375.5 -21.5714
1376.5 7.57144
1377.5 42.2857
1378.5 -0.142851
1379.5 -2.57142
1380.5 93.1429
1381.5 -37.7143
1382.5 -40.7143
1383.5 -23.2857
1384.5 26.4286
1385.5 35
1386.5 -26.2857
1387.5 2.71429
1388.5 51
1389.5 42.4286
1390.5 98.4286
1391.5 31
1392.5 42.1429
1393.5 -13.1429
1394.5 52
1395.5 -37.4286
1396.5 -21.2857
1397.5 3.28572
1398.5 -8.42857
1399.5 46.8571
1400.5 22.4286
1401.5 37.1429
1402.5 -5.28571
1403.5 -39.4286
1404.5 -0.71428
1405.5 22.5714
1406.5 -11.1429
1407.5 2.42858
1408.5 -46.4286
1409.5 10.7143
1410.5 31.4286
1411.5 14.1429
1412.5 -56.4286
1413.5 21.8571
1414.5 85.1429
1415.5 41.5714
1416.5 38.8571
1417.5 83.5714
1418.5 9.71429
1419.5 73.1429
1420.5 -45.8571
1421.5 75.8571
1422.5 9.42858
1423.5 -8.42857
1424.5 80.4286
1425.5 69.7143
1426.5 47.4286
1427.5 110.857
1428.5 153.286
1429.5 60
1430.5 46.5714
1431.5 71.2857
1432.5 39
1433.5 76.2857
1434.5 54.1429
1435.5 18.7143
1436.5 -0.71428
1437.5 -45.4286
1438.5 -62.2857
1439.5 2.85715
1440.5 22.1429
1441.5 18.1429
1442.5 32
1443.5 67.2857
1444.5 23.7143
1445.5 53.5714
1446.5 -29.4286
1447.5 12.7143
1448.5 84.1429
1449.5 -29.2857
1450.5 38
1451.5 -30.5714
1452.5 -21.1429
1453.5 18
1454.5 -30.2857
1455.5 29.4286
1456.5 38.2857
1457.5 -33.2857
1458.5 46.7143
1459.5 -38.4286
1460.5 27.1429
1461.5 58.7143
1462.5 110.571
1463.5 82.8571
1464.5 -19
1465.5 -15.8571
1466.5 26.8571
1467.5 -0.71428
1468.5 -21.8571
1469.5 20.1429
1470.5 22.5714
1471.5 16.8571
1472.5 4.71429
1473.5 44
1474.5 68.8571
1475.5 81.7143
1476.5 -45.5714
1477.5 -8.42857
1478.5 7.14286
1479.5 6.85715
1480.5 88.4286
1481.5 17.4286
1482.5 -24.1429
1483.5 12.2857
1484.5 -2.99999
1485.5 -5.42857
1486.5 -19.1429
1487.5 52.8571
1488.5 18.7143
1489.5 36.2857
1490.5 -9.85714
1491.5 -23.4286
1492.5 -8.42857
1493.5 29.4286
1494.5 27.1429
1495.5 18.1429
1496.5 -14
1497.5 -145.714
1498.5 -355.714
1499.5 -477
1500.5 -346.143
1501.5 -116.286
1502.5 16.1429
1503.5 10
1504.5 25.5714
1505.5 72.5714
1506.5 16.4286
1507.5 -2.14285
1508.5 48.1429
1509.5 -21.4286
1510.5 36.5714
1511.5 55.1429
1512.5 26.1429
1513.5 59.5714
1514.5 -9.14285
1515.5 10.1429
1516.5 11.1429
1517.5 72.7143
1518.5 5.28572
1519.5 -24
1520.5 22.8571
1521.5 23.4286
1522.5 -14
1523.5 23
1524.5 10.7143
1525.5 3.14286
1526.5 -35.7143
1527.5 -2.14285
1528.5 -3.85714
1529.5 5
1530.5 76.2857
1531.5 24.1429
1532.5 -16.7143
1533.5 70.1429
1534.5 48.5714
1535.5 99.7143
1536.5 -4.14285
1537.5 51
1538.5 227
1539.5 355.714
1540.5 245
1541.5 87.8572
1542.5 100.714
1543.5 18.7143
1544.5 5.14286
1545.5 -19.4286
1546.5 15.1429
1547.5 58.2857
1548.5 60.2857
1549.5 31.4286
1550.5 -41.2857
1551.5 -41.2857
1552.5 27.2857
1553.5 -19.4286
1554.5 10.7143
1555.5 17.7143
1556.5 20.2857
1557.5 59.2857
1558.5 64.1429
1559.5 68.8571
1560.5 39.4286
1561.5 6.71429
1562.5 13.2857
1563.5 62.4286
1564.5 91.5714
1565.5 -17.5714
1566.5 16.7143
1567.5 -14.2857
1568.5 9.85715
1569.5 77.2857
1570.5 24
1571.5 -24.2857
1572.5 -10.7143
1573.5 -51.2857
1574.5 19.1429
1575.5 53.8571
1576.5 102.571
1577.5 141
1578.5 49
1579.5 41.1429
1580.5 19
1581.5 39
1582.5 -38
1583.5 10.5714
1584.5 13.1429
1585.5 4.14286
1586.5 -20.7143
1587.5 -20
1588.5 -45.1428
1589.5 -94.4286
1590.5 -29.5714
1591.5 -6.85714
1592.5 8.71429
1593.5 57.4286
1594.5 -12.7143
1595.5 -18.2857
1596.5 -24.5714
1597.5 -79.7143
1598.5 -20.7143
1599.5 46.7143
1600.5 30
1601.5 30.2857
1602.5 25
1603.5 22.7143
1604.5 60.4286
1605.5 4.14286
1606.5 -3
1607.5 34.2857
1608.5 17.1429
1609.5 49.2857
1610.5 29.7143
1611.5 29.1429
1612.5 1
1613.5 6
1614.5 14.1429
1615.5 89.5714
1616.5 31.1429
1617.5 -19.8571
1618.5 18.5714
1619.5 -4.42857
1620.5 17.2857
1621.5 0.142864
1622.5 -52.1428
1623.5 52.2857
1624.5 -23.7143
1625.5 3.57144
1626.5 36
1627.5 -41.4286
1628.5 -22.7143
1629.5 90.2857
1630.5 85.7143
1631.5 88.5714
1632.5 -1.42856
1633.5 -50.8571
1634.5 47.1429
1635.5 45.7143
1636.5 37.2857
1637.5 23.1429
1638.5 2.14286
1639.5 63
1640.5 51.1429
1641.5 58.4286
1642.5 195.286
1643.5 130.286
1644.5 37.4286
1645.5 35.8571
1646.5 41.8572
1647.5 31.1429
1648.5 19.1429
1649.5 51.1429
1650.5 22.2857
1651.5 42.1429
1652.5 -27.7143
1653.5 7.42858
1654.5 76.7143
1655.5 -11.4286
1656.5 0.28572
1657.5 -102.429
1658.5 5.71429
1659.5 -9.85713
1660.5 -6.99999
1661.5 55.5714
1662.5 32.1429
1663.5 36.4286
1664.5 67.8571
1665.5 26
1666.5 -21.2857
1667.5 1.85715
1668.5 58.2857
1669.5 -15.4286
1670.5 -1.42857
1671.5 51.5714
1672.5 14.2857
1673.5 -27
1674.5 31.5714
1675.5 27.7143
1676.5 -15
1677.5 -5.85714
1678.5 -15.5714
1679.5 -68.4286
1680.5 3
1681.5 54.2857
1682.5 -2.57142
1683.5 16.1429
1684.5 20.8571
1685.5 38.4286
1686.5 43
1687.5 42.5714
1688.5 -28.1429
1689.5 36.1429
1690.5 -25.8571
1691.5 15.7143
1692.5 -49.4286
1693.5 5.00679e-06
1694.5 34
1695.5 42
1696.5 8.14286
1697.5 -12.5714
1698.5 63.8571
1699.5 62.7143
1700.5 -35.5714
1701.5 39.4286
1702.5 -25.1429
1703.5 -1.71428
1704.5 45.1429
1705.5 -4.85714
1706.5 1.57143
1707.5 12.8571
1708.5 60.4286
1709.5 -3.99999
1710.5 -6.28571
1711.5 22.8571
1712.5 3.71429
1713.5 25
1714.5 50.5714
1715.5 18
1716.5 -65
1717.5 0.142863
1718.5 -39.1429
1719.5 -92.1429
1720.5 16.8571
1721.5 -1.71428
1722.5 61.5714
1723.5 49
1724.5 -12.4286
1725.5 -44.4286
1726.5 9.7143
1727.5 16.2857
1728.5 39.2857
1729.5 52.5714
1730.5 -45.1429
1731.5 -21.1429
1732.5 15.4286
1733.5 63.7143
1734.5 48.1429
1735.5 46
1736.5 16.5714
1737.5 5.85715
1738.5 42.4286
1739.5 50.1429
1740.5 54.8571
1741.5 -6.85714
1742.5 18
1743.5 -13.1429
1744.5 41.7143
1745.5 44
1746.5 -6.42857
1747.5 -14
1748.5 33
1749.5 13.1429
1750.5 7.85715
1751.5 -12.7143
1752.5 46.7143
1753.5 68
1754.5 133.857
1755.5 -19.4286
1756.5 -32
1757.5 38.7143
1758.5 -1.42857
1759.5 -4.71428
1760.5 66.5714
1761.5 12
1762.5 -28.2857
1763.5 35
1764.5 -60.4286
1765.5 12.7143
1766.5 26
1767.5 7
1768.5 26.8571
1769.5 55.4286
1770.5 9.14286
1771.5 61.2857
1772.5 31.5714
1773.5 -33.5714
1774.5 -10.8571
1775.5 -48.4286
1776.5 3.14286
1777.5 28.5714
1778.5 -26.5714
1779.5 9.57143
1780.5 72.4286
1781.5 25.8571
1782.5 44.2857
1783.5 -25.7143
1784.5 -15.4286
1785.5 52.4286
1786.5 -10.7143
1787.5 29.5714
1788.5 -16.2857
1789.5 32.4286
1790.5 -12.1429
1791.5 76.7143
1792.5 -23.1429
1793.5 53.5714
1794.5 31.5714
1795.5 35
1796.5 48.4286
1797.5 -44
1798.5 15.1429
1799.5 29.2857
1800.5 -6
1801.5 13.5714
1802.5 34.7143
1803.5 -7.85714
1804.5 17.1429
1805.5 8.14286
1806.5 36.5714
1807.5 26.1429
1808.5 61.2857
1809.5 83.1429
1810.5 43
1811.5 -13.1429
1812.5 64
1813.5 23.1429
1814.5 3.57143
1815.5 70
1816.5 26.7143
1817.5 72.5714
1818.5 -6.57142
1819.5 37.2857
1820.5 40.4286
1821.5 -32.2857
1822.5 29.8571
1823.5 -31.1429
1824.5 41.4286
1825.5 -23.5714
1826.5 15.1429
1827.5 -6.42857
1828.5 -10.4286
1829.5 5.57143
1830.5 16.1429
1831.5 -5.28571
1832.5 -26.8571
1833.5 36
1834.5 69.8571
1835.5 62.8571
1836.5 -6.57142
1837.5 1.57143
1838.5 -38
1839.5 3.14286
1840.5 49.4286
1841.5 8.14286
1842.5 11.8571
1843.5 4.85715
1844.5 -9.71428
1845.5 -26.5714
1846.5 -6
1847.5 47.1429
1848.5 53.4286
1849.5 -31.4286
1850.5 34.7143
1851.5 39.8571
1852.5 62.4286
1853.5 17.2857
1854.5 36.7143
1855.5 -19.1429
1856.5 3.42858
1857.5 -3.28571
1858.5 41.8571
1859.5 -4.42857
1860.5 101.286
1861.5 42
1862.5 9.85715
1863.5 23.8571
1864.5 4.42858
1865.5 71.4286
1866.5 66.2857
1867.5 15.4286
1868.5 21.1429
1869.5 -0.999995
1870.5 69.5714
1871.5 -13.2857
1872.5 -45
1873.5 29.1429
1874.5 44.5714
1875.5 -43.5714
1876.5 -1.42857
1877.5 3.71429
1878.5 -23
1879.5 -16.8571
1880.5 18
1881.5 39.5714
1882.5 62.8571
1883.5 43.5714
1884.5 91.1429
1885.5 249.857
1886.5 324.429
1887.5 542.857
1888.5 231.143
1889.5 86.7143
1890.5 16.4286
1891.5 21.1429
1892.5 36
1893.5 -16.8571
1894.5 -22.8571
1895.5 0.857147
1896.5 0.428575
1897.5 8.28572
1898.5 -3
1899.5 -45.8571
1900.5 -29.4286
1901.5 21.4286
1902.5 -8.14285
1903.5 -1.28571
1904.5 3.28572
1905.5 -7
1906.5 38.5714
1907.5 11.8571
1908.5 -1.57142
1909.5 10
1910.5 8
1911.5 -20.1429
1912.5 6.14286
1913.5 -40.2857
1914.5 -13.2857
1915.5 24.1429
1916.5 9.42858
1917.5 59.8571
1918.5 6.85715
1919.5 65.5714
1920.5 -16
1921.5 -38.5714
1922.5 -22.8571
1923.5 -13.4286
1924.5 31.5714
1925.5 7.85715
1926.5 -23
1927.5 -29.4286
1928.5 -15.2857
1929.5 8.42858
1930.5 46.8571
1931.5 58.4286
1932.5 105.857
1933.5 -18.4286
1934.5 20.7143
1935.5 -17
1936.5 16.7143
1937.5 56.2857
1938.5 26.2857
1939.5 -18.7143
1940.5 25.1429
1941.5 36.4286
1942.5 117.714
1943.5 30.2857
1944.5 25
1945.5 -19.5714
1946.5 -36.8571
1947.5 -2.85714
1948.5 17.7143
1949.5 -2.42857
1950.5 -3.99999
1951.5 -41.1429
1952.5 -16.2857
1953.5 -23
1954.5 6.85715
1955.5 -51.2857
1956.5 25.2857
1957.5 -17.8571
1958.5 23.2857
1959.5 19
1960.5 -11.5714
1961.5 7.71429
1962.5 15.5714
1963.5 33.4286
1964.5 68
1965.5 47
1966.5 19
1967.5 44.2857
1968.5 -8.28571
1969.5 -11.8571
1970.5 -14.5714
1971.5 34.2857
1972.5 23.5714
1973.5 7.71429
1974.5 -22
1975.5 25.8571
1976.5 24.1429
1977.5 5.85715
1978.5 58
1979.5 4
1980.5 27
1981.5 7.14286
1982.5 113.429
1983.5 88
1984.5 73.7143
1985.5 64.5714
1986.5 -9
1987.5 21.1429
1988.5 16
1989.5 -5.57142
1990.5 13.4286
1991.5 -37.1429
1992.5 -17.8571
1993.5 40.8571
1994.5 31.1429
1995.5 -32.4286
1996.5 -31.2857
1997.5 -9.85714
1998.5 -21.7143
1999.5 -3.71428
2000.5 -32
2001.5 18
2002.5 -5.42857
2003.5 34.1429
2004.5 -6.71428
2005.5 15.8571
2006.5 -36.8571
2007.5 13.7143
2008.5 13.4286
2009.5 77.2857
2010.5 24.1429
2011.5 14.1429
2012.5 43.5714
2013.5 -4.71428
2014.5 8.28572
2015.5 -52.5714
2016.5 46
2017.5 -1.57142
2018.5 13.7143
2019.5 -0.714282
2020.5 46.5714
2021.5 6.57143
2022.5 21.1429
2023.5 28.4286
2024.5 53.8571
2025.5 59.4286
2026.5 19.4286
2027.5 17.8571
2028.5 20.4286
2029.5 1.57143
2030.5 35.2857
2031.5 -18.7143
2032.5 -20
2033.5 18.5714
2034.5 33.5714
2035.5 49.2857
2036.5 -18.4286
2037.5 28.7143
2038.5 35.7143
2039.5 -4.71428
2040.5 49.1429
2041.5 7.14286
2042.5 48.8571
2043.5 24.8571
2044.5 27
2045.5 31.7143
2046.5 -7.14285
2047.5 25.4286
2048.5 -40.8571
2049.5 -2
2050.5 -27.2857
2051.5 48.2857
2052.5 4.85715
2053.5 7
2054.5 7.14286
2055.5 10.4286
2056.5 31
2057.5 30
2058.5 7
2059.5 8.28572
2060.5 22.7143
2061.5 58
2062.5 8.28572
2063.5 11.4286
2064.5 21.1429
2065.5 -2.42857
2066.5 -8
2067.5 32
2068.5 21.7143
2069.5 58.2857
2070.5 43.1429
2071.5 54.1429
2072.5 30
2073.5 30.7143
2074.5 -2.14285
2075.5 6.57143
2076.5 -19
2077.5 0.857147
2078.5 -1.71428
2079.5 59.8571
2080.5 51.8571
2081.5 25.2857
2082.5 7.42858
2083.5 -0.999996
2084.5 60.7143
2085.5 -9.28571
2086.5 12.8571
2087.5 6.79493e-06
2088.5 -59.5714
2089.5 68.8571
2090.5 2.85715
2091.5 56.2857
2092.5 37.2857
2093.5 14.1429
2094.5 118.857
2095.5 7
2096.5 -26.8571
2097.5 -3.42857
2098.5 51.2857
2099.5 17
2100.5 -20.4286
2101.5 2.71429
2102.5 31.7143
2103.5 -4.71428
2104.5 -1.85714
2105.5 2.57143
2106.5 9.14286
2107.5 35.8571
2108.5 15.8571
2109.5 42.2857
2110.5 0.142861
2111.5 -10.1429
2112.5 25.8571
2113.5 40.5714
2114.5 31.5714
2115.5 17.4286
2116.5 18.1429
2117.5 -19.4286
2118.5 44
2119.5 12.4286
2120.5 30.5714
2121.5 39.1429
2122.5 24.4286
2123.5 35.7143
2124.5 -41
2125.5 1
2126.5 -29.1429
2127.5 20.5714
2128.5 39.7143
2129.5 -11.7143
2130.5 53.7143
2131.5 23.2857
2132.5 27
2133.5 9.28572
2134.5 29.7143
2135.5 15.5714
2136.5 35.4286
2137.5 30.2857
2138.5 11.8571
2139.5 3.71429
2140.5 22.1429
2141.5 41.4286
2142.5 64
2143.5 59.2857
2144.5 61.5714
2145.5 53.1429
2146.5 4.57143
2147.5 1.28572
2148.5 -47.1428
2149.5 -17.1428
2150.5 28.2857
2151.5 110.857
2152.5 1.14287
2153.5 -18.7143
2154.5 2.14286
2155.5 21.1429
2156.5 26
2157.5 50.4286
2158.5 12.8571
2159.5 75.2857
2160.5 -14.1429
2161.5 23.7143
2162.5 34
2163.5 31.8571
2164.5 45.7143
2165.5 -11
2166.5 42
2167.5 53.1429
2168.5 0.428575
2169.5 -37.7143
2170.5 15.5714
2171.5 -3.28571
2172.5 13.1429
2173.5 -10.8571
2174.5 40.4286
2175.5 -13.8571
2176.5 -2.85714
2177.5 -10
2178.5 -29
2179.5 10.2857
2180.5 -9.42857
2181.5 -27.5714
2182.5 22.7143
2183.5 20.7143
2184.5 34.8571
2185.5 -20.1429
2186.5 39.2857
2187.5 -11.4286
2188.5 2
2189.5 -26.4286
2190.5 2.85715
2191.5 -12
2192.5 -27.5714
2193.5 17.5714
2194.5 -10
2195.5 60
2196.5 -14.2857
2197.5 39
2198.5 74.4286
2199.5 181.143
2200.5 60.2857
2201.5 9.57144
2202.5 16.8571
2203.5 -35.2857
2204.5 -15.4286
2205.5 14.1429
2206.5 33.2857
2207.5 17.8571
2208.5 37.7143
2209.5 57
2210.5 -7.42857
2211.5 -38.2857
2212.5 -28.1429
2213.5 3.85715
2214.5 27.2857
2215.5 35
2216.5 58.5714
2217.5 0.857147
2218.5 -4.71428
2219.5 58.8571
2220.5 23.5714
2221.5 -52.5714
2222.5 -24.1429
2223.5 26.1429
2224.5 22.8571
2225.5 7
2226.5 12.1429
2227.5 22.5714
2228.5 2.42857
2229.5 31
2230.5 16.5714
2231.5 -5.85714
2232.5 39
2233.5 -9.28571
2234.5 31.1429
2235.5 36.7143
2236.5 24.8571
2237.5 -33.4286
2238.5 47.8571
2239.5 7.14286
2240.5 -2.14285
2241.5 36.8571
2242.5 22.2857
2243.5 7.42857
2244.5 -2.71428
2245.5 32.8571
2246.5 37.7143
2247.5 15.4286
2248.5 46
2249.5 -1.42857
2250.5 0.285718
2251.5 -50.4286
2252.5 11.8571
2253.5 -35.7143
2254.5 -33.1429
2255.5 19.8571
2256.5 33.1429
2257.5 24.1429
2258.5 17.1429
2259.5 15.4286
2260.5 8.71429
2261.5 -11.1429
2262.5 37.5714
2263.5 33.7143
2264.5 8.71429
2265.5 4.85715
2266.5 -17.7143
2267.5 23.8571
2268.5 -2.42857
2269.5 8.71429
2270.5 -24.8571
2271.5 36.4286
2272.5 -1.42857
2273.5 32.1429
2274.5 -10.8571
2275.5 -19.5714
2276.5 12
2277.5 10.4286
2278.5 18
2279.5 -19.5714
2280.5 -22.7143
2281.5 43.2857
2282.5 -0.714281
2283.5 34
2284.5 13.5714
2285.5 -5
2286.5 3.85715
2287.5 42.2857
2288.5 16.4286
2289.5 1.57143
2290.5 -21.2857
2291.5 -38.4286
2292.5 -29.4286
2293.5 15.5714
2294.5 17.8571
2295.5 83.8571
2296.5 103.571
2297.5 74.4286
2298.5 102.143
2299.5 152
2300.5 252
2301.5 210.714
2302.5 178.286
2303.5 62.2857
2304.5 22.5714
2305.5 19.2857
2306.5 47.2857
2307.5 -11.8571
2308.5 -11.1429
2309.5 34.2857
2310.5 22.1429
2311.5 -7.71428
2312.5 56.4286
2313.5 -11.2857
2314.5 2.28572
2315.5 -46
2316.5 19.7143
2317.5 21.5714
2318.5 -6.57143
2319.5 -2.28571
2320.5 22
2321.5 7.57143
2322.5 -8.71428
2323.5 -18.8571
2324.5 6.42857
2325.5 -23.5714
2326.5 -9.85714
2327.5 20.8571
2328.5 21.8571
2329.5 -30
2330.5 37.1429
2331.5 47.2857
2332.5 43.1429
2333.5 -4.42857
2334.5 64.7143
2335.5 32.1429
2336.5 27.1429
2337.5 74.2857
2338.5 6.42857
2339.5 6
2340.5 16.7143
2341.5 15.7143
2342.5 37.4286
2343.5 43.8571
2344.5 -7.57142
2345.5 34.7143
2346.5 12.1429
2347.5 10.4286
2348.5 4.42857
2349.5 16.1429
2350.5 15
2351.5 -0.999997
2352.5 -33.4286
2353.5 8.57143
2354.5 4.71429
2355.5 -37.1429
2356.5 3.71429
2357.5 41.2857
2358.5 34.5714
2359.5 4.42857
2360.5 24.2857
2361.5 -21.2857
2362.5 -29.5714
2363.5 45.4286
2364.5 12.1429
2365.5 3.14286
2366.5 4.85715
2367.5 -2
2368.5 49.8571
2369.5 46.5714
2370.5 -23.8571
2371.5 8.28572
2372.5 -13.5714
2373.5 -30.2857
2374.5 1.14286
2375.5 -18.4286
2376.5 28.8571
2377.5 9.14286
2378.5 8.85715
2379.5 30.2857
2380.5 -0.428568
2381.5 -67
2382.5 -32.1429
2383.5 8.14286
2384.5 48
2385.5 22.8571
2386.5 -31
2387.5 26.7143
2388.5 12.4286
2389.5 30.2857
2390.5 57.2857
2391.5 62
2392.5 22.2857
2393.5 51
2394.5 10.8571
2395.5 -10.8571
2396.5 1.42857
2397.5 34.2857
2398.5 -18.8571
2399.5 -32.2857
2400.5 -8.85714
2401.5 8.42857
2402.5 48.8571
2403.5 18.4286
2404.5 62.8571
2405.5 62.2857
2406.5 21.5714
2407.5 18.2857
2408.5 -7.57143
2409.5 14.1429
2410.5 22.5714
2411.5 22.4286
2412.5 -6.57143
2413.5 -3
2414.5 0.428575
2415.5 9.57143
2416.5 91.1429
2417.5 -10.7143
2418.5 3.28572
2419.5 37.2857
2420.5 2.71429
2421.5 15.8571
2422.5 16.4286
2423.5 -10.7143
2424.5 8.42857
2425.5 -28.7143
2426.5 -56.1429
2427.5 -6.57142
2428.5 16.7143
2429.5 0.857147
2430.5 20.4286
2431.5 -0.428568
2432.5 -21.8571
2433.5 52.8571
2434.5 29.4286
2435.5 41.2857
2436.5 21.2857
2437.5 18.2857
2438.5 24.7143
2439.5 17.4286
2440.5 13.8571
2441.5 0.14286
2442.5 -30.8571
2443.5 -2.28571
2444.5 41.1429
2445.5 -28
2446.5 21.2857
2447.5 26.7143
2448.5 18.5714
2449.5 47.2857
2450.5 19
2451.5 16.8571
2452.5 -28.7143
2453.5 47.1429
2454.5 12.7143
2455.5 -18.8571
2456.5 24.2857
2457.5 -38
2458.5 0.857146
2459.5 -13.8571
2460.5 4.57143
2461.5 12.8571
2462.5 -10.8571
2463.5 -15.2857
2464.5 40.8571
2465.5 -45.5714
2466.5 -51.5714
2467.5 -26.7143
2468.5 -16
2469.5 -60.7143
2470.5 26.1429
2471.5 -56.7143
2472.5 -22.8571
2473.5 -25.5714
2474.5 -55.4286
2475.5 -16.4286
2476.5 -19.4286
2477.5 29.8571
2478.5 28
2479.5 46.8571
2480.5 13.1429
2481.5 -4.57143
2482.5 7
2483.5 39.5714
2484.5 37.4286
2485.5 -55.7143
2486.5 3.14286
2487.5 -6.57143
2488.5 4.71429
2489.5 4.85715
2490.5 -7
2491.5 8.42857
2492.5 50.4286
2493.5 35.2857
2494.5 40.7143
2495.5 56
2496.5 16.1429
2497.5 28.1429
2498.5 -2.42857
2499.5 8.14286
2500.5 14.2857
2501.5 3.71429
2502.5 -24.5714
2503.5 -11.7143
2504.5 32.1429
2505.5 20.7143
2506.5 9
2507.5 9.71429
2508.5 11.5714
2509.5 14.4286
2510.5 25.8571
2511.5 22
2512.5 -21.1429
2513.5 14
2514.5 1.14286
2515.5 25.5714
2516.5 -17.1429
2517.5 29.7143
2518.5 -57.5714
2519.5 8.42858
2520.5 -38.8571
2521.5 -7.71428
2522.5 -9.14285
2523.5 -12.1429
2524.5 46.1429
2525.5 9.57143
2526.5 14.4286
2527.5 15.5714
2528.5 -5.14285
2529.5 34.1429
2530.5 -10.8571
2531.5 28.7143
2532.5 10.4286
2533.5 46.7143
2534.5 -16.2857
2535.5 10.5714
2536.5 26
2537.5 9.71429
2538.5 9.71429
2539.5 7.42857
2540.5 -2.42857
2541.5 -7.85714
2542.5 26.5714
2543.5 9
2544.5 1.71429
2545.5 6.42857
2546.5 37.1429
2547.5 11.1429
2548.5 56.4286
2549.5 24.7143
2550.5 -5.57143
2551.5 5.57143
2552.5 13.4286
2553.5 31.8571
2554.5 43.5714
2555.5 27.5714
2556.5 42
2557.5 -12.2857
2558.5 -8
2559.5 -15.1429
2560.5 20
2561.5 13.5714
2562.5 71.1429
2563.5 39.1429
2564.5 7.28572
2565.5 40.7143
2566.5 16.5714
2567.5 0.428574
2568.5 21.4286
2569.5 5.14286
2570.5 2.57143
2571.5 19
2572.5 58.7143
2573.5 15.2857
2574.5 17.2857
2575.5 24.8571
2576.5 -6.57143
2577.5 -22.8571
2578.5 2.28572
2579.5 -18.8571
2580.5 25
2581.5 -10.4286
2582.5 1.71429
2583.5 -41.8571
2584.5 -2
2585.5 -1.57143
2586.5 22
2587.5 2
2588.5 -6.57143
2589.5 -20.8571
2590.5 9.57143
2591.5 -26.2857
2592.5 20.8571
2593.5 -9.57143
2594.5 -4.28571
2595.5 2.57143
2596.5 29.7143
2597.5 30.1429
2598.5 -11.4286
2599.5 26.8571
2600.5 32.1429
2601.5 37
2602.5 52.8571
2603.5 31.8571
2604.5 99.1429
2605.5 107.857
2606.5 109.286
2607.5 45.2857
2608.5 44.4286
2609.5 2.71429
2610.5 18.5714
2611.5 -36.7143
2612.5 19.5714
2613.5 -30.1429
2614.5 -4.42857
2615.5 9.42857
2616.5 4.71429
2617.5 22.8571
2618.5 -18
2619.5 32
2620.5 -44.2857
2621.5 10.4286
2622.5 -37.4286
2623.5 -24.2857
2624.5 25.7143
2625.5 40.7143
2626.5 7.28572
2627.5 5.85715
2628.5 -0.999997
2629.5 45.5714
2630.5 28.2857
2631.5 33.5714
2632.5 -8.42857
2633.5 40.8571
2634.5 -5.85714
2635.5 10
2636.5 17.5714
2637.5 -10.8571
2638.5 2
2639.5 -4.14285
2640.5 23.7143
2641.5 5.57143
2642.5 -14.1429
2643.5 13.7143
2644.5 48.1429
2645.5 -23.5714
2646.5 -12.7143
2647.5 -4.71428
2648.5 -16.8571
2649.5 11
2650.5 25.5714
2651.5 64.5714
2652.5 2.57143
2653.5 4.71429
2654.5 -29.8571
2655.5 -17.2857
2656.5 -68
2657.5 -40
2658.5 35
2659.5 8.28572
2660.5 25.7143
2661.5 -10.2857
2662.5 -12.4286
2663.5 41.5714
2664.5 -7
2665.5 -5.57143
2666.5 16.8571
2667.5 30.2857
2668.5 -7.14285
2669.5 15
2670.5 14.1429
2671.5 -13.2857
2672.5 -11
2673.5 20.8571
2674.5 18.7143
2675.5 -53.7143
2676.5 26.4286
2677.5 12.4286
2678.5 3
2679.5 6.71429
2680.5 -3
2681.5 35.4286
2682.5 29.8571
2683.5 54.2857
2684.5 80.4286
2685.5 -1.42857
2686.5 37.5714
2687.5 18.5714
2688.5 -19.7143
2689.5 -6.71428
2690.5 -10.8571
2691.5 6.71429
2692.5 13
2693.5 18.1429
2694.5 -11
2695.5 -7
2696.5 30.1429
2697.5 -0.142854
2698.5 18.8571
2699.5 27
2700.5 3.42857
2701.5 24.5714
2702.5 17
2703.5 3.42857
2704.5 10.5714
2705.5 53.4286
2706.5 29.4286
2707.5 -29.8571
2708.5 5.28572
2709.5 24.7143
2710.5 13.8571
2711.5 59.1429
2712.5 56.5714
2713.5 16.1429
2714.5 34.7143
2715.5 -4.42857
2716.5 9.85715
2717.5 13.8571
2718.5 15.4286
2719.5 35.7143
2720.5 -11.5714
2721.5 36.1429
2722.5 51
2723.5 21.5714
2724.5 -10.1429
2725.5 55.5714
2726.5 49
2727.5 15.8571
2728.5 30
2729.5 57.4286
2730.5 41.8571
2731.5 36.5714
2732.5 -10.7143
2733.5 7.42857
2734.5 2.57143
2735.5 20.7143
2736.5 24.5714
2737.5 -12.2857
2738.5 37.5714
2739.5 -3.57143
2740.5 -37.7143
2741.5 -16.2857
2742.5 -33.4286
2743.5 -11.2857
2744.5 -7.28571
2745.5 -6.28571
2746.5 16.4286
2747.5 30.5714
2748.5 6.71429
2749.5 -0.285711
2750.5 6.57143
2751.5 51.2857
2752.5 50.5714
2753.5 -23.4286
2754.5 23.8571
2755.5 36.8571
2756.5 -32.5714
2757.5 27
2758.5 33.2857
2759.5 39.8571
2760.5 -4
2761.5 31.4286
2762.5 -20.7143
2763.5 -30.2857
2764.5 -16.1429
2765.5 14.4286
2766.5 23
2767.5 -37
2768.5 28.2857
2769.5 -16.8571
2770.5 32.1429
2771.5 -2.57143
2772.5 -26
2773.5 20.5714
2774.5 7
2775.5 -9.14285
2776.5 -40.4286
2777.5 23.2857
2778.5 7.14286
2779.5 -2.85714
2780.5 26.7143
2781.5 62.4286
2782.5 -19.2857
2783.5 -2
2784.5 7.14286
2785.5 10.1429
2786.5 21.1429
2787.5 -14.5714
2788.5 37.8571
2789.5 -55.4286
2790.5 37.8571
2791.5 60.2857
2792.5 29
2793.5 2.71429
2794.5 11.4286
2795.5 2.6226e-06
2796.5 22.5714
2797.5 18.8571
2798.5 -9.85714
2799.5 12.1429
2800.5 -14.8571
2801.5 -4.57143
2802.5 20.7143
2803.5 36.1429
2804.5 22.5714
2805.5 11.8571
2806.5 23
2807.5 30.4286
2808.5 -2.57143
2809.5 6.85715
2810.5 43.4286
2811.5 -4
2812.5 12
2813.5 43.5714
2814.5 51.5714
2815.5 10.4286
2816.5 33.7143
2817.5 87.8571
2818.5 54
2819.5 43.2857
2820.5 10.5714
2821.5 5.71429
2822.5 26.4286
2823.5 17.8571
2824.5 -14.7143
2825.5 -4.14285
2826.5 23.8571
2827.5 -8
2828.5 16.1429
2829.5 2.85715
2830.5 19.2857
2831.5 1
2832.5 -6
2833.5 28.8571
2834.5 13
2835.5 46.2857
2836.5 53.4286
2837.5 36.5714
2838.5 44.1429
2839.5 28
2840.5 8.42857
2841.5 -1.42857
2842.5 -32.7143
2843.5 4.71429
2844.5 44.2857
2845.5 33.7143
2846.5 45.1429
2847.5 39
2848.5 10.7143
2849.5 1.85715
2850.5 4
2851.5 19.8571
2852.5 -27.2857
2853.5 -13.5714
2854.5 -18.4286
2855.5 11.5714
2856.5 49
2857.5 43.7143
2858.5 19.4286
2859.5 32
2860.5 -15.7143
2861.5 61.8571
2862.5 -16.4286
2863.5 19.2857
2864.5 30.5714
2865.5 27.8571
2866.5 -10.2857
2867.5 23.2857
2868.5 25
2869.5 66
2870.5 13.5714
2871.5 -15.1429
2872.5 -35.1429
2873.5 -21.2857
2874.5 16.7143
2875.5 5
2876.5 0.857145
2877.5 23.7143
2878.5 17.5714
2879.5 23.5714
2880.5 26.4286
2881.5 1.85715
2882.5 20
2883.5 38
2884.5 4.42857
2885.5 -4.14285
2886.5 21.5714
2887.5 0.142859
2888.5 25.7143
2889.5 -37.4286
2890.5 12.1429
2891.5 9.57143
2892.5 8.71429
2893.5 -9.42857
2894.5 56.2857
2895.5 22.4286
2896.5 -8.71428
2897.5 7.28572
2898.5 21.1429
2899.5 4.85715
2900.5 3.71429
2901.5 -8
2902.5 31.8571
2903.5 -13.4286
2904.5 -1.42857
2905.5 24.2857
2906.5 9.57143
2907.5 4
2908.5 -8.28571
2909.5 13.8571
2910.5 -19.4286
2911.5 -27.4286
2912.5 47.1429
2913.5 -19.4286
2914.5 35
2915.5 66.8571
2916.5 54
2917.5 32.2857
2918.5 12.1429
2919.5 -4.85714
2920.5 13.4286
2921.5 7
2922.5 6.71429
2923.5 21
2924.5 1.42857
2925.5 21.1429
2926.5 -30.1429
2927.5 -13.7143
2928.5 -11.2857
2929.5 10.7143
2930.5 -10.8571
2931.5 16.4286
2932.5 57.5714
2933.5 18.1429
2934.5 18.8571
2935.5 -0.428569
2936.5 7.28572
2937.5 -18.1429
2938.5 -39.5714
2939.5 -43.8571
2940.5 0.857146
2941.5 14.8571
2942.5 28.7143
2943.5 23.5714
2944.5 13.2857
2945.5 -32.1429
2946.5 38.5714
2947.5 -20
2948.5 -10.7143
2949.5 37.4286
2950.5 30
2951.5 4.85715
2952.5 -29.8571
2953.5 6.85715
2954.5 44.2857
2955.5 -1.28571
2956.5 6.28572
2957.5 -13
2958.5 33.4286
2959.5 40.7143
2960.5 -14.7143
2961.5 13.2857
2962.5 -21.5714
2963.5 17.1429
2964.5 33.1429
2965.5 40.2857
2966.5 20.5714
2967.5 13.7143
2968.5 -7.71428
2969.5 14.4286
2970.5 32.1429
2971.5 -52.2857
2972.5 18
2973.5 -12.4286
2974.5 -8.85714
2975.5 33
2976.5 34.2857
2977.5 20
2978.5 19.1429
2979.5 15.5714
2980.5 4.14286
2981.5 38.2857
2982.5 7.14286
2983.5 -37.8571
2984.5 2
2985.5 46.4286
2986.5 -7.57143
2987.5 -32
2988.5 4.28572
2989.5 0.571431
2990.5 17
2991.5 19.1429
2992.5 1.42857
2993.5 10.7143
2994.5 14.2857
2995.5 16.1429
2996.5 26.5714
2997.5 6.28572
2998.5 34.8571
2999.5 44.7143
3000.5 4.28572
3001.5 8.57143
3002.5 57.5714
3003.5 118.143
3004.5 263.143
3005.5 322.571
3006.5 279.857
3007.5 135.143
3008.5 51.1429
3009.5 21.2857
3010.5 2.42857
3011.5 9.42857
3012.5 7.14286
3013.5 -9.85714
3014.5 -20.5714
3015.5 7.85715
3016.5 2.85715
3017.5 10
3018.5 -12.4286
3019.5 5.85714
3020.5 -6.28571
3021.5 61.7143
3022.5 1
3023.5 32.1429
3024.5 10.7143
3025.5 -16.7143
3026.5 10.1429
3027.5 -7.28571
3028.5 16.1429
3029.5 12.8571
3030.5 12
3031.5 32.2857
3032.5 5.57143
3033.5 -19.7143
3034.5 -27.4286
3035.5 -23.2857
3036.5 -43.2857
3037.5 -38.2857
3038.5 -96.7143
3039.5 -34.4286
3040.5 -13.8571
3041.5 25.8571
3042.5 52.8571
3043.5 22.5714
3044.5 43.4286
3045.5 -38.7143
3046.5 15.2857
3047.5 21
3048.5 5.71429
3049.5 14.8571
3050.5 45
3051.5 23.2857
3052.5 29.2857
3053.5 24
3054.5 -15
3055.5 31.1429
3056.5 20.7143
3057.5 31.1429
3058.5 79
3059.5 22.5714
3060.5 2.28572
3061.5 31.7143
3062.5 21.4286
3063.5 2
3064.5 30.5714
3065.5 6
3066.5 21.1429
3067.5 25.4286
3068.5 -17.4286
3069.5 -7.57143
3070.5 -1.57143
3071.5 -11.2857
3072.5 29.1429
3073.5 49.4286
3074.5 -36.5714
3075.5 23
3076.5 10.2857
3077.5 -29
3078.5 49.8571
3079.5 64.4286
3080.5 81.7143
3081.5 75.8571
3082.5 85.4286
3083.5 46.4286
3084.5 42.1429
3085.5 44.4286
3086.5 25.8571
3087.5 -42.5714
3088.5 24.1429
3089.5 8.42857
3090.5 33.8571
3091.5 31.4286
3092.5 22.1429
3093.5 3.57143
3094.5 44.4286
3095.5 -20.1429
3096.5 24.8571
3097.5 -11.4286
3098.5 -5.57143
3099.5 50.4286
3100.5 46.4286
3101.5 20.1429
3102.5 12.7143
3103.5 2.85714
3104.5 13.4286
3105.5 32.1429
3106.5 32.7143
3107.5 1.85715
3108.5 26.4286
3109.5 37.2857
3110.5 36.5714
3111.5 81.4286
3112.5 52
3113.5 52.1429
3114.5 21.5714
3115.5 52.5714
3116.5 6
3117.5 1.71429
3118.5 -16.2857
3119.5 20.4286
3120.5 -5.85714
3121.5 11.5714
3122.5 -9.85714
3123.5 -10.2857
3124.5 -2.85714
3125.5 28.8571
3126.5 50.2857
3127.5 26
3128.5 21.2857
3129.5 -7.42857
3130.5 14.2857
3131.5 17
3132.5 25.1429
3133.5 28.4286
3134.5 16.5714
3135.5 20.1429
3136.5 19.8571
3137.5 24.2857
3138.5 21.8571
3139.5 41.8571
3140.5 11.5714
3141.5 -2.85714
3142.5 3.14286
3143.5 11.8571
3144.5 -0.714283
3145.5 22.4286
3146.5 -16.5714
3147.5 13.4286
3148.5 -31.5714
3149.5 3.85715
3150.5 -48
3151.5 -27.2857
3152.5 10.1429
3153.5 -10.1429
3154.5 44.4286
3155.5 -12.5714
3156.5 -34.1429
3157.5 -0.428569
3158.5 -35.8571
3159.5 26.7143
3160.5 23.5714
3161.5 81.2857
3162.5 71.1429
3163.5 60.1429
3164.5 30.2857
3165.5 27
3166.5 7
3167.5 29.5714
3168.5 46.2857
3169.5 32
3170.5 47.4286
3171.5 39.1429
3172.5 -10.4286
3173.5 12.8571
3174.5 28.4286
3175.5 -28.5714
3176.5 28.1429
3177.5 59.2857
3178.5 22
3179.5 48.8571
3180.5 65.8571
3181.5 23.8571
3182.5 -3.42857
3183.5 -0.999998
3184.5 -28.4286
3185.5 10.2857
3186.5 4.14286
3187.5 70.8571
3188.5 41.4286
3189.5 4.14286
3190.5 9.57143
3191.5 11.2857
3192.5 20.7143
3193.5 27.7143
3194.5 -9.14285
3195.5 -3.28571
3196.5 17
3197.5 -16.2857
3198.5 -42.8571
3199.5 -13.2857
3200.5 -47
3201.5 -77
3202.5 -47.8571
3203.5 -35.4286
3204.5 -14.2857
3205.5 4.85715
3206.5 10
3207.5 25.7143
3208.5 46.5714
3209.5 -14.8571
3210.5 18.7143
3211.5 33.7143
3212.5 7.42857
3213.5 7.57143
3214.5 33.2857
3215.5 12
3216.5 25.8571
3217.5 6
3218.5 47.2857
3219.5 -2.28571
3220.5 56.7143
3221.5 16.5714
3222.5 23.8571
3223.5 12
3224.5 44.1429
3225.5 12
3226.5 36.4286
3227.5 22.5714
3228.5 16.7143
3229.5 28.5714
3230.5 42.4286
3231.5 25.8571
3232.5 7
3233.5 16.7143
3234.5 24
3235.5 45.7143
3236.5 20.4286
3237.5 40.8571
3238.5 8.85715
3239.5 53.2857
3240.5 -10.5714
3241.5 35.1429
3242.5 27.1429
3243.5 -22
3244.5 13
3245.5 3.71429
3246.5 7.28572
3247.5 -10.1429
3248.5 19.5714
3249.5 20.1429
3250.5 -14.1429
3251.5 52.1429
3252.5 3.28572
3253.5 -23.4286
3254.5 -8.14286
3255.5 24.2857
3256.5 3
3257.5 8
3258.5 -15.1429
3259.5 25
3260.5 -3.85714
3261.5 26.7143
3262.5 4.28572
3263.5 1.42857
3264.5 16.5714
3265.5 29
3266.5 7.14286
3267.5 -40.1429
3268.5 12.5714
3269.5 -7.42857
3270.5 -7
3271.5 15
3272.5 3.57143
3273.5 6.14286
3274.5 31.4286
3275.5 -24.1429
3276.5 39.2857
3277.5 38.5714
3278.5 30.2857
3279.5 13.7143
3280.5 8.57143
3281.5 31.2857
3282.5 4.28572
3283.5 8.28572
3284.5 3.85714
3285.5 36.2857
3286.5 30
3287.5 -16.7143
3288.5 17.4286
3289.5 -25.1429
3290.5 -2.42857
3291.5 14.5714
3292.5 -16.1429
3293.5 7
3294.5 39
3295.5 9
3296.5 11.1429
3297.5 69.8571
3298.5 5.14286
3299.5 1.14286
3300.5 12.1429
3301.5 41.5714
3302.5 19.1429
3303.5 53.2857
3304.5 32.4286
3305.5 45.5714
3306.5 64.2857
3307.5 -19.2857
3308.5 5.42857
3309.5 12.8571
3310.5 24.5714
3311.5 21
3312.5 -20.5714
3313.5 25
3314.5 -22.7143
3315.5 14.5714
3316.5 26.7143
3317.5 21.7143
3318.5 35
3319.5 20.1429
3320.5 22.1429
3321.5 -5.57143
3322.5 69.1429
3323.5 37.2857
3324.5 18.2857
3325.5 17.4286
3326.5 24.7143
3327.5 3.14286
3328.5 -0.999998
3329.5 -33
3330.5 -3.14286
3331.5 36
3332.5 42.1429
3333.5 31.8571
3334.5 6.57143
3335.5 38.4286
3336.5 1.28572
3337.5 44.5714
3338.5 28.5714
3339.5 -23
3340.5 7.57143
3341.5 37.4286
3342.5 -5.42857
3343.5 16.5714
3344.5 -1.57143
3345.5 11.7143
3346.5 10
3347.5 -22.4286
3348.5 -13.7143
3349.5 25.7143
3350.5 -11.5714
3351.5 33.4286
3352.5 10
3353.5 7.71429
3354.5 13.4286
3355.5 28.1429
3356.5 14.4286
3357.5 56.7143
3358.5 34.4286
3359.5 24.2857
3360.5 61.2857
3361.5 48.5714
3362.5 15
3363.5 -3.28571
3364.5 44.5714
3365.5 21.7143
3366.5 -33.1429
3367.5 43.4286
3368.5 5
3369.5 9.85714
3370.5 27.1429
3371.5 26.1429
3372.5 29.5714
3373.5 3.85714
3374.5 38
3375.5 1.42857
3376.5 -15.4286
3377.5 31.1429
3378.5 18.2857
3379.5 50.7143
3380.5 5.42857
3381.5 16.1429
3382.5 33.1429
3383.5 -12
3384.5 29.8571
3385.5 26.5714
3386.5 8.85714
3387.5 42
3388.5 31.8571
3389.5 23.4286
3390.5 42.7143
3391.5 27.1429
3392.5 53.2857
3393.5 -1.85714
3394.5 27
3395.5 13.5714
3396.5 27.5714
3397.5 45
3398.5 24.1429
3399.5 -9.85714
3400.5 28.2857
3401.5 -3.71428
3402.5 8.28572
3403.5 12.5714
3404.5 -16.7143
3405.5 0.714288
3406.5 -7.85714
3407.5 15.1429
3408.5 25.7143
3409.5 1.57143
3410.5 1.42857
3411.5 29
3412.5 22.5714
3413.5 17.8571
3414.5 32.8571
3415.5 51.2857
3416.5 21.5714
3417.5 34.2857
3418.5 43.2857
3419.5 24.4286
3420.5 20.8571
3421.5 19.5714
3422.5 -4.85714
3423.5 77.4286
3424.5 99.1429
3425.5 248.429
3426.5 353
3427.5 413.571
3428.5 285.429
3429.5 157
3430.5 70.8571
3431.5 38.1429
3432.5 40.7143
3433.5 -1.85714
3434.5 13.2857
3435.5 -20
3436.5 12.2857
3437.5 -19.1429
3438.5 3.14286
3439.5 -4.85714
3440.5 12.2857
3441.5 30.7143
3442.5 46.2857
3443.5 26.5714
3444.5 50.2857
3445.5 8.71429
3446.5 29.5714
3447.5 8.28572
3448.5 27.4286
3449.5 -0.571425
3450.5 6.71429
3451.5 -2.42857
3452.5 -13
3453.5 10.1429
3454.5 -17.1429
3455.5 28.4286
3456.5 -17.5714
3457.5 24.1429
3458.5 -10
3459.5 -23.4286
3460.5 -11.7143
3461.5 36.8571
3462.5 -11
3463.5 36.2857
3464.5 -8.28571
3465.5 36.5714
3466.5 -11.8571
3467.5 -0.999998
3468.5 26.1429
3469.5 -14.5714
3470.5 2.85714
3471.5 18.8571
3472.5 -20
3473.5 7.28572
3474.5 -0.571427
3475.5 -1.28571
3476.5 19.1429
3477.5 -5
3478.5 4.71429
3479.5 39.2857
3480.5 -17.2857
3481.5 13.5714
3482.5 4.14286
3483.5 25.8571
3484.5 39.1429
3485.5 8.14286
3486.5 18
3487.5 -24
3488.5 37.8571
3489.5 -6.57143
3490.5 -16
3491.5 8.57143
3492.5 7.28572
3493.5 30.1429
3494.5 -6.85714
3495.5 42.8571
3496.5 9.57143
3497.5 -18.7143
3498.5 -4.42857
3499.5 29.5714
3500.5 5
3501.5 12.2857
3502.5 -7
3503.5 -6
3504.5 -6.28571
3505.5 16.4286
3506.5 34.1429
3507.5 -22.7143
3508.5 3.85715
3509.5 -46.5714
3510.5 14.4286
3511.5 36
3512.5 5.14286
3513.5 0.857145
3514.5 52.4286
3515.5 5.85714
3516.5 48.5714
3517.5 0.285717
3518.5 21
3519.5 20
3520.5 35
3521.5 22.7143
3522.5 30.1429
3523.5 32.4286
3524.5 43.1429
3525.5 4.14286
3526.5 3.42857
3527.5 8.71429
3528.5 -27.5714
3529.5 55.7143
3530.5 -14.4286
3531.5 -4
3532.5 16.4286
3533.5 0.285717
3534.5 3.42857
3535.5 1.71429
3536.5 4.42857
3537.5 15
3538.5 33.2857
3539.5 8.14286
3540.5 1.28572
3541.5 -8.28571
3542.5 -13
3543.5 17.2857
3544.5 -16.1429
3545.5 -9.28571
3546.5 20
3547.5 9
3548.5 3.42857
3549.5 15.2857
3550.5 8.28572
3551.5 9.57143
3552.5 25.7143
3553.5 12.7143
3554.5 29.7143
3555.5 27.7143
3556.5 30.2857
3557.5 -3
3558.5 -16.4286
3559.5 20.1429
3560.5 14.1429
3561.5 21.4286
3562.5 16.2857
3563.5 -28.2857
3564.5 20.8571
3565.5 10.5714
3566.5 -12.8571
3567.5 25.7143
3568.5 4.42857
3569.5 9.14286
3570.5 29.7143
3571.5 -1.28571
3572.5 22.5714
3573.5 82.5714
3574.5 60.2857
3575.5 -6
3576.5 34.5714
3577.5 -11.4286
3578.5 8.28572
3579.5 21.8571
3580.5 2.71429
3581.5 39.4286
3582.5 51.8571
3583.5 107
3584.5 52.7143
3585.5 73.2857
3586.5 84.4286
3587.5 36.4286
3588.5 48.2857
3589.5 -3
3590.5 41.5714
3591.5 5.14286
3592.5 -21.7143
3593.5 42.4286
3594.5 37.2857
3595.5 25.1429
3596.5 40
3597.5 54.8571
3598.5 67.4286
3599.5 1.28572
3600.5 -2
3601.5 -0.999999
3602.5 1.71429
3603.5 4.71429
3604.5 -17.7143
3605.5 44.5714
3606.5 3.28572
3607.5 0.714288
3608.5 -34.2857
3609.5 -22.2857
3610.5 -0.428569
3611.5 -19.1429
3612.5 12.2857
3613.5 15.2857
3614.5 10.2857
3615.5 -8.42857
3616.5 2.71429
3617.5 38
3618.5 62.1429
3619.5 149.714
3620.5 184.143
3621.5 205.143
3622.5 202.429
3623.5 128.286
3624.5 93.8571
3625.5 41
3626.5 31.4286
3627.5 6.14286
3628.5 -38.7143
3629.5 5.57143
3630.5 13
3631.5 25.4286
3632.5 -14.7143
3633.5 -27.2857
3634.5 -8.28571
3635.5 -12.8571
3636.5 19.7143
3637.5 -14.2857
3638.5 -19.8571
3639.5 9.57143
3640.5 -21.4286
3641.5 -7.28571
3642.5 4.57143
3643.5 7.28572
3644.5 25.8571
3645.5 17.4286
3646.5 59.7143
3647.5 4.85715
3648.5 24.5714
3649.5 10.7143
3650.5 -0.142855
3651.5 -10.7143
3652.5 3.57143
3653.5 30
3654.5 4.57143
3655.5 -9.57143
3656.5 -24.2857
3657.5 -28.1429
3658.5 14.8571
3659.5 4.42857
3660.5 -27.7143
3661.5 -33.4286
3662.5 8.14286
3663.5 -17.1429
3664.5 -7.14286
3665.5 -21.8571
3666.5 8
3667.5 20.8571
3668.5 61.5714
3669.5 105.714
3670.5 204.429
3671.5 331.429
3672.5 392
3673.5 422.857
3674.5 198
3675.5 117
3676.5 46.5714
3677.5 34.2857
3678.5 17.2857
3679.5 -9.57143
3680.5 18.2857
3681.5 27
3682.5 59.8571
3683.5 5.71429
3684.5 -0.571427
3685.5 -13
3686.5 -12.2857
3687.5 5.71429
3688.5 40.4286
3689.5 -2
3690.5 -18.2857
3691.5 -5.85714
3692.5 0.285716
3693.5 -3
3694.5 4.14286
3695.5 6
3696.5 -14.2857
3697.5 -16
3698.5 -8.85714
3699.5 -24
3700.5 -5.71428
3701.5 -11.7143
3702.5 1
3703.5 23.1429
3704.5 -12.7143
3705.5 -2.57143
3706.5 -47.1429
3707.5 14.7143
3708.5 -43
3709.5 4.42857
3710.5 -13.2857
3711.5 -14
3712.5 -47
3713.5 -13
3714.5 -17.8571
3715.5 -51.4286
3716.5 -37.5714
3717.5 5
3718.5 -42.8571
3719.5 -30.7143
3720.5 -1.71428
3721.5 7
3722.5 3.85714
3723.5 6.85714
3724.5 12.1429
3725.5 13.7143
3726.5 -12.4286
3727.5 13.7143
3728.5 10.7143
3729.5 9.71429
3730.5 37.4286
3731.5 18
3732.5 -2
3733.5 28.2857
3734.5 17.8571
3735.5 8.28572
3736.5 -0.857142
3737.5 23.8571
3738.5 16
3739.5 -2.57143
3740.5 3.28572
3741.5 11.2857
3742.5 10.7143
3743.5 15.2857
3744.5 8.28572
3745.5 29.2857
3746.5 -29.7143
3747.5 -19.8571
3748.5 40.8571
3749.5 1.90735e-06
3750.5 -8.42857
3751.5 -3.85714
3752.5 28.2857
3753.5 16.8571
3754.5 -2.28571
3755.5 -11.1429
3756.5 -4.85714
3757.5 6.14286
3758.5 1.14286
3759.5 4
3760.5 4
3761.5 -2.85714
3762.5 0.857144
3763.5 -15.8571
3764.5 14.7143
3765.5 2.57143
3766.5 -8.14286
3767.5 -22
3768.5 -26
3769.5 -8.85714
3770.5 -3.42857
3771.5 13.8571
3772.5 13.2857
3773.5 9.85714
3774.5 -12
3775.5 -0.714284
3776.5 -33.2857
3777.5 -16.1429
3778.5 -24.7143
3779.5 -35.5714
3780.5 -35.2857
3781.5 -2.14286
3782.5 12.2857
3783.5 14
3784.5 -12.5714
3785.5 31
3786.5 6.14286
3787.5 14.4286
3788.5 10.1429
3789.5 27.7143
3790.5 -8.85714
3791.5 7.42857
3792.5 -4.57143
3793.5 11.1429
3794.5 -3.42857
3795.5 4.85714
3796.5 11.7143
3797.5 13.1429
3798.5 -5.14286
3799.5 -20.4286
3800.5 -24.5714
3801.5 17.8571
3802.5 26.7143
3803.5 -0.857142
3804.5 -3.71428
3805.5 40.7143
3806.5 12.8571
3807.5 -13.2857
3808.5 -20.1429
3809.5 18.1429
3810.5 16.7143
3811.5 8.28572
3812.5 1.14286
3813.5 1.42857
3814.5 5.14286
3815.5 -12.4286
3816.5 -15.4286
3817.5 -2.14286
3818.5 -8.42857
3819.5 4.57143
3820.5 16.4286
3821.5 20
3822.5 1.43051e-06
3823.5 20.1429
3824.5 4.14286
3825.5 35.1429
3826.5 10.8571
3827.5 42
3828.5 -0.857141
3829.5 -27.8571
3830.5 37.1429
3831.5 37.4286
3832.5 94.2857
3833.5 68.8571
3834.5 60
3835.5 49.8571
3836.5 31.5714
3837.5 34.7143
3838.5 13
3839.5 2.28572
3840.5 -5.71428
3841.5 4
3842.5 -23.8571
3843.5 -21.5714
3844.5 21.5714
3845.5 0.714287
3846.5 18
3847.5 4.42857
3848.5 13.5714
3849.5 -21.2857
3850.5 5
3851.5 20.2857
3852.5 32.7143
3853.5 -0.999999
3854.5 -2.85714
3855.5 -8
3856.5 -7.14286
3857.5 -9.57143
3858.5 -7.85714
3859.5 4.57143
3860.5 -1.57143
3861.5 -8.85714
3862.5 25.2857
3863.5 -4
3864.5 43.8571
3865.5 54.5714
3866.5 22.2857
3867.5 6.71429
3868.5 11.2857
3869.5 61.5714
3870.5 89.8571
3871.5 100.143
3872.5 76.1429
3873.5 42.8571
3874.5 59.1429
3875.5 -19.1429
3876.5 -16.8571
3877.5 -4
3878.5 1
3879.5 2.57143
3880.5 18.7143
3881.5 10.7143
3882.5 3.85714
3883.5 2
3884.5 -0.857142
3885.5 2.57143
3886.5 11.1429
3887.5 3.85714
3888.5 14.1429
3889.5 -27.1429
3890.5 -23.2857
3891.5 10.2857
3892.5 5.28572
3893.5 6.14286
3894.5 -10.8571
3895.5 5.85714
3896.5 29.8571
3897.5 -7.57143
3898.5 -2.71428
3899.5 1.57143
3900.5 -17.1429
3901.5 -41.5714
3902.5 -41.7143
3903.5 -54.5714
3904.5 1.57143
3905.5 -24.8571
3906.5 -10.4286
3907.5 -12.2857
3908.5 -6
3909.5 -13.2857
3910.5 18.8571
3911.5 3.42857
3912.5 28.7143
3913.5 -15.5714
3914.5 -12.4286
3915.5 -13.2857
3916.5 10.7143
3917.5 10.7143
3918.5 28.1429
3919.5 20
3920.5 0.428573
3921.5 -11
3922.5 3
3923.5 -16
3924.5 14.4286
3925.5 15.7143
3926.5 2.14286
3927.5 2.85714
3928.5 1.14286
3929.5 15.8571
3930.5 20.5714
3931.5 16.7143
3932.5 4.71429
3933.5 26.8571
3934.5 30.2857
3935.5 1.57143
3936.5 3.14286
3937.5 7.85714
3938.5 19.4286
3939.5 19.5714
3940.5 -0.142856
3941.5 33.7143
3942.5 24.7143
3943.5 8.57143
3944.5 3.14286
3945.5 7.71429
3946.5 -7.85714
3947.5 22.1429
3948.5 30.8571
3949.5 5.42857
3950.5 21.8571
3951.5 15.5714
3952.5 -5.42857
3953.5 59.8571
3954.5 -3.57143
3955.5 4
3956.5 -8.42857
3957.5 -4.42857
3958.5 44.5714
3959.5 15.2857
3960.5 -26
3961.5 28.5714
3962.5 5.85714
3963.5 -4.57143
3964.5 -41.2857
3965.5 -6.71428
3966.5 -0.999999
3967.5 9.42857
3968.5 -4.85714
3969.5 13.4286
3970.5 11.8571
3971.5 62.1429
3972.5 35.2857
3973.5 32.7143
3974.5 3.85715
3975.5 16.7143
3976.5 1.85714
3977.5 28.2857
3978.5 9.85714
3979.5 -38.1429
3980.5 -9
3981.5 -10.2857
3982.5 -10.4286
3983.5 29.7143
3984.5 -3.85714
3985.5 7.71429
3986.5 6.14286
3987.5 -25.2857
3988.5 -4.71428
3989.5 -18.2857
3990.5 -1.71428
3991.5 0.142858
3992.5 1.28572
3993.5 -9.85714
3994.5 -31.1429
3995.5 9.28572
3996.5 3.71429
3997.5 13.5714
3998.5 24.1429
3999.5 -2.42857
4000.5 15.8571
4001.5 13.8571
4002.5 -1.85714
4003.5 22.7143
4004.5 8.57143
4005.5 21.2857
4006.5 4.42857
4007.5 5.42857
4008.5 19.5714
4009.5 1.14286
4010.5 -19.1429
4011.5 22
4012.5 5
4013.5 -14.8571
4014.5 -12.5714
4015.5 -8.28571
4016.5 5.28572
4017.5 7.42857
4018.5 16.4286
4019.5 -3.42857
4020.5 21
4021.5 9.14286
4022.5 -2.28571
4023.5 4.85714
4024.5 4.42857
4025.5 21.4286
4026.5 26.7143
4027.5 -4.85714
4028.5 25.1429
4029.5 1.42857
4030.5 50.4286
4031.5 30
4032.5 45.8571
4033.5 29.2857
4034.5 42.8571
4035.5 19.1429
4036.5 41.2857
4037.5 1.71429
4038.5 11.5714
4039.5 -0.999999
4040.5 38
4041.5 18.5714
4042.5 -14.1429
4043.5 -8
4044.5 24.7143
4045.5 13.5714
4046.5 4.14286
4047.5 20.4286
4048.5 31.1429
4049.5 9.71429
4050.5 13.7143
4051.5 -37.7143
4052.5 -17.1429
4053.5 -15.7143
4054.5 -17.8571
4055.5 -48.7143
4056.5 -2.57143
4057.5 -11.7143
4058.5 10.2857
4059.5 18.5714
4060.5 29
4061.5 13.1429
4062.5 0.142858
4063.5 -7.71428
4064.5 -22.5714
4065.5 -3.42857
4066.5 -20.4286
4067.5 10.7143
4068.5 46.4286
4069.5 -1.28571
4070.5 19.1429
4071.5 11.4286
4072.5 -14.8571
4073.5 2.57143
4074.5 27.5714
4075.5 -19
4076.5 17
4077.5 1.19209e-06
4078.5 -13
4079.5 -29.4286
4080.5 -34.7143
4081.5 -4
4082.5 -0.42857
4083.5 31.4286
4084.5 5.85714
4085.5 24.7143
4086.5 -3
4087.5 -3.14286
4088.5 4.14286
4089.5 0.57143
4090.5 1.28572
4091.5 -8.28571
4092.5 -20.5714
4093.5 3.42857
4094.5 5.42857
4095.5 -6.28571
4096.5 -8
4097.5 23.5714
4098.5 13.5714
4099.5 -3.14286
4100.5 26.2857
4101.5 4.85714
4102.5 25
4103.5 3.14286
4104.5 13.7143
4105.5 -12.1429
4106.5 16.5714
4107.5 -6.71428
4108.5 15.8571
4109.5 4.42857
4110.5 5.71429
4111.5 -21.4286
4112.5 -7.14286
4113.5 12
4114.5 -8.57143
4115.5 -23.1429
4116.5 -2.85714
4117.5 -3.42857
4118.5 7
4119.5 -20
4120.5 -16.1429
4121.5 -31.5714
4122.5 -20.5714
4123.5 32
4124.5 -11.4286
4125.5 5.57143
4126.5 6.57143
4127.5 -16.1429
4128.5 -18.1429
4129.5 6
4130.5 4.71429
4131.5 16.7143
4132.5 -2.42857
4133.5 -7.85714
4134.5 -7.28571
4135.5 21
4136.5 -0.714284
4137.5 22.1429
4138.5 -17
4139.5 -0.42857
4140.5 26.1429
4141.5 -17.4286
4142.5 -13.7143
4143.5 25.7143
4144.5 -1.28571
4145.5 19.2857
4146.5 -14.5714
4147.5 -11.1429
4148.5 7.14286
4149.5 20
4150.5 -4.57143
4151.5 5.28572
4152.5 16.4286
4153.5 4
4154.5 7.57143
4155.5 32
4156.5 43.4286
4157.5 23.5714
4158.5 47.7143
4159.5 13
4160.5 4.28572
4161.5 17.4286
4162.5 33.5714
4163.5 -1.71428
4164.5 -4.85714
4165.5 32.1429
4166.5 -2.71428
4167.5 10.5714
4168.5 7.71429
4169.5 -8.28571
4170.5 11.8571
4171.5 -19.4286
4172.5 12.8571
4173.5 -3.57143
4174.5 11.4286
4175.5 -17.4286
4176.5 -13
4177.5 -0.571427
4178.5 8.57143
4179.5 12.1429
4180.5 -3.85714
4181.5 13.1429
4182.5 29.8571
4183.5 43.7143
4184.5 26.4286
4185.5 47.7143
4186.5 -7.85714
4187.5 24
4188.5 -13.2857
4189.5 7.42857
4190.5 14.1429
4191.5 13.2857
4192.5 18.2857
4193.5 14.8571
4194.5 5.71429
4195.5 16.1429
4196.5 -22.4286
4197.5 3.28572
4198.5 28.2857
4199.5 -12.8571
4200.5 -22.1429
4201.5 -7.85714
4202.5 14
4203.5 -14
4204.5 6.28572
4205.5 -20.2857
4206.5 10
4207.5 -15.5714
4208.5 -30.1429
4209.5 -20
4210.5 -15.8571
4211.5 -22
4212.5 7.85714
4213.5 -3.57143
4214.5 -19.2857
4215.5 -26.2857
4216.5 -13.7143
4217.5 -38.4286
4218.5 -24.2857
4219.5 -4.57143
4220.5 -12.7143
4221.5 27.1429
4222.5 -8.71428
4223.5 4.28572
4224.5 18.2857
4225.5 12.2857
4226.5 13.5714
4227.5 -1.85714
4228.5 19.1429
4229.5 15.1429
4230.5 -4.71428
4231.5 17
4232.5 -6
4233.5 -14.1429
4234.5 -15.1429
4235.5 -21.4286
4236.5 9.14286
4237.5 0.857144
4238.5 -4.57143
4239.5 20.8571
4240.5 -14.8571
4241.5 19.8571
4242.5 19.1429
4243.5 7
4244.5 -26.4286
4245.5 32.1429
4246.5 38.5714
4247.5 5.85714
4248.5 2.57143
4249.5 9.85714
4250.5 -9.42857
4251.5 6.42857
4252.5 30.7143
4253.5 -15
4254.5 18
4255.5 -2.28571
4256.5 -16.8571
4257.5 29.4286
4258.5 14.8571
4259.5 12.8571
4260.5 11
4261.5 11.1429
4262.5 4.42857
4263.5 -44.5714
4264.5 -20.7143
4265.5 -18.7143
4266.5 -5.71428
4267.5 21.7143
4268.5 -1.57143
4269.5 -19.1429
4270.5 -6.28571
4271.5 20
4272.5 10.1429
4273.5 -10.8571
4274.5 -0.571427
4275.5 -2.42857
4276.5 -3.14286
4277.5 8.28572
4278.5 -9.85714
4279.5 -9.57143
4280.5 11.2857
4281.5 10.8571
4282.5 -2.57143
4283.5 11.8571
4284.5 0.285715
4285.5 6.71429
4286.5 13.5714
4287.5 -7.42857
4288.5 -11.8571
4289.5 1.71429
4290.5 -0.999999
4291.5 -3.71428
4292.5 -0.714285
4293.5 7.71429
4294.5 -10.2857
4295.5 -1.71428
4296.5 -21.7143
4297.5 -20.8571
4298.5 -27.4286
4299.5 -12.2857
4300.5 -14.8571
4301.5 8.85714
4302.5 16
4303.5 17.2857
4304.5 11.8571
4305.5 -26.5714
4306.5 -0.285713
4307.5 -5
4308.5 -1.71428
4309.5 -27
4310.5 2.14286
4311.5 14.4286
4312.5 16.2857
4313.5 0.142858
4314.5 -5.71428
4315.5 1.42857
4316.5 -2.28571
4317.5 -23.7143
4318.5 10.8571
4319.5 -11.7143
4320.5 -8.42857
4321.5 -24
4322.5 11.5714
4323.5 -6.28571
4324.5 -6.57143
4325.5 -18.7143
4326.5 -12
4327.5 -6.71428
4328.5 -27
4329.5 -6.71428
4330.5 2
4331.5 -5.14286
4332.5 8.85714
4333.5 13.5714
4334.5 -16.4286
4335.5 -21
4336.5 14.5714
4337.5 -16.8571
4338.5 7.42857
4339.5 12.1429
4340.5 5.42857
4341.5 10.2857
4342.5 -28.4286
4343.5 3.28572
4344.5 -0.42857
4345.5 -15.1429
4346.5 18.8571
4347.5 1.14286
4348.5 16.1429
4349.5 8.57143
4350.5 7.85714
4351.5 -11.2857
4352.5 13
4353.5 28.8571
4354.5 -19.4286
4355.5 22.5714
4356.5 -46.8571
4357.5 2.42857
4358.5 -6.14286
4359.5 -1.14286
4360.5 -16.1429
4361.5 2.42857
4362.5 -6.71428
4363.5 7
4364.5 -24.8571
4365.5 9.53674e-07
4366.5 -6.71428
4367.5 -10.2857
4368.5 -17.8571
4369.5 5.57143
4370.5 28.5714
4371.5 15.8571
4372.5 29.8571
4373.5 28.2857
4374.5 11.8571
4375.5 35.2857
4376.5 82.2857
4377.5 68
4378.5 108.571
4379.5 143.714
4380.5 256.857
4381.5 393.571
4382.5 395.143
4383.5 349.429
4384.5 171.143
4385.5 83.8571
4386.5 5.14286
4387.5 -10.2857
4388.5 -3.42857
4389.5 -14.8571
4390.5 -16.4286
4391.5 10.4286
4392.5 -6.14286
4393.5 -4.42857
4394.5 -9.14286
4395.5 0.428573
4396.5 4.14286
4397.5 13.8571
4398.5 -8.57143
4399.5 -9.85714
4400.5 -3.14286
4401.5 19.5714
4402.5 -9.71428
4403.5 -31.1429
4404.5 -16.4286
4405.5 -20
4406.5 -20.7143
4407.5 -3.28571
4408.5 -8.71428
4409.5 -15.4286
4410.5 -3.71428
4411.5 -6.42857
4412.5 -5.85714
4413.5 -12.1429
4414.5 -15.4286
4415.5 -7.28571
4416.5 11.1429
4417.5 -4
4418.5 -17.5714
4419.5 -12.7143
4420.5 -21.1429
4421.5 -5.57143
4422.5 -22.8571
4423.5 -7.57143
4424.5 -1.85714
4425.5 -0.285713
4426.5 2.28572
4427.5 -21.2857
4428.5 8.34465e-07
4429.5 22.8571
4430.5 14.4286
4431.5 15
4432.5 -11.5714
4433.5 12.5714
4434.5 -9.85714
4435.5 2.71429
4436.5 -13.4286
4437.5 -6.28571
4438.5 10.5714
4439.5 -17.1429
4440.5 -21.5714
4441.5 9.85714
4442.5 -4.71428
4443.5 -2.57143
4444.5 -0.857142
4445.5 -10.5714
4446.5 -9.28571
4447.5 -3.85714
4448.5 -3.28571
4449.5 -20.1429
4450.5 13
4451.5 15.5714
4452.5 11.5714
4453.5 8.42857
4454.5 0.428573
4455.5 -5.42857
4456.5 30.7143
4457.5 13.5714
4458.5 -5
4459.5 2.42857
4460.5 8.85715
4461.5 18.7143
4462.5 -36.2857
4463.5 -3.71428
4464.5 10
4465.5 -5.42857
4466.5 -19.7143
4467.5 11.5714
4468.5 -14.5714
4469.5 -31.7143
4470.5 1.71429
4471.5 -11.4286
4472.5 -3.28571
4473.5 -33.8571
4474.5 12.7143
4475.5 -11.1429
4476.5 -16.4286
4477.5 -24.8571
4478.5 1.57143
4479.5 -3.71428
4480.5 10.1429
4481.5 5.28571
4482.5 -3.71428
4483.5 -11.2857
4484.5 -14.4286
4485.5 -10
4486.5 -12.8571
4487.5 -21.7143
4488.5 -40.2857
4489.5 -31
4490.5 -33.4286
4491.5 -9.28571
4492.5 -27.7143
4493.5 -4.14286
4494.5 0.714287
4495.5 -18.5714
4496.5 6.57143
4497.5 -34.1429
4498.5 -15
4499.5 -8.14286
4500.5 1.3113e-06
4501.5 8.28572
4502.5 18
4503.5 15.2857
4504.5 12.5714
4505.5 6.71429
4506.5 -13.7143
4507.5 -11.7143
4508.5 -5.28571
4509.5 -9.85714
4510.5 9.53674e-07
4511.5 -10.5714
4512.5 -6
4513.5 -17.4286
4514.5 17.8571
4515.5 -10.2857
4516.5 -7.71428
4517.5 0.428572
4518.5 0.571429
4519.5 -0.285713
4520.5 1.57143
4521.5 -7.14286
4522.5 -14.2857
4523.5 26
4524.5 1.85714
4525.5 14.7143
4526.5 -33.8571
4527.5 2.14286
4528.5 15.8571
4529.5 5.85714
4530.5 -0.428571
4531.5 4.42857
4532.5 -4.28571
4533.5 14.8571
4534.5 -3.71428
4535.5 -2.14286
4536.5 -14.1429
4537.5 -11.1429
4538.5 -2.14286
4539.5 -18.7143
4540.5 -3.42857
4541.5 -12.7143
4542.5 -3.28571
4543.5 8.57143
4544.5 7.14286
4545.5 12.4286
4546.5 8
4547.5 18.5714
4548.5 7.85714
4549.5 -2
4550.5 11.1429
4551.5 20
4552.5 16.5714
4553.5 3.57143
4554.5 -8.14286
4555.5 0.857144
4556.5 26.5714
4557.5 20.2857
4558.5 12.5714
4559.5 -34.4286
4560.5 -18.2857
4561.5 -33.1429
4562.5 -59.7143
4563.5 -90.8571
4564.5 -89.1429
4565.5 -86.4286
4566.5 -49.7143
4567.5 -51.2857
4568.5 -18.8571
4569.5 -8
4570.5 10
4571.5 5.57143
4572.5 -8.42857
4573.5 15.5714
4574.5 -8.42857
4575.5 6.71429
4576.5 16
4577.5 -6.14286
4578.5 25.4286
4579.5 40.8571
4580.5 39.2857
4581.5 9.71429
4582.5 10.7143
4583.5 14.8571
4584.5 11.1429
4585.5 4
4586.5 -9.71428
4587.5 7.71429
4588.5 -6.57143
4589.5 9.71429
4590.5 -16.5714
4591.5 2.42857
4592.5 -15.1429
4593.5 2.42857
4594.5 -21.1429
4595.5 -0.571428
4596.5 -24
4597.5 -19.7143
4598.5 -13.7143
4599.5 -17.5714
4600.5 -17.4286
4601.5 26.8571
4602.5 -7.14286
4603.5 -28
4604.5 -33.2857
4605.5 -39.7143
4606.5 -33
4607.5 -23.1429
4608.5 9.28572
4609.5 -24.5714
4610.5 -11.4286
4611.5 8.14286
4612.5 12.5714
4613.5 -4.57143
4614.5 -36.5714
4615.5 -9.42857
4616.5 -1.14286
4617.5 -17.2857
4618.5 7.14286
4619.5 -10.8571
4620.5 5
4621.5 -2
4622.5 -11.8571
4623.5 -29.5714
4624.5 17.5714
4625.5 -5
4626.5 -27
4627.5 -6.14286
4628.5 6.85714
4629.5 13.7143
4630.5 -9.28571
4631.5 -20.4286
4632.5 -16.4286
4633.5 11.7143
4634.5 1.28572
4635.5 6.57143
4636.5 -22.2857
4637.5 4
4638.5 -7.28571
4639.5 3.57143
4640.5 -28.2857
4641.5 -2.57143
4642.5 -4.85714
4643.5 0.428572
4644.5 -13
4645.5 21.7143
4646.5 -1.57143
4647.5 9.57143
4648.5 3.71429
4649.5 -22.7143
4650.5 -7.71428
4651.5 3
4652.5 12
4653.5 3
4654.5 -10.7143
4655.5 -29.8571
4656.5 13.4286
4657.5 7.85714
4658.5 11.1429
4659.5 3.42857
4660.5 -4.71428
4661.5 -1.28571
4662.5 4.28572
4663.5 6.71429
4664.5 1
4665.5 2.85714
4666.5 8.34465e-07
4667.5 -5
4668.5 7.57143
4669.5 -11
4670.5 -12.5714
4671.5 1.71429
4672.5 -17.2857
4673.5 -2.42857
4674.5 2.57143
4675.5 -16.1429
4676.5 -6.42857
4677.5 6.42857
4678.5 -18.2857
4679.5 13.1429
4680.5 20.2857
4681.5 18.8571
4682.5 -5.42857
4683.5 4.85714
4684.5 1.28572
4685.5 -11.8571
4686.5 -15.2857
4687.5 -0.42857
4688.5 0.142858
4689.5 0.857144
4690.5 11
4691.5 -6.71428
4692.5 -2.85714
4693.5 -12.2857
4694.5 -7.42857
4695.5 -8.28571
4696.5 7.14286
4697.5 -4.42857
4698.5 0.142858
4699.5 -1.57143
4700.5 10
4701.5 14
4702.5 -4
4703.5 12.7143
4704.5 -14.5714
4705.5 -0.428571
4706.5 1
4707.5 -15
4708.5 -6.28571
4709.5 -5.71429
4710.5 -7.42857
4711.5 -4.71428
4712.5 4
4713.5 5.71429
4714.5 -10.1429
4715.5 1.28572
4716.5 -0.428571
4717.5 -8.71428
4718.5 2.71429
4719.5 8.85714
4720.5 8.14286
4721.5 -31.8571
4722.5 -16.2857
4723.5 -7
4724.5 -6.14286
4725.5 -18
4726.5 -3.57143
4727.5 -9.42857
4728.5 -19.7143
4729.5 -11.7143
4730.5 1.42857
4731.5 -5
4732.5 6.85714
4733.5 -12
4734.5 7.85714
4735.5 4.71429
4736.5 -9.28571
4737.5 3
4738.5 8.71429
4739.5 26.1429
4740.5 -0.285713
4741.5 6
4742.5 -7.28571
4743.5 9.42857
4744.5 2.57143
4745.5 5.42857
4746.5 7.71429
4747.5 5.28572
4748.5 -32.4286
4749.5 8.57143
4750.5 -12
4751.5 -18
4752.5 -3
4753.5 -15.8571
4754.5 -24
4755.5 20.8571
4756.5 2.71429
4757.5 4.42857
4758.5 8.28571
4759.5 3
4760.5 18.5714
4761.5 -9.28571
4762.5 13.4286
4763.5 31.1429
4764.5 -2.28571
4765.5 -18
4766.5 -3
4767.5 20.2857
4768.5 16.4286
4769.5 -11.5714
4770.5 -14.5714
4771.5 -18.2857
4772.5 -3.85714
4773.5 2
4774.5 11.5714
4775.5 -2.14286
4776.5 -2.57143
4777.5 -5.28571
4778.5 -16.8571
4779.5 -30.5714
4780.5 -21.5714
4781.5 -2.28571
4782.5 16
4783.5 -8.71428
4784.5 4.57143
4785.5 3.42857
4786.5 -1.42857
4787.5 19.4286
4788.5 0.714286
4789.5 17.8571
4790.5 12.1429
4791.5 -13.4286
4792.5 -10.4286
4793.5 23.1429
4794.5 -5.71429
4795.5 5
4796.5 16
4797.5 -4.28571
4798.5 -17.7143
4799.5 -2.71428
4800.5 -22.7143
4801.5 6.71429
4802.5 -21.5714
4803.5 6.85714
4804.5 8.42857
4805.5 -27.4286
4806.5 -41.5714
4807.5 -21.5714
4808.5 3
4809.5 -40
4810.5 -12.7143
4811.5 -34.8571
4812.5 14.4286
4813.5 -45.2857
4814.5 0.571429
4815.5 4.71429
4816.5 -7.28571
4817.5 15.1429
4818.5 -5.42857
4819.5 -11.5714
4820.5 -14.7143
4821.5 -3.42857
4822.5 3.71429
4823.5 6.42857
4824.5 -17.7143
4825.5 -19.4286
4826.5 -3.57143
4827.5 -6.42857
4828.5 -10.2857
4829.5 -2.71428
4830.5 -13
4831.5 -5.57143
4832.5 3.42857
4833.5 3.57143
4834.5 6.71429
4835.5 14
4836.5 -4
4837.5 15.8571
4838.5 -8
4839.5 5.42857
4840.5 -2.85714
4841.5 2.42857
4842.5 2.71429
4843.5 -19.5714
4844.5 18.7143
4845.5 15.2857
4846.5 -19
4847.5 -19.1429
4848.5 -9.71428
4849.5 1.85714
4850.5 -16.1429
4851.5 10.2857
4852.5 -0.714285
4853.5 -3.28571
4854.5 -8.57143
4855.5 -1.28571
4856.5 -12.1429
4857.5 10.2857
4858.5 10
4859.5 21
4860.5 -0.142856
4861.5 -8.57143
4862.5 -3.85714
4863.5 -13.2857
4864.5 -6.71428
4865.5 5.85714
4866.5 15.7143
4867.5 -27.1429
4868.5 2.71429
4869.5 -8.71429
4870.5 -15.7143
4871.5 8
4872.5 -0.571428
4873.5 3.42857
4874.5 2.14286
4875.5 19.4286
4876.5 -2.14286
4877.5 -19.8571
4878.5 -15.8571
4879.5 -8.71428
4880.5 -21.1429
4881.5 -17.8571
4882.5 0.285716
4883.5 -3.28571
4884.5 4.14286
4885.5 -13.7143
4886.5 -9.14286
4887.5 -21
4888.5 3.14286
4889.5 13.2857
4890.5 -8.28571
4891.5 25.8571
4892.5 18.5714
4893.5 10.8571
4894.5 -2.85714
4895.5 12.2857
4896.5 21
4897.5 4.85714
4898.5 12.5714
4899.5 0.428572
4900.5 19.2857
4901.5 8.85714
4902.5 -14.4286
4903.5 8
4904.5 12.2857
4905.5 1.28572
4906.5 4.14286
4907.5 -14.1429
4908.5 -8.71428
4909.5 11.1429
4910.5 3
4911.5 3.57143
4912.5 -25.7143
4913.5 -6.14286
4914.5 11.7143
4915.5 -2.14286
4916.5 0.714287
4917.5 -6.42857
4918.5 -12.4286
4919.5 -8.71428
4920.5 12.5714
4921.5 -19.8571
4922.5 7.85714
4923.5 -13.1429
4924.5 1.85714
4925.5 6.85714
4926.5 12.2857
4927.5 -10.5714
4928.5 2.28572
4929.5 -4.85714
4930.5 -14.8571
4931.5 -2.71428
4932.5 -11.1429
4933.5 -2.85714
4934.5 6.42857
4935.5 -22.5714
4936.5 -14.4286
4937.5 11.8571
4938.5 -3.14286
4939.5 -20.2857
4940.5 3.57143
4941.5 -1.14286
4942.5 4
4943.5 -0.999999
4944.5 7.28571
4945.5 1.42857
4946.5 -11.2857
4947.5 1.85714
4948.5 2.14286
4949.5 -0.714285
4950.5 27.1429
4951.5 45.7143
4952.5 17
4953.5 20.7143
4954.5 21.1429
4955.5 -4.71428
4956.5 2.28571
4957.5 2.71429
4958.5 -0.857142
4959.5 -3
4960.5 1.85714
4961.5 14.1429
4962.5 -7.71428
4963.5 -3.42857
4964.5 9.57143
4965.5 2.71429
4966.5 17.2857
4967.5 -5.71428
4968.5 -3.42857
4969.5 0.428572
4970.5 -2
4971.5 6.28572
4972.5 -5
4973.5 -10.4286
4974.5 6
4975.5 -17.7143
4976.5 -13.2857
4977.5 14.1429
4978.5 9.14286
4979.5 2
4980.5 -6.14286
4981.5 -8.42857
4982.5 1.71429
4983.5 -21.2857
4984.5 -5
4985.5 9.42857
4986.5 -27
4987.5 -8.14286
4988.5 5.14286
4989.5 -0.428571
4990.5 9.42857
4991.5 5.57143
4992.5 4.42857
4993.5 2.71429
4994.5 6.71429
4995.5 5.42857
4996.5 -0.428571
4997.5 -2
4998.5 -16.7143
4999.5 7.42857
5000.5 -7
5001.5 -9
5002.5 0.285715
5003.5 -26.4286
5004.5 7.42857
5005.5 8.28572
5006.5 8.28572
5007.5 -2.14286
5008.5 -10.7143
5009.5 -15.2857
5010.5 12.7143
5011.5 -10
5012.5 0.428572
5013.5 -15.1429
5014.5 18.5714
5015.5 8.85714
5016.5 9.85714
5017.5 -0.428571
5018.5 -3.71429
5019.5 -6.14286
5020.5 -6.57143
5021.5 11.4286
5022.5 13
5023.5 -10.8571
5024.5 11.4286
5025.5 6.28572
5026.5 -14.2857
5027.5 14.5714
5028.5 16.2857
5029.5 -0.285714
5030.5 -2
5031.5 -7.42857
5032.5 -17.4286
5033.5 -10.4286
5034.5 20.4286
5035.5 7.71429
5036.5 32.1429
5037.5 28.4286
5038.5 32
5039.5 12.7143
5040.5 28.8571
5041.5 32.1429
5042.5 23
5043.5 4.28572
5044.5 10.5714
5045.5 -9.85714
5046.5 12.5714
5047.5 -8.14286
5048.5 -10.1429
5049.5 -1.14286
5050.5 2.71429
5051.5 9.42857
5052.5 15.1429
5053.5 -13.4286
5054.5 -11.2857
5055.5 -0.999999
5056.5 -3
5057.5 -1.14286
5058.5 11.5714
5059.5 11
5060.5 -7.85714
5061.5 0.285715
5062.5 -7.85714
5063.5 -18.1429
5064.5 4.42857
5065.5 1
5066.5 -1.14286
5067.5 -9.71428
5068.5 21.5714
5069.5 5.57143
5070.5 2.14286
5071.5 -2.85714
5072.5 -9.28571
5073.5 -9.42857
5074.5 5.96046e-07
5075.5 -1.71429
5076.5 18.7143
5077.5 -1.42857
5078.5 1.57143
5079.5 10
5080.5 3.28571
5081.5 -5.71428
5082.5 22.2857
5083.5 6.71429
5084.5 10.1429
5085.5 6.57143
5086.5 16
5087.5 26.8571
5088.5 61.5714
5089.5 52.5714
5090.5 85.5714
5091.5 93.5714
5092.5 41.7143
5093.5 44.4286
5094.5 8.14286
5095.5 9
5096.5 2.28571
5097.5 14.4286
5098.5 -4
5099.5 -13.5714
5100.5 11.4286
5101.5 -6.85714
5102.5 -12
5103.5 12.1429
5104.5 -7.57143
5105.5 1.57143
5106.5 -26.2857
5107.5 -4.28571
5108.5 -0.428571
5109.5 -16.7143
5110.5 -14.8571
5111.5 -7.71429
5112.5 1.57143
5113.5 -17.7143
5114.5 -17.8571
5115.5 -0.285713
5116.5 -8.71428
5117.5 -3
5118.5 6.71429
5119.5 4.71429
5120.5 -7.42857
5121.5 -19.1429
5122.5 9
5123.5 -14.2857
5124.5 -2.57143
5125.5 2.42857
5126.5 0.857144
5127.5 -28.4286
5128.5 -15.2857
5129.5 -3.14286
5130.5 -24.4286
5131.5 -0.714285
5132.5 7.28572
5133.5 -19.4286
5134.5 -7.57143
5135.5 -18
5136.5 -22
5137.5 -5.71428
5138.5 -9.71428
5139.5 12.7143
5140.5 7.85714
5141.5 -12.1429
5142.5 2.14286
5143.5 -16
5144.5 -3
5145.5 13.2857
5146.5 4
5147.5 -5.85714
5148.5 2.14286
5149.5 -5
5150.5 8.42857
5151.5 -11.4286
5152.5 2.85714
5153.5 -13
5154.5 5.42857
5155.5 1.85714
5156.5 -11.7143
5157.5 -5.85714
5158.5 -8.71428
5159.5 -2.28571
5160.5 22.1429
5161.5 -15.5714
5162.5 17.5714
5163.5 -8.28571
5164.5 -0.714285
5165.5 -23
5166.5 10.5714
5167.5 9.85714
5168.5 -9
5169.5 1.42857
5170.5 5.57143
5171.5 12.4286
5172.5 -12.8571
5173.5 1.28571
5174.5 -20
5175.5 7.85714
5176.5 -13.4286
5177.5 -11.5714
5178.5 5.42857
5179.5 10.2857
5180.5 9
5181.5 -17
5182.5 -5.57143
5183.5 -0.571428
5184.5 9.57143
5185.5 2.85714
5186.5 -18.5714
5187.5 -4.42857
5188.5 5.42857
5189.5 6.42857
5190.5 -3
5191.5 -9
5192.5 12.2857
5193.5 -50.5714
5194.5 -0.999999
5195.5 7
5196.5 -33.1429
5197.5 -4.42857
5198.5 13.4286
5199.5 2.71429
5200.5 -23.1429
5201.5 7.71429
5202.5 -7.71428
5203.5 -22.4286
5204.5 -7.85714
5205.5 -10.7143
5206.5 -13.8571
5207.5 -4.14286
5208.5 -10
5209.5 -34.5714
5210.5 -17.7143
5211.5 -28.7143
5212.5 -37.2857
5213.5 9.14286
5214.5 -25.5714
5215.5 -7.71429
5216.5 6.14286
5217.5 -2.57143
5218.5 11
5219.5 -9.57143
5220.5 -0.857142
5221.5 -6.42857
5222.5 -5.42857
5223.5 -5.71428
5224.5 -1.71428
5225.5 -15
5226.5 15.2857
5227.5 -17.2857
5228.5 20.8571
5229.5 8.85714
5230.5 3.28571
5231.5 14.5714
5232.5 -21.4286
5233.5 14
5234.5 1.28571
5235.5 -8
5236.5 3.57143
5237.5 3.14286
5238.5 6.85714
5239.5 -6.28571
5240.5 -13.8571
5241.5 -15.5714
5242.5 -17.1429
5243.5 -35.8571
5244.5 -19.2857
5245.5 -21.5714
5246.5 -15.5714
5247.5 -12.7143
5248.5 13.1429
5249.5 14.1429
5250.5 2.14286
5251.5 24.4286
5252.5 6.28571
5253.5 -1.42857
5254.5 -13.5714
5255.5 -10
5256.5 19.7143
5257.5 -9
5258.5 -17.2857
5259.5 1
5260.5 10.1429
5261.5 0.142858
5262.5 5.28572
5263.5 25.4286
5264.5 -10.7143
5265.5 3.71429
5266.5 9.85714
5267.5 10
5268.5 6.28571
5269.5 -16.4286
5270.5 -13.8571
5271.5 -8.42857
5272.5 -15
5273.5 8.14286
5274.5 5.57143
5275.5 -11.7143
5276.5 -7.71429
5277.5 -0.285714
5278.5 -20.7143
5279.5 0.571429
5280.5 -2.42857
5281.5 2.57143
5282.5 -19.2857
5283.5 -8.42857
5284.5 -10.8571
5285.5 -6.42857
5286.5 -17.5714
5287.5 -15.1429
5288.5 -13.7143
5289.5 -23
5290.5 -14.1429
5291.5 6
5292.5 1.14286
5293.5 -1.71429
5294.5 -11.2857
5295.5 18.1429
5296.5 7.85714
5297.5 -8.85714
5298.5 -11.2857
5299.5 7.71429
5300.5 5.96046e-07
5301.5 7.15256e-07
5302.5 4.57143
5303.5 -3.71428
5304.5 -1.57143
5305.5 -11.1429
5306.5 -9.57143
5307.5 12.8571
5308.5 -7
5309.5 -3.85714
5310.5 7.71429
5311.5 4.14286
5312.5 -15.7143
5313.5 -16.7143
5314.5 15.2857
5315.5 -11.4286
5316.5 -10.4286
5317.5 -14.1429
5318.5 -15
5319.5 -4.85714
5320.5 -30
5321.5 -10
5322.5 -7.14286
5323.5 12.2857
5324.5 -3.57143
5325.5 -15.1429
5326.5 15.4286
5327.5 1.57143
5328.5 21.7143
5329.5 -16.8571
5330.5 3.85714
5331.5 3.42857
5332.5 3.57143
5333.5 7.15256e-07
5334.5 -10.8571
5335.5 3.42857
5336.5 -4.57143
5337.5 -0.285714
5338.5 -4.85714
5339.5 -8.42857
5340.5 16.7143
5341.5 0.857143
5342.5 -7.85714
5343.5 -3.57143
5344.5 -18.5714
5345.5 0.428572
5346.5 6.85714
5347.5 3.85714
5348.5 -2.85714
5349.5 -6
5350.5 -18.5714
5351.5 7.71429
5352.5 26.8571
5353.5 -24
5354.5 -18.4286
5355.5 20.1429
5356.5 -22.5714
5357.5 15.1429
5358.5 -11.5714
5359.5 -2.57143
5360.5 -25.2857
5361.5 -12
5362.5 -4.71429
5363.5 -5.71429
5364.5 -11.2857
5365.5 2.71429
5366.5 -9.85714
5367.5 -21.1429
5368.5 -8.71429
5369.5 -7
5370.5 7.71429
5371.5 -6.28571
5372.5 -19.8571
5373.5 -15.1429
5374.5 -15.2857
5375.5 3.42857
5376.5 -1.85714
5377.5 -5.85714
5378.5 -13.8571
5379.5 8.71429
5380.5 8.85714
5381.5 -16.4286
5382.5 -12.1429
5383.5 6.71429
5384.5 5.42857
5385.5 12.2857
5386.5 1.85714
5387.5 29.4286
5388.5 3.71429
5389.5 0.428573
5390.5 21.8571
5391.5 -10.8571
5392.5 8.71429
5393.5 -25.5714
5394.5 -43.7143
5395.5 6.57143
5396.5 -18.5714
5397.5 -10
5398.5 -16.2857
5399.5 -38.1429
5400.5 -20.7143
5401.5 -3.14286
5402.5 -7
5403.5 -2.85714
5404.5 23.5714
5405.5 14.8571
5406.5 9.14286
5407.5 19.5714
5408.5 6.28571
5409.5 -5.57143
5410.5 -15.4286
5411.5 -15.5714
5412.5 1.42857
5413.5 -10.5714
5414.5 -4.85714
5415.5 -7.71429
5416.5 0.571429
5417.5 2.14286
5418.5 -32.2857
5419.5 7.57143
5420.5 -10.8571
5421.5 -1.42857
5422.5 -12.4286
5423.5 15.8571
5424.5 -5.42857
5425.5 2.57143
5426.5 -16.1429
5427.5 -22.4286
5428.5 7.28571
5429.5 -3.42857
5430.5 9
5431.5 8.42857
5432.5 3.57143
5433.5 -11.7143
5434.5 -28
5435.5 -5.71429
5436.5 -17.1429
5437.5 10
5438.5 -11.2857
5439.5 2.28571
5440.5 -26.4286
5441.5 -0.285714
5442.5 -1.28571
5443.5 -12.2857
5444.5 -0.428571
5445.5 2.14286
5446.5 -9.28571
5447.5 -4
5448.5 19.8571
5449.5 17.4286
5450.5 -2.71429
5451.5 -7.57143
5452.5 -7.28571
5453.5 -13.8571
5454.5 -5.57143
5455.5 4.85714
5456.5 10.5714
5457.5 -4.28571
5458.5 -1.28571
5459.5 -30.7143
5460.5 12.2857
5461.5 13
5462.5 -1.14286
5463.5 9.42857
5464.5 5.85714
5465.5 -3.71429
5466.5 -10.1429
5467.5 9.42857
5468.5 6.28571
5469.5 7.85714
5470.5 2.42857
5471.5 3.57143
5472.5 6
5473.5 3
5474.5 5.42857
5475.5 25.8571
5476.5 9.71429
5477.5 -12
5478.5 4.14286
5479.5 3
5480.5 -1.28571
5481.5 1
5482.5 -11.8571
5483.5 11.4286
5484.5 0.714286
5485.5 9.71429
5486.5 9.53674e-07
5487.5 -10.8571
5488.5 -8.85714
5489.5 -13.7143
5490.5 12.2857
5491.5 4.42857
5492.5 -2.42857
5493.5 -15.2857
5494.5 -1.71429
5495.5 12.2857
5496.5 3.42857
5497.5 4.76837e-07
5498.5 -10
5499.5 -3.42857
5500.5 -14.8571
5501.5 -25.2857
5502.5 -2
5503.5 -2.28571
5504.5 8.14286
5505.5 9.57143
5506.5 11.4286
5507.5 -14.4286
5508.5 -13.1429
5509.5 -5.14286
5510.5 3
5511.5 1
5512.5 -7.14286
5513.5 -16.2857
5514.5 -1.57143
5515.5 -29.5714
5516.5 -4.71429
5517.5 3.71429
5518.5 -2.71429
5519.5 -7
5520.5 -8.71429
5521.5 -12.1429
5522.5 -10.8571
5523.5 3.14286
5524.5 -8.28571
5525.5 -6.28571
5526.5 -0.999999
5527.5 8.28571
5528.5 -0.571428
5529.5 8
5530.5 11.1429
5531.5 -9.85714
5532.5 -11.5714
5533.5 -17.1429
5534.5 -11.5714
5535.5 1.14286
5536.5 -13.1429
5537.5 -18.7143
5538.5 -10.5714
5539.5 0.142858
5540.5 4.14286
5541.5 -17.4286
5542.5 6.42857
5543.5 -8.14286
5544.5 -14.4286
5545.5 -12
5546.5 -14.5714
5547.5 0.571429
5548.5 21.7143
5549.5 -2.71429
5550.5 -6.85714
5551.5 6.57143
5552.5 -3.57143
5553.5 -2.14286
5554.5 3
5555.5 -4.57143
5556.5 -7.57143
5557.5 8.57143
5558.5 2.85714
5559.5 -5.85714
5560.5 1.85714
5561.5 -35.1429
5562.5 -3.71429
5563.5 -16.8571
5564.5 -1.71429
5565.5 -10.5714
5566.5 -10.8571
5567.5 -15.7143
5568.5 -14.1429
5569.5 -25.2857
5570.5 -14.2857
5571.5 14.5714
5572.5 2
5573.5 0.571429
5574.5 -1.14286
5575.5 -11.7143
5576.5 -5.14286
5577.5 -4
5578.5 11.5714
5579.5 -21.4286
5580.5 -8.71428
5581.5 -18.8571
5582.5 1.28572
5583.5 -2.85714
5584.5 2.85714
5585.5 -22.8571
5586.5 4.71429
5587.5 -16.7143
5588.5 3.28571
5589.5 -5.85714
5590.5 9.71429
5591.5 -12.7143
5592.5 -12.4286
5593.5 -2.28571
5594.5 -2.14286
5595.5 1.71429
5596.5 -2.71429
5597.5 -1.28571
5598.5 12.8571
5599.5 -0.857142
5600.5 3.28571
5601.5 4
5602.5 3.57143
5603.5 12.1429
5604.5 26.8571
5605.5 -13.1429
5606.5 -3.42857
5607.5 -9.57143
5608.5 4.85714
5609.5 -8
5610.5 -26.7143
5611.5 -31.8571
5612.5 -45.1429
5613.5 15.5714
5614.5 -28.7143
5615.5 -36.4286
5616.5 -2
5617.5 -7.28571
5618.5 -4.42857
5619.5 -6.57143
5620.5 -18.5714
5621.5 -11.2857
5622.5 7
5623.5 8.14286
5624.5 7.71429
5625.5 31.5714
5626.5 6.57143
5627.5 8.57143
5628.5 -5.71429
5629.5 1.57143
5630.5 7.57143
5631.5 7.71429
5632.5 -3.57143
5633.5 -10.1429
5634.5 -23
5635.5 -39.4286
5636.5 -12
5637.5 -10
5638.5 -27.4286
5639.5 -22
5640.5 -27.7143
5641.5 -5.42857
5642.5 -23.1429
5643.5 -30.1429
5644.5 -17.5714
5645.5 -9.28571
5646.5 1
5647.5 -9.57143
5648.5 0.857143
5649.5 -19.5714
5650.5 1.14286
5651.5 12.8571
5652.5 0.714286
5653.5 -4.71429
5654.5 3
5655.5 -8
5656.5 -4.85714
5657.5 20.1429
5658.5 19.2857
5659.5 5
5660.5 11.2857
5661.5 0.714286
5662.5 1.71429
5663.5 6.28571
5664.5 -10.2857
5665.5 4.71429
5666.5 -10.7143
5667.5 8
5668.5 0.142858
5669.5 4.14286
5670.5 0.285715
5671.5 7
5672.5 9.14286
5673.5 11.4286
5674.5 6.85714
5675.5 6.85714
5676.5 19.5714
5677.5 -7.57143
5678.5 11.4286
5679.5 23.1429
5680.5 -7.42857
5681.5 -4.71429
5682.5 -13.5714
5683.5 -14.7143
5684.5 5.85714
5685.5 -8.14286
5686.5 2.71429
5687.5 -6.14286
5688.5 -20.1429
5689.5 -19.1429
5690.5 -4.42857
5691.5 -1.42857
5692.5 -13.8571
5693.5 -5.57143
5694.5 0.857143
5695.5 -6.28571
5696.5 -12.5714
5697.5 -13.8571
5698.5 -16.4286
5699.5 2.14286
5700.5 -5.14286
5701.5 -7.85714
5702.5 -17.7143
5703.5 -0.857142
5704.5 4.28571
5705.5 3.14286
5706.5 -4
5707.5 -10
5708.5 -12.7143
5709.5 27.7143
5710.5 -7.85714
5711.5 -0.285714
5712.5 -8.42857
5713.5 -15.2857
5714.5 -2
5715.5 -2.28571
5716.5 -3.57143
5717.5 -1.71429
5718.5 -10.4286
5719.5 4.71429
5720.5 -3.28571
5721.5 -0.571428
5722.5 -21.5714
5723.5 18.1429
5724.5 -1.42857
5725.5 -3
5726.5 -3
5727.5 1.57143
5728.5 -4.14286
5729.5 -3.28571
5730.5 9.42857
5731.5 3.57143
5732.5 -10.7143
5733.5 -18.7143
5734.5 -19.4286
5735.5 4.14286
5736.5 -10.8571
5737.5 -15.5714
5738.5 0.142858
5739.5 -3.71429
5740.5 -2
5741.5 -19
5742.5 -13.8571
5743.5 10.7143
5744.5 -3.85714
5745.5 -10.8571
5746.5 -4.14286
5747.5 -18.7143
5748.5 -3.57143
5749.5 5.85714
5750.5 -21.5714
5751.5 -17
5752.5 -10.8571
5753.5 -33.2857
5754.5 -45
5755.5 -47.4286
5756.5 -56
5757.5 -60.4286
5758.5 -34.2857
5759.5 0.285715
5760.5 -15.5714
5761.5 -15.7143
5762.5 -2.28571
5763.5 -20
5764.5 7.42857
5765.5 -6
5766.5 -1.42857
5767.5 -22.8571
5768.5 3.57143
5769.5 -2.85714
5770.5 -6.71429
5771.5 -11
5772.5 10.1429
5773.5 -1.14286
5774.5 4.57143
5775.5 -3.14286
5776.5 2.57143
5777.5 -23.8571
5778.5 -7.85714
5779.5 -8
5780.5 7.57143
5781.5 -7.14286
5782.5 0.714286
5783.5 0.142858
5784.5 7.28571
5785.5 -4.57143
5786.5 -0.142856
5787.5 17
5788.5 -1.14286
5789.5 7.57143
5790.5 -0.428571
5791.5 -13.7143
5792.5 1.71429
5793.5 -4.14286
5794.5 -9.42857
5795.5 6
5796.5 -14.2857
5797.5 12.7143
5798.5 7.85714
5799.5 1
5800.5 -9.42857
5801.5 -12
5802.5 -0.714285
5803.5 7.71429
5804.5 8.42857
5805.5 -15.4286
5806.5 -6
5807.5 -14.2857
5808.5 1.57143
5809.5 -8.14286
5810.5 -10.8571
5811.5 -13.8571
5812.5 -10.4286
5813.5 6.57143
5814.5 -5.71429
5815.5 8
5816.5 -0.714285
5817.5 22.2857
5818.5 5
5819.5 1.14286
5820.5 3.85714
5821.5 -5.42857
5822.5 -10.7143
5823.5 2.28571
5824.5 -11.8571
5825.5 -9.71429
5826.5 7.71429
5827.5 -20.4286
5828.5 -24.4286
5829.5 -27.8571
5830.5 -26.4286
5831.5 -30.5714
5832.5 -24.2857
5833.5 -24.1429
5834.5 -37.4286
5835.5 -5.28571
5836.5 -19.5714
5837.5 2.14286
5838.5 3.14286
5839.5 -1.28571
5840.5 -8.28571
5841.5 -26.7143
5842.5 -15.2857
5843.5 -0.428571
5844.5 6.85714
5845.5 9.42857
5846.5 -6.42857
5847.5 8.14286
5848.5 -0.714285
5849.5 10.7143
5850.5 -2.28571
5851.5 -14.1429
5852.5 -12.8571
5853.5 -0.571428
5854.5 -14.8571
5855.5 5
5856.5 -4.42857
5857.5 -4.14286
5858.5 -3.14286
5859.5 0.857143
5860.5 11.7143
5861.5 -15
5862.5 -2.57143
5863.5 -6.71429
5864.5 -9
5865.5 -1.14286
5866.5 5.71429
5867.5 1
5868.5 -7.57143
5869.5 -3
5870.5 11.2857
5871.5 -2.85714
5872.5 -2.71429
5873.5 2.85714
5874.5 1
5875.5 -4.71429
5876.5 2
5877.5 9.14286
5878.5 -3.14286
5879.5 -18.4286
5880.5 -3.85714
5881.5 -8.42857
5882.5 -2.14286
5883.5 6
5884.5 0.714286
5885.5 0.857143
5886.5 15.5714
5887.5 -3.14286
5888.5 13.7143
5889.5 7.42857
5890.5 -4.14286
5891.5 3.57628e-07
5892.5 10.8571
5893.5 5.71429
5894.5 12.1429
5895.5 0.714287
5896.5 -5.71428
5897.5 4.57143
5898.5 -5.71428
5899.5 11.4286
5900.5 37
5901.5 40.7143
5902.5 14.5714
5903.5 68
5904.5 17.5714
5905.5 20.2857
5906.5 1.57143
5907.5 -3.85714
5908.5 4.42857
5909.5 -0.285714
5910.5 0.714286
5911.5 -17.8571
5912.5 15.1429
5913.5 11.2857
5914.5 13.7143
5915.5 18
5916.5 44
5917.5 32.1429
5918.5 43.2857
5919.5 49.2857
5920.5 33.1429
5921.5 18.8571
5922.5 1.57143
5923.5 -1.57143
5924.5 -11.1429
5925.5 -0.714285
5926.5 -4.14286
5927.5 -4.71429
5928.5 1.14286
5929.5 -0.571428
5930.5 6.71429
5931.5 -0.714285
5932.5 1.42857
5933.5 -1.71429
5934.5 -4.14286
5935.5 5.14286
5936.5 -0.285714
5937.5 -4.28571
5938.5 6
5939.5 -24.4286
5940.5 -4.71429
5941.5 3.28571
5942.5 -2.28571
5943.5 1.28571
5944.5 6.28571
5945.5 -5.14286
5946.5 4.42857
5947.5 4.71429
5948.5 1.85714
5949.5 -1.28571
5950.5 -3.14286
5951.5 -8.71429
5952.5 -8.85714
5953.5 -6.14286
5954.5 -10.4286
5955.5 16.2857
5956.5 -13.8571
5957.5 -12.2857
5958.5 5.71429
5959.5 -7.85714
5960.5 -11.2857
5961.5 -5
5962.5 -3.71429
5963.5 -7.28571
5964.5 -12.2857
5965.5 -7.71429
5966.5 -0.428571
5967.5 8.57143
5968.5 3.42857
5969.5 -14
5970.5 -3
5971.5 5.28571
5972.5 2.42857
5973.5 -12.2857
5974.5 -8
5975.5 -10.7143
5976.5 -5.57143
5977.5 -5.28571
5978.5 6.85714
5979.5 3.85714
5980.5 -2.71429
5981.5 -6.57143
5982.5 -4.42857
5983.5 -10
5984.5 -4.14286
5985.5 4.42857
5986.5 -7.57143
5987.5 -11.5714
5988.5 -7.14286
5989.5 -7.57143
5990.5 -8.57143
5991.5 6.57143
5992.5 -6
5993.5 2.57143
5994.5 5.42857
5995.5 -6.14286
5996.5 1.14286
5997.5 1.28572
5998.5 -23
5999.5 -11
6000.5 4.71429
6001.5 35.5714
6002.5 0.57143
6003.5 -27.5714
6004.5 4.57143
6005.5 -15.5714
6006.5 0.857143
6007.5 -12.7143
6008.5 -9.85714
6009.5 4.71429
6010.5 -14.5714
6011.5 -14.2857
6012.5 1.85714
6013.5 4.42857
6014.5 -0.714285
6015.5 5.57143
6016.5 -1.42857
6017.5 -3.14286
6018.5 -6.85714
6019.5 -12.2857
6020.5 -4.42857
6021.5 -3.85714
6022.5 -5.14286
6023.5 -0.571428
6024.5 10
6025.5 -0.857143
6026.5 -7
6027.5 -2
6028.5 -11.2857
6029.5 -16.4286
6030.5 -19.1429
6031.5 -11.1429
6032.5 -2.28571
6033.5 12
6034.5 -9.85714
6035.5 -12.4286
6036.5 -15
6037.5 1.42857
6038.5 -0.428571
6039.5 -6.85714
6040.5 5.42857
6041.5 2.42857
6042.5 -3.85714
6043.5 0.857143
6044.5 -7.57143
6045.5 1.85714
6046.5 1.14286
6047.5 -2.42857
6048.5 -1.42857
6049.5 -8
6050.5 -6.28571
6051.5 1.85714
6052.5 -6.85714
6053.5 -8.28571
6054.5 1.28571
6055.5 4
6056.5 9.85714
6057.5 -8
6058.5 -10
6059.5 8.71429
6060.5 -7.57143
6061.5 -9
6062.5 0.285715
6063.5 2.71429
6064.5 -3.71429
6065.5 5.71429
6066.5 -7.14286
6067.5 -7.28571
6068.5 -3.14286
6069.5 -8.71429
6070.5 -5.28571
6071.5 -0.714285
6072.5 2.85714
6073.5 -1
6074.5 2.38419e-07
6075.5 4.71429
6076.5 2.71429
6077.5 -1.14286
6078.5 -3.85714
6079.5 -1
6080.5 5.71429
6081.5 -2.85714
6082.5 -1.57143
6083.5 -5.71429
6084.5 -9.42857
6085.5 1.28571
6086.5 -3.42857
6087.5 2.85714
6088.5 2.14286
6089.5 -6.57143
6090.5 6.14286
6091.5 10.8571
6092.5 -2.28571
6093.5 0.428572
6094.5 -6.57143
6095.5 -10.5714
6096.5 -2.71429
6097.5 -1
6098.5 -9.14286
6099.5 -6.57143
6100.5 -9.28571
6101.5 -11.8571
6102.5 -6.57143
6103.5 -16.4286
6104.5 -16.2857
6105.5 -4
6106.5 -14.8571
6107.5 5.71429
6108.5 -2.14286
6109.5 8.14286
6110.5 4.14286
6111.5 -0.142857
6112.5 -6.42857
6113.5 1.85714
6114.5 9.85714
6115.5 -6.42857
6116.5 -7.28571
6117.5 -6
6118.5 -9.42857
6119.5 -25
6120.5 -16.8571
6121.5 -7.57143
6122.5 -32.8571
6123.5 -78.4286
6124.5 -12.7143
6125.5 -28.2857
6126.5 -29.2857
6127.5 -44.4286
6128.5 -33.8571
6129.5 -14.8571
6130.5 -20.8571
6131.5 0.714286
6132.5 -12.4286
6133.5 -13.4286
6134.5 -5.28571
6135.5 2.28571
6136.5 7.85714
6137.5 -2.42857
6138.5 -7.28571
6139.5 6.42857
6140.5 0.857143
6141.5 6.85714
6142.5 4.57143
6143.5 6.57143
6144.5 -3.57143
6145.5 6.28571
6146.5 -1.14286
6147.5 8.57143
6148.5 0.714286
6149.5 4
6150.5 -18.4286
6151.5 -0.142857
6152.5 -6.71429
6153.5 -10
6154.5 -7.71429
6155.5 4.42857
6156.5 -4
6157.5 -1.57143
6158.5 -6.42857
6159.5 -4.71429
6160.5 -1.85714
6161.5 -1.42857
6162.5 3.71429
6163.5 4.85714
6164.5 2.28571
6165.5 -3.42857
6166.5 1.85714
6167.5 0.428572
6168.5 -6
6169.5 -1.14286
6170.5 -1.57143
6171.5 -0.857143
6172.5 -7.57143
6173.5 -9.85714
6174.5 -6.14286
6175.5 7.42857
6176.5 4.28571
6177.5 3.28571
6178.5 -6
6179.5 -0.571428
6180.5 -3.42857
6181.5 -4.57143
6182.5 6.71429
6183.5 7.42857
6184.5 6.42857
6185.5 -4.71429
6186.5 2
6187.5 2.42857
6188.5 -5.85714
6189.5 -4.57143
6190.5 4.71429
6191.5 1.71429
6192.5 -3.42857
6193.5 4.14286
6194.5 5.28571
6195.5 1
6196.5 -3.71429
6197.5 -0.428571
6198.5 -2.57143
6199.5 -9
6200.5 -5.42857
6201.5 11.7143
6202.5 10.1429
6203.5 2.71429
6204.5 -5
6205.5 -4.71429
6206.5 -10.2857
6207.5 -9
6208.5 0.857143
6209.5 -9
6210.5 4.14286
6211.5 -4
6212.5 -5.14286
6213.5 -6.42857
6214.5 -0.428571
6215.5 -6.42857
6216.5 -0.428571
6217.5 3.28571
6218.5 -2.42857
6219.5 5
6220.5 -11.8571
6221.5 12.1429
6222.5 13.8571
6223.5 -31.4286
6224.5 -0.571428
6225.5 -12.2857
6226.5 -13.8571
6227.5 3.14286
6228.5 -6.42857
6229.5 2.85714
6230.5 5.28571
6231.5 -9.57143
6232.5 -5
6233.5 -5
6234.5 -8.57143
6235.5 10.4286
6236.5 -1.85714
6237.5 -5.28571
6238.5 0.428572
6239.5 -6.57143
6240.5 11.5714
6241.5 -11.8571
6242.5 -0.857143
6243.5 -7.57143
6244.5 -5.14286
6245.5 2.38419e-07
6246.5 -0.428571
6247.5 2.42857
6248.5 3
6249.5 6.42857
6250.5 -0.714285
6251.5 2.85714
6252.5 -3.71429
6253.5 -0.714285
6254.5 1.85714
6255.5 -3.85714
6256.5 -0.142857
6257.5 2.42857
6258.5 -3.42857
6259.5 -15.7143
6260.5 -15.2857
6261.5 -8.85714
6262.5 -1.28571
6263.5 7.85714
6264.5 -5.14286
6265.5 -12.4286
6266.5 -6.14286
6267.5 7.28571
6268.5 3.57143
6269.5 0.857143
6270.5 6.14286
6271.5 -2.71429
6272.5 6.57143
6273.5 -1.28571
6274.5 2
6275.5 3.42857
6276.5 1.71429
6277.5 3.71429
6278.5 -8.28571
6279.5 -5.57143
6280.5 5.28571
6281.5 -1.14286
6282.5 -6.85714
6283.5 -0.857143
6284.5 -2.28571
6285.5 -11.2857
6286.5 3.71429
6287.5 2.28571
6288.5 -14.1429
6289.5 -6.14286
6290.5 -5
6291.5 -5.42857
6292.5 -0.285714
6293.5 5.71429
6294.5 6.42857
6295.5 -7.57143
6296.5 -5.71429
6297.5 7.14286
6298.5 1.28571
6299.5 -2.71429
6300.5 -7.14286
6301.5 3
6302.5 9.28571
6303.5 6.42857
6304.5 6.28571
6305.5 6
6306.5 1.71429
6307.5 3
6308.5 -9.71429
6309.5 5.57143
6310.5 6.71429
6311.5 -5.42857
6312.5 11.5714
6313.5 1
6314.5 4
6315.5 6.28571
6316.5 -8.28571
6317.5 0.571429
6318.5 -6.42857
6319.5 3
6320.5 -4.42857
6321.5 -9.42857
6322.5 -2.42857
6323.5 1.85714
6324.5 -8.71429
6325.5 2.85714
6326.5 3.14286
6327.5 4.42857
6328.5 -15.2857
6329.5 -3.14286
6330.5 10.4286
6331.5 1.14286
6332.5 1.28571
6333.5 3.14286
6334.5 -1.57143
6335.5 -0.285714
6336.5 6.85714
6337.5 3.42857
6338.5 1.42857
6339.5 0.571429
6340.5 2.28571
6341.5 -1.14286
6342.5 -7.42857
6343.5 3.14286
6344.5 4.85714
6345.5 -5.85714
6346.5 2.14286
6347.5 -5
6348.5 -6
6349.5 3.14286
6350.5 2.85714
6351.5 3.28571
6352.5 -3.28571
6353.5 -4.85714
6354.5 -7.28571
6355.5 7.14286
6356.5 -9.42857
6357.5 -9
6358.5 5.28571
6359.5 -7.71429
6360.5 -4.85714
6361.5 -4
6362.5 -12.2857
6363.5 1.71429
6364.5 2.57143
6365.5 -6
6366.5 5.14286
6367.5 0.714286
6368.5 7.14286
6369.5 -2.42857
6370.5 1
6371.5 -2.57143
6372.5 -1
6373.5 -6.42857
6374.5 -0.428571
6375.5 -5.42857
6376.5 -8.28571
6377.5 5.14286
6378.5 -4.57143
6379.5 0.714286
6380.5 3.71429
6381.5 3
6382.5 -5.42857
6383.5 -0.285714
6384.5 -0.571428
6385.5 -1
6386.5 1.14286
6387.5 -1.85714
6388.5 4.42857
6389.5 0.714286
6390.5 10.8571
6391.5 2.14286
6392.5 -1.28571
6393.5 -6.71429
6394.5 -6.85714
6395.5 6.42857
6396.5 -7.14286
6397.5 -5.85714
6398.5 -6.28571
6399.5 0.571429
6400.5 -0.285714
6401.5 -2.57143
6402.5 -5.28571
6403.5 0.428572
6404.5 2
6405.5 0.714286
6406.5 3.85714
6407.5 9.57143
6408.5 4.85714
6409.5 -0.714286
6410.5 -4.57143
6411.5 2.85714
6412.5 5.57143
6413.5 -1.85714
6414.5 0.285714
6415.5 0.857143
6416.5 0.428572
6417.5 8.57143
6418.5 -5.42857
6419.5 -1.57143
6420.5 -8.14286
6421.5 5.85714
6422.5 -0.428571
6423.5 -1.14286
6424.5 -9
6425.5 -3.85714
6426.5 -5.71429
6427.5 -2
6428.5 1.85714
6429.5 -9.85714
6430.5 1.14286
6431.5 4.14286
6432.5 -0.142857
6433.5 8.85714
6434.5 1.42857
6435.5 1.42857
6436.5 -0.428571
6437.5 -6.71429
6438.5 5.42857
6439.5 -11
6440.5 -15
6441.5 -5.85714
6442.5 0.714286
6443.5 -1.42857
6444.5 -3.28571
6445.5 -2.57143
6446.5 1.57143
6447.5 -1.57143
6448.5 -3.57143
6449.5 4
6450.5 -3.57143
6451.5 4.28571
6452.5 -3
6453.5 -1
6454.5 -1
6455.5 -16.1429
6456.5 2
6457.5 -1.57143
6458.5 2.28571
6459.5 -0.571428
6460.5 -6.57143
6461.5 -7.85714
6462.5 9.28571
6463.5 -7.85714
6464.5 2.57143
6465.5 2.85714
6466.5 -1.28571
6467.5 4.57143
6468.5 -11
6469.5 -5.28571
6470.5 -1.28571
6471.5 -9
6472.5 1
6473.5 2
6474.5 1.28571
6475.5 -0.142857
6476.5 11.5714
6477.5 0.142858
6478.5 -0.999999
6479.5 -21.7143
6480.5 -33.4286
6481.5 -2.85714
6482.5 -10.2857
6483.5 4.57143
6484.5 -1
6485.5 -0.571428
6486.5 3
6487.5 -3.85714
6488.5 -2
6489.5 -4
6490.5 8.85714
6491.5 2.28571
6492.5 4.14286
6493.5 4.57143
6494.5 5.71429
6495.5 -1.28571
6496.5 1.28571
6497.5 9.42857
6498.5 -4
6499.5 -3.14286
6500.5 1.14286
6501.5 -2.57143
6502.5 6.14286
6503.5 1.85714
6504.5 -0.142857
6505.5 -11.7143
6506.5 1.71429
6507.5 3.57143
6508.5 5.28571
6509.5 -6.42857
6510.5 -1.42857
6511.5 0.571429
6512.5 -0.285714
6513.5 1.42857
6514.5 4.85714
6515.5 4.85714
6516.5 -3.28571
6517.5 -0.857143
6518.5 1
6519.5 1.28571
6520.5 -6.14286
6521.5 5.14286
6522.5 -1.14286
6523.5 -1
6524.5 3.85714
6525.5 -2.28571
6526.5 1.85714
6527.5 -7.57143
6528.5 2.85714
6529.5 -0.142857
6530.5 1.57143
6531.5 -3.71429
6532.5 0.285714
6533.5 -5.28571
6534.5 -1.42857
6535.5 -7.28571
6536.5 2.28571
6537.5 -11.7143
6538.5 0.857143
6539.5 -7.71429
6540.5 6.28571
6541.5 -3.57143
6542.5 -4.28571
6543.5 -10
6544.5 -31
6545.5 -0.999999
6546.5 -11
6547.5 -0.714285
6548.5 0.142858
6549.5 1.28571
6550.5 3.85714
6551.5 1.57143
6552.5 -0.714286
6553.5 3.71429
6554.5 5
6555.5 0.857143
6556.5 -4.57143
6557.5 -4.28571
6558.5 4.85714
6559.5 4.28571
6560.5 -2
6561.5 -5.14286
6562.5 -3.85714
6563.5 -4.57143
6564.5 -3.14286
6565.5 4.57143
6566.5 -7.57143
6567.5 -2.85714
6568.5 -1
6569.5 -2
6570.5 2.85714
6571.5 -5.85714
6572.5 2.57143
6573.5 -10.8571
6574.5 0.571429
6575.5 1.71429
6576.5 -4.57143
6577.5 -5
6578.5 4.85714
6579.5 1.19209e-07
6580.5 -0.714286
6581.5 3.28571
6582.5 -1.42857
6583.5 -2.42857
6584.5 6.42857
6585.5 -3.42857
6586.5 -3.71429
6587.5 2.28571
6588.5 -0.285714
6589.5 5.14286
6590.5 3.14286
6591.5 -5.57143
6592.5 4.85714
6593.5 -0.142857
6594.5 2.28571
6595.5 7.14286
6596.5 0.857143
6597.5 -0.428571
6598.5 -4.71429
6599.5 -6.28571
6600.5 -5.42857
6601.5 1.28571
6602.5 -2.71429
6603.5 3.85714
6604.5 5.85714
6605.5 3.42857
6606.5 -2.71429
6607.5 1.85714
6608.5 2.71429
6609.5 -0.714286
6610.5 -3
6611.5 -3.28571
6612.5 0.571429
6613.5 3.14286
6614.5 2.85714
6615.5 -7.28571
6616.5 0.571429
6617.5 1.19209e-07
6618.5 -4.57143
6619.5 3.28571
6620.5 1.28571
6621.5 -3.85714
6622.5 3.85714
6623.5 -2.14286
6624.5 -0.857143
6625.5 0.142857
6626.5 7.42857
6627.5 0.571429
6628.5 -4
6629.5 -4
6630.5 -1.71429
6631.5 -4.42857
6632.5 -7.14286
6633.5 -0.428571
6634.5 -12.2857
6635.5 3
6636.5 -4.28571
6637.5 -7.28571
6638.5 -9.42857
6639.5 -24.5714
6640.5 -6
6641.5 -14.5714
6642.5 -9.85714
6643.5 -15.5714
6644.5 -3.28571
6645.5 -3.42857
6646.5 -3.57143
6647.5 -9.71429
6648.5 0.142857
6649.5 2.57143
6650.5 -1.71429
6651.5 -3.71429
6652.5 3.71429
6653.5 -2.57143
6654.5 6.14286
6655.5 -2
6656.5 -8.57143
6657.5 1.57143
6658.5 0.285714
6659.5 -3.28571
6660.5 3.28571
6661.5 -4
6662.5 -0.428571
6663.5 0.285714
6664.5 -1.42857
6665.5 -1.71429
6666.5 8.14286
6667.5 8
6668.5 -0.142857
6669.5 4.42857
6670.5 -8.28571
6671.5 -4.28571
6672.5 -2.14286
6673.5 3.42857
6674.5 -7
6675.5 0.571429
6676.5 3.85714
6677.5 -4.28571
6678.5 8.57143
6679.5 4.57143
6680.5 -1
6681.5 6.14286
6682.5 1.28571
6683.5 1.14286
6684.5 -2.28571
6685.5 6.57143
6686.5 0.428571
6687.5 3.14286
6688.5 -1
6689.5 2.57143
6690.5 0.285714
6691.5 4.71429
6692.5 -0.428571
6693.5 6.14286
6694.5 -5.71429
6695.5 -3.28571
6696.5 -2
6697.5 -3.42857
6698.5 -8.14286
6699.5 -8.14286
6700.5 0.142857
6701.5 -7
6702.5 -3.42857
6703.5 -1
6704.5 1.28571
6705.5 -1
6706.5 -2.85714
6707.5 6.42857
6708.5 -0.428571
6709.5 -9.57143
6710.5 -5.85714
6711.5 0.571429
6712.5 -1.71429
6713.5 4.14286
6714.5 -10.7143
6715.5 1
6716.5 -0.285714
6717.5 1.42857
6718.5 -10
6719.5 4.14286
6720.5 -5.85714
6721.5 -0.142857
6722.5 -2.28571
6723.5 -0.428571
6724.5 -6
6725.5 1.57143
6726.5 -6.71429
6727.5 4.28571
6728.5 -2.42857
6729.5 1.19209e-07
6730.5 -6.57143
6731.5 0.285714
6732.5 -3.57143
6733.5 -7.57143
6734.5 -2.71429
6735.5 -5
6736.5 8.14286
6737.5 3.71429
6738.5 -1.42857
6739.5 -5.42857
6740.5 0.571429
6741.5 1.85714
6742.5 6.42857
6743.5 0.428571
6744.5 -1.85714
6745.5 5.85714
6746.5 -5.71429
6747.5 -2.57143
6748.5 2
6749.5 6.85714
6750.5 6.28571
6751.5 -3.14286
6752.5 2.28571
6753.5 1
6754.5 -1
6755.5 -2.71429
6756.5 -0.142857
6757.5 7.28571
6758.5 -0.428571
6759.5 -3.71429
6760.5 -0.428571
6761.5 -4.28571
6762.5 -0.142857
6763.5 1.57143
6764.5 -1.71429
6765.5 -6.85714
6766.5 6.28571
6767.5 1
6768.5 -6.14286
6769.5 -6.14286
6770.5 -8.14286
6771.5 -12.7143
6772.5 -4.57143
6773.5 -2.85714
6774.5 -7.71429
6775.5 5.85714
6776.5 0.285714
6777.5 2.28571
6778.5 -2.42857
6779.5 -2.71429
6780.5 -2.71429
6781.5 3.42857
6782.5 -8.28571
6783.5 -6.85714
6784.5 -1.28571
6785.5 0.571429
6786.5 1.85714
6787.5 8.14286
6788.5 -2.42857
6789.5 -1.85714
6790.5 -1.28571
6791.5 5.14286
6792.5 -2.71429
6793.5 0.571429
6794.5 2.42857
6795.5 0.857143
6796.5 0.428571
6797.5 6.71429
6798.5 -4.42857
6799.5 5.14286
6800.5 1.57143
6801.5 -2.42857
6802.5 1.14286
6803.5 6.42857
6804.5 -7.28571
6805.5 3.14286
6806.5 -7
6807.5 -3.57143
6808.5 -5.28571
6809.5 -0.428571
6810.5 -1.42857
6811.5 6.85714
6812.5 -3.71429
6813.5 -3
6814.5 -3.28571
6815.5 3.42857
6816.5 -8.85714
6817.5 -4
6818.5 1.42857
6819.5 -4.42857
6820.5 2.42857
6821.5 3.42857
6822.5 1.42857
6823.5 1.85714
6824.5 6.42857
6825.5 -1.14286
6826.5 0.142857
6827.5 -2.14286
6828.5 -1.14286
6829.5 -6.57143
6830.5 5.14286
6831.5 -0.142857
6832.5 -6
6833.5 4.42857
6834.5 -4.71429
6835.5 -4.85714
6836.5 -0.714286
6837.5 -2.28571
6838.5 11.1429
6839.5 -2.57143
6840.5 1.85714
6841.5 -10.4286
6842.5 11.1429
6843.5 8.42857
6844.5 -2.71429
6845.5 1.28571
6846.5 -6.28571
6847.5 -5
6848.5 3.28571
6849.5 1.14286
6850.5 -3.42857
6851.5 -3.71429
6852.5 -3.14286
6853.5 0.142857
6854.5 2.14286
6855.5 6
6856.5 -2.14286
6857.5 -1
6858.5 -2.14286
6859.5 2.57143
6860.5 6.71429
6861.5 2.85714
6862.5 0.428571
6863.5 2.85714
6864.5 -3
6865.5 4.71429
6866.5 -5.71429
6867.5 0.571429
6868.5 -1.14286
6869.5 -4.42857
6870.5 1.14286
6871.5 -1.14286
6872.5 -1.85714
6873.5 -6.71429
6874.5 2.14286
6875.5 -3.71429
6876.5 -0.571429
6877.5 -4
6878.5 2.14286
6879.5 -5.71429
6880.5 -1.14286
6881.5 -3.42857
6882.5 -5.71429
6883.5 5.14286
6884.5 0.285714
6885.5 -0.857143
6886.5 4.71429
6887.5 2.71429
6888.5 -3.14286
6889.5 -1.14286
6890.5 6
6891.5 -1.14286
6892.5 -2.14286
6893.5 4
6894.5 5.14286
6895.5 -3.14286
6896.5 -6
6897.5 -1.42857
6898.5 2.71429
6899.5 4.14286
6900.5 -4.42857
6901.5 0.857143
6902.5 0.857143
6903.5 -4.71429
6904.5 -6.28571
6905.5 -5.57143
6906.5 -10.4286
6907.5 5.71429
6908.5 -0.714286
6909.5 3.57143
6910.5 0.571429
6911.5 5.42857
6912.5 -1.42857
6913.5 -3.42857
6914.5 5.14286
6915.5 1.14286
6916.5 -1.42857
6917.5 -0.142857
6918.5 -2.71429
6919.5 -0.857143
6920.5 -2.42857
6921.5 3.42857
6922.5 -0.428571
6923.5 3.42857
6924.5 3.42857
6925.5 -3.14286
6926.5 -0.428571
6927.5 2.85714
6928.5 1.85714
6929.5 5.14286
6930.5 -5.14286
6931.5 -1
6932.5 13.5714
6933.5 -5.14286
6934.5 5.57143
6935.5 3.71429
6936.5 -5.14286
6937.5 -9.57143
6938.5 8.42857
6939.5 3
6940.5 6.14286
6941.5 4
6942.5 4.42857
6943.5 1.28571
6944.5 0.285714
6945.5 -2.42857
6946.5 -2
6947.5 -5
6948.5 3.42857
6949.5 1.28571
6950.5 -3.42857
6951.5 -0.428571
6952.5 -0.142857
6953.5 3.14286
6954.5 1.42857
6955.5 1.85714
6956.5 -0.428571
6957.5 -4.71429
6958.5 2.14286
6959.5 -1.14286
6960.5 3.71429
6961.5 1.42857
6962.5 -6.28571
6963.5 -7
6964.5 -0.571429
6965.5 2.42857
6966.5 -3.42857
6967.5 -4.42857
6968.5 3.42857
6969.5 -2.42857
6970.5 3.42857
6971.5 -2.42857
6972.5 2.71429
6973.5 -1.14286
6974.5 -1.14286
6975.5 0.571429
6976.5 0.428571
6977.5 -2.42857
6978.5 9.42857
6979.5 -5.85714
6980.5 -1.85714
6981.5 0.857143
6982.5 -0.142857
6983.5 1.42857
6984.5 -4.42857
6985.5 0.428571
6986.5 -3.71429
6987.5 -1.42857
6988.5 -0.142857
6989.5 0.571429
6990.5 -1.85714
6991.5 -0.857143
6992.5 -1.14286
6993.5 -0.857143
6994.5 0.571429
6995.5 -1.85714
6996.5 3.71429
6997.5 4.71429
6998.5 0.428571
6999.5 -1.42857
7000.5 -0.857143
7001.5 5.14286
7002.5 0.571429
7003.5 -2.42857
7004.5 0.428571
7005.5 -0.857143
7006.5 1.71429
7007.5 1.14286
7008.5 1.14286
7009.5 6.71429
7010.5 0.714286
7011.5 0.428571
7012.5 -1.14286
7013.5 -0.857143
7014.5 1.14286
7015.5 0.428571
7016.5 -5.71429
7017.5 1.71429
7018.5 0.857143
7019.5 3.85714
7020.5 -0.714286
7021.5 6.14286
7022.5 1.57143
7023.5 -2
7024.5 3.14286
7025.5 5
7026.5 0.857143
7027.5 1.57143
7028.5 -2.14286
7029.5 0.714286
7030.5 3.42857
7031.5 1.42857
7032.5 0.428571
7033.5 -1.42857
7034.5 -0.857143
7035.5 2.14286
7036.5 -0.571429
7037.5 2.71429
7038.5 -1.85714
7039.5 1.71429
7040.5 6.71429
7041.5 1.71429
7042.5 1.42857
7043.5 -0.857143
7044.5 -0.714286
7045.5 1.71429
7046.5 -2.14286
7047.5 -0.857143
7048.5 0.571429
7049.5 -2.14286
7050.5 1.14286
7051.5 5.42857
7052.5 2.14286
7053.5 0.857143
7054.5 -0.714286
7055.5 3.71429
7056.5 -0.714286
7057.5 -6
7058.5 -0.571429
7059.5 -2.14286
7060.5 1.42857
7061.5 0.714286
7062.5 3.42857
7063.5 3.71429
7064.5 0.142857
7065.5 3.42857
7066.5 0.428571
7067.5 1.85714
7068.5 -1.57143
7069.5 0.714286
7070.5 7
7071.5 3.42857
7072.5 3.14286
7073.5 -0.571429
7074.5 1.42857
7075.5 -0.142857
7076.5 1.85714
7077.5 1.14286
7078.5 4.57143
7079.5 1.57143
7080.5 -4.28571
7081.5 -0.714286
7082.5 1.85714
7083.5 -1.14286
7084.5 1.71429
7085.5 -0.857143
7086.5 -2.42857
7087.5 2.42857
7088.5 0.142857
7089.5 -1.14286
7090.5 1.57143
7091.5 3.14286
7092.5 6.42857
7093.5 -0.571429
7094.5 -2.14286
7095.5 -3.42857
7096.5 0.142857
7097.5 1.42857
7098.5 -2.14286
7099.5 0.714286
7100.5 2.42857
7101.5 1.14286
7102.5 -0.857143
7103.5 4.71429
7104.5 0.714286
7105.5 -3.42857
7106.5 -1.57143
7107.5 -2.14286
7108.5 0.714286
7109.5 -0.142857
7110.5 -3.14286
7111.5 -3.14286
7112.5 -4.14286
7113.5 2.42857
7114.5 0.285714
7115.5 -2.42857
7116.5 1.14286
7117.5 7.71429
7118.5 -0.428571
7119.5 0.142857
7120.5 -4.42857
7121.5 -2.85714
7122.5 -3.14286
7123.5 -1.85714
7124.5 5.14286
7125.5 -0.857143
7126.5 -0.571429
7127.5 -2.14286
7128.5 -1.42857
7129.5 -1.14286
7130.5 -2.42857
7131.5 -2.42857
7132.5 -0.571429
7133.5 0.285714
7134.5 -1.42857
7135.5 0.142857
7136.5 -5
7137.5 -1.85714
7138.5 -4.42857
7139.5 1.14286
7140.5 6
7141.5 -1.14286
7142.5 -0.857143
7143.5 1.14286
7144.5 -4.71429
7145.5 -1.57143
7146.5 -1.14286
7147.5 0.142857
7148.5 2.71429
7149.5 1.14286
7150.5 -3.42857
7151.5 -4.42857
7152.5 5
7153.5 -1.85714
7154.5 -0.142857
7155.5 -5.42857
7156.5 3.14286
7157.5 6.14286
7158.5 5.14286
7159.5 0.428571
7160.5 5.14286
7161.5 0.857143
7162.5 -4.42857
7163.5 -4.28571
7164.5 1.42857
7165.5 0.714286
7166.5 4.42857
7167.5 1.71429
7168.5 3.42857
7169.5 1.85714
7170.5 -4.42857
7171.5 -6.71429
7172.5 -4.14286
7173.5 3.71429
7174.5 0.714286
7175.5 5.42857
7176.5 -1.14286
7177.5 0.428571
7178.5 4.42857
7179.5 -2.57143
7180.5 -3.42857
7181.5 1.42857
7182.5 -0.571429
7183.5 2.71429
7184.5 2
7185.5 -0.571429
7186.5 3
7187.5 -2.14286
7188.5 0.714286
7189.5 0.142857
7190.5 6.42857
7191.5 -1.57143
7192.5 2.71429
7193.5 0.142857
7194.5 0.714286
7195.5 1.85714
7196.5 -3.42857
7197.5 0.714286
7198.5 2.14286
7199.5 -1.42857
7200.5 -4.14286
7201.5 6
7202.5 -4.14286
7203.5 -1.14286
7204.5 -1.71429
7205.5 -5
7206.5 -6.85714
7207.5 -1.42857
7208.5 -12.1429
7209.5 -1.14286
7210.5 -1.14286
7211.5 -1.71429
7212.5 3.14286
7213.5 -5.71429
7214.5 3.42857
7215.5 3.71429
7216.5 4.42857
7217.5 0.142857
7218.5 -1.14286
7219.5 1.85714
7220.5 -1.42857
7221.5 3.71429
7222.5 3.42857
7223.5 -0.142857
7224.5 1.42857
7225.5 1.42857
7226.5 3.71429
7227.5 -1.14286
7228.5 -1.14286
7229.5 1.71429
7230.5 -4.14286
7231.5 0.428571
7232.5 -1.57143
7233.5 -1.57143
7234.5 -0.571429
7235.5 1.42857
7236.5 1.71429
7237.5 -1.28571
7238.5 3.71429
7239.5 -0.285714
7240.5 1.71429
7241.5 -2.14286
7242.5 -1.14286
7243.5 0.714286
7244.5 0.142857
7245.5 0.857143
7246.5 2.71429
7247.5 -2.42857
7248.5 3.71429
7249.5 0.142857
7250.5 -1.14286
7251.5 0.714286
7252.5 3
7253.5 -6.28571
7254.5 0.571429
7255.5 -3.42857
7256.5 2.71429
7257.5 -3.42857
7258.5 -2.42857
7259.5 -7.14286
7260.5 2.57143
7261.5 -2.71429
7262.5 -2.57143
7263.5 2.28571
7264.5 -2.57143
7265.5 -2.71429
7266.5 0.571429
7267.5 0.714286
7268.5 3
7269.5 1.14286
7270.5 -0.857143
7271.5 0.142857
7272.5 -7
7273.5 1.42857
7274.5 -3.14286
7275.5 0.142857
7276.5 -0.857143
7277.5 -0.285714
7278.5 -3.14286
7279.5 -3.14286
7280.5 -1.85714
7281.5 2
7282.5 0.857143
7283.5 -2.14286
7284.5 2.71429
7285.5 5
7286.5 0.428571
7287.5 -3.14286
7288.5 1.71429
7289.5 1
7290.5 4
7291.5 -0.428571
7292.5 -2.42857
7293.5 2.42857
7294.5 1.71429
7295.5 3.71429
7296.5 2.71429
7297.5 -1.28571
7298.5 -5
7299.5 4.42857
7300.5 0.714286
7301.5 3.42857
7302.5 1.71429
7303.5 1.71429
7304.5 -3.85714
7305.5 2.14286
7306.5 0.142857
7307.5 -0.571429
7308.5 -0.571429
7309.5 2.14286
7310.5 -0.571429
7311.5 1.42857
7312.5 -7.28571
7313.5 -4.71429
7314.5 -13.1429
7315.5 -13.1429
7316.5 -3
7317.5 -0.714286
7318.5 -4
7319.5 -3.14286
7320.5 0.857143
7321.5 -0.428571
7322.5 -5.42857
7323.5 2.42857
7324.5 -2.85714
7325.5 1.71429
7326.5 -1.85714
7327.5 -2.42857
7328.5 0.428571
7329.5 0.428571
7330.5 -0.857143
7331.5 0.428571
7332.5 3.42857
7333.5 -0.285714
7334.5 0.714286
7335.5 -2.14286
7336.5 -8
7337.5 3
7338.5 -4.42857
7339.5 0.714286
7340.5 2.42857
7341.5 2
7342.5 0.714286
7343.5 -1.85714
7344.5 -1.85714
7345.5 -2.14286
7346.5 3.14286
7347.5 0.571429
7348.5 -0.714286
7349.5 4
7350.5 -1.85714
7351.5 5.14286
7352.5 -2.57143
7353.5 6.71429
7354.5 -1.28571
7355.5 2.38419e-07
7356.5 -6.85714
7357.5 -3.85714
7358.5 -2.42857
7359.5 -1.14286
7360.5 -1.57143
7361.5 -2.14286
7362.5 2.42857
7363.5 -1.57143
7364.5 2.71429
7365.5 -0.571429
7366.5 -0.857143
7367.5 -3.71429
7368.5 -1.28571
7369.5 0.428571
7370.5 -2.85714
7371.5 -0.285714
7372.5 0
7373.5 -3.14286
7374.5 4.71429
7375.5 -3.85714
7376.5 -5.42857
7377.5 -5.14286
7378.5 4.71429
7379.5 2.71429
7380.5 -0.571429
7381.5 1
7382.5 -3.85714
7383.5 -3.14286
7384.5 1.42857
7385.5 -2.85714
7386.5 -5.42857
7387.5 2.71429
7388.5 -1.57143
7389.5 -1.28571
7390.5 2
7391.5 -2.85714
7392.5 0.714286
7393.5 -1.57143
7394.5 -3.85714
7395.5 1.42857
7396.5 -2.85714
7397.5 1
7398.5 -1.57143
7399.5 1
7400.5 1
7401.5 2
7402.5 -3.14286
7403.5 1
7404.5 1.71429
7405.5 -1.85714
7406.5 -2.85714
7407.5 0.714286
7408.5 -0.285714
7409.5 5
7410.5 -4.14286
7411.5 -1.85714
7412.5 -1.42857
7413.5 -2.14286
7414.5 -1.85714
7415.5 -4.71429
7416.5 -2
7417.5 -0.142857
7418.5 1.19209e-07
7419.5 -4.71429
7420.5 -5
7421.5 -7
7422.5 3.71429
7423.5 -7
7424.5 1
7425.5 2.71429
7426.5 -2.57143
7427.5 -0.285714
7428.5 1.71429
7429.5 2.42857
7430.5 0.428571
7431.5 0.428571
7432.5 -0.285714
7433.5 -0.571429
7434.5 -4.71429
7435.5 1
7436.5 2.42857
7437.5 -1.28571
7438.5 -0.857143
7439.5 2.42857
7440.5 3
7441.5 1.71429
7442.5 -1.85714
7443.5 -5.14286
7444.5 -3.85714
7445.5 -2.14286
7446.5 0.714286
7447.5 -0.571429
7448.5 -2.14286
7449.5 -0.857143
7450.5 -1.42857
7451.5 6.42857
7452.5 -3.71429
7453.5 4.42857
7454.5 -1.14286
7455.5 1.57143
7456.5 -9.14286
7457.5 -3.85714
7458.5 4.71429
7459.5 -1.57143
7460.5 -1.57143
7461.5 0.857143
7462.5 -4.14286
7463.5 -0.571429
7464.5 1.71429
7465.5 2
7466.5 2.71429
7467.5 0.142857
7468.5 -1.42857
7469.5 -0.857143
7470.5 -0.285714
7471.5 -1.28571
7472.5 -1.57143
7473.5 2.42857
7474.5 -0.285714
7475.5 -1.14286
7476.5 2.71429
7477.5 -5.42857
7478.5 4
7479.5 -2.57143
7480.5 0.714286
7481.5 -4.14286
7482.5 -1.57143
7483.5 1.42857
7484.5 -4.14286
7485.5 -2.85714
7486.5 0.714286
7487.5 1.42857
7488.5 0.142857
7489.5 2.71429
7490.5 -1.57143
7491.5 2.71429
7492.5 -4.14286
7493.5 -1.57143
7494.5 -4.14286
7495.5 0.142857
7496.5 -1.85714
7497.5 -1.57143
7498.5 -1.57143
7499.5 -0.571429
7500.5 0.714286
7501.5 -2.57143
7502.5 4
7503.5 1.71429
7504.5 -1.85714
7505.5 2.71429
7506.5 -2.57143
7507.5 -0.571429
7508.5 1
7509.5 4
7510.5 0
7511.5 1.71429
7512.5 1.14286
7513.5 -1.28571
7514.5 -0.285714
7515.5 0.428571
7516.5 3.71429
7517.5 -0.285714
7518.5 -0.857143
7519.5 5
7520.5 0.428571
7521.5 1.14286
7522.5 -1.57143
7523.5 -1.14286
7524.5 2.42857
7525.5 -2.14286
7526.5 -2.57143
7527.5 -0.571429
7528.5 -0.857143
7529.5 -1.57143
7530.5 -0.571429
7531.5 0.428571
7532.5 -2.85714
7533.5 4
7534.5 1.71429
7535.5 1
7536.5 -2.85714
7537.5 5
7538.5 -1.28571
7539.5 -3.85714
7540.5 1.71429
7541.5 3.71429
7542.5 1.71429
7543.5 3.71429
7544.5 4
7545.5 -0.571429
7546.5 -2.85714
7547.5 2.71429
7548.5 2
7549.5 0
7550.5 0.428571
7551.5 1.71429
7552.5 -1.28571
7553.5 1
7554.5 1.71429
7555.5 2
7556.5 5.71429
7557.5 1
7558.5 1
7559.5 -0.857143
7560.5 1.42857
7561.5 1.42857
7562.5 2
7563.5 -1.28571
7564.5 -3.85714
7565.5 2
7566.5 4
7567.5 1
7568.5 -1.57143
7569.5 2
7570.5 2.71429
7571.5 -2.85714
7572.5 -1.57143
7573.5 -0.285714
7574.5 -2.85714
7575.5 3.71429
7576.5 -1.57143
7577.5 0.428571
7578.5 1.71429
7579.5 -2.85714
7580.5 -5.14286
7581.5 -1.57143
7582.5 0.428571
7583.5 -1.57143
7584.5 -1.28571
7585.5 1
7586.5 0.428571
7587.5 -0.571429
7588.5 2
7589.5 -0.285714
7590.5 1.71429
7591.5 3
7592.5 1.42857
7593.5 -0.571429
7594.5 1
7595.5 2
7596.5 -0.857143
7597.5 3
7598.5 4
7599.5 -0.285714
7600.5 2
7601.5 -0.571429
7602.5 0
7603.5 0
7604.5 -0.571429
7605.5 0.714286
7606.5 -2.85714
7607.5 -1.57143
7608.5 0.142857
7609.5 -8
7610.5 0.714286
7611.5 -3.85714
7612.5 -0.571429
7613.5 -1.28571
7614.5 -0.571429
7615.5 -2.57143
7616.5 2.71429
7617.5 2
7618.5 1
7619.5 -0.571429
7620.5 -1.28571
7621.5 -0.285714
7622.5 5
7623.5 -1.28571
7624.5 0.428571
7625.5 -0.285714
7626.5 -0.285714
7627.5 1
7628.5 -0.285714
7629.5 0.714286
7630.5 3
7631.5 3
7632.5 3
7633.5 2.71429
7634.5 0
7635.5 -1.85714
7636.5 -1.28571
7637.5 -0.285714
7638.5 -2.57143
7639.5 -2.14286
7640.5 -2.85714
7641.5 1
7642.5 -1.28571
7643.5 0
7644.5 0
7645.5 2.71429
7646.5 -1.85714
7647.5 -1.57143
7648.5 -1.57143
7649.5 0.714286
7650.5 0.714286
7651.5 -1.28571
7652.5 0.714286
7653.5 -0.571429
7654.5 -0.285714
7655.5 -1.28571
7656.5 -0.285714
7657.5 -1.57143
7658.5 3
7659.5 -2.57143
7660.5 0.714286
7661.5 2
7662.5 1.71429
7663.5 1
7664.5 0.714286
7665.5 -1.57143
7666.5 -0.285714
7667.5 0.428571
7668.5 1.71429
7669.5 -0.285714
7670.5 3
7671.5 2
7672.5 -0.571429
7673.5 -0.571429
7674.5 -1.28571
7675.5 1
7676.5 0.714286
7677.5 -0.285714
7678.5 -1.28571
7679.5 4
7680.5 2
7681.5 -1.28571
7682.5 -0.285714
7683.5 2
7684.5 -1.85714
7685.5 -1.28571
7686.5 -1.28571
7687.5 0.714286
7688.5 3
7689.5 3
7690.5 -1.57143
7691.5 -0.857143
7692.5 -0.285714
7693.5 1
7694.5 -1.28571
7695.5 -0.285714
7696.5 0
7697.5 2
7698.5 -1.57143
7699.5 0
7700.5 -0.285714
7701.5 0.428571
7702.5 -1.57143
7703.5 0.142857
7704.5 1
7705.5 2.71429
7706.5 1.71429
7707.5 1.71429
7708.5 -3.14286
7709.5 1.71429
7710.5 -0.285714
7711.5 3
7712.5 1
7713.5 -1.57143
7714.5 2
7715.5 -0.285714
7716.5 -0.285714
7717.5 -2.85714
7718.5 0.714286
7719.5 -0.285714
7720.5 2.71429
7721.5 0.714286
7722.5 4
7723.5 0.714286
7724.5 -0.857143
7725.5 2.71429
7726.5 -1.57143
7727.5 1
7728.5 0
7729.5 1
7730.5 -3.14286
7731.5 0
7732.5 1
7733.5 0
7734.5 1
7735.5 1
7736.5 0.428571
7737.5 -1.28571
7738.5 0.714286
7739.5 -2.57143
7740.5 0
7741.5 3
7742.5 0
7743.5 0.714286
7744.5 -0.285714
7745.5 -1.28571
7746.5 2
7747.5 -2.85714
7748.5 -2.85714
7749.5 0
7750.5 -1.28571
7751.5 -0.285714
7752.5 1.71429
7753.5 -0.285714
7754.5 1
7755.5 0
7756.5 -0.285714
7757.5 -2.57143
7758.5 2
7759.5 -1.85714
7760.5 1
7761.5 -0.285714
7762.5 -0.857143
7763.5 -0.285714
7764.5 -8
7765.5 -3.85714
7766.5 -0.714286
7767.5 -4.28571
7768.5 -3
7769.5 2.85714
7770.5 -0.857143
7771.5 -14.5714
7772.5 1.42857
7773.5 -12.1429
7774.5 1.71429
7775.5 -0.571428
7776.5 -2.42857
7777.5 4.42857
7778.5 -3.14286
7779.5 -1.28571
7780.5 1
7781.5 0.714286
7782.5 1
7783.5 -1.28571
7784.5 -0.571429
7785.5 0.714286
7786.5 2
7787.5 -3.85714
7788.5 -1.28571
7789.5 4
7790.5 -0.285714
7791.5 -0.285714
7792.5 -1.14286
7793.5 -2.57143
7794.5 1
7795.5 0
7796.5 0.714286
7797.5 2
7798.5 0.714286
7799.5 0.428571
7800.5 -0.285714
7801.5 2.71429
7802.5 3
7803.5 -0.285714
7804.5 2
7805.5 5.71429
7806.5 5
7807.5 5
7808.5 1.71429
7809.5 2.71429
7810.5 -0.285714
7811.5 1
7812.5 -0.571429
7813.5 -2.85714
7814.5 0
7815.5 -0.285714
7816.5 -1.57143
7817.5 -0.571429
7818.5 -0.285714
7819.5 -0.285714
7820.5 -0.142857
7821.5 -1.28571
7822.5 0.142857
7823.5 -0.285714
7824.5 0.714286
7825.5 -5
7826.5 -0.142857
7827.5 3.85714
7828.5 -1
7829.5 1
7830.5 -11.4286
7831.5 -1.14286
7832.5 0.428571
7833.5 -1.28571
7834.5 -1.57143
7835.5 1
7836.5 2
7837.5 -0.285714
7838.5 -1.57143
7839.5 -0.285714
7840.5 -2.85714
7841.5 0
7842.5 -0.285714
7843.5 0
7844.5 -0.285714
7845.5 -0.285714
7846.5 -1.28571
7847.5 -0.285714
7848.5 -1.28571
7849.5 0
7850.5 -1.28571
7851.5 -2.57143
7852.5 0
7853.5 1
7854.5 0
7855.5 1
7856.5 1
7857.5 1
7858.5 0
7859.5 -1.28571
7860.5 0
7861.5 0
7862.5 1
7863.5 1
7864.5 1
7865.5 2
7866.5 1
7867.5 0
7868.5 -3.85714
7869.5 0
7870.5 1
7871.5 1
7872.5 2
7873.5 -2.85714
7874.5 0
7875.5 2
7876.5 0
7877.5 0
7878.5 0
7879.5 -1.28571
7880.5 0
7881.5 1
7882.5 -0.285714
7883.5 1
7884.5 1
7885.5 0
7886.5 1
7887.5 -0.285714
7888.5 0
7889.5 2
7890.5 0
7891.5 -1.28571
7892.5 -1.57143
7893.5 1
7894.5 1
7895.5 1
7896.5 0
7897.5 1
7898.5 -1.28571
7899.5 1
7900.5 0
7901.5 0
7902.5 1
7903.5 0
7904.5 -1.28571
7905.5 0
7906.5 1
7907.5 -0.285714
7908.5 0
7909.5 1
7910.5 1
7911.5 0
7912.5 1
7913.5 -1.28571
7914.5 1
7915.5 -1.28571
7916.5 1
7917.5 -1.28571
7918.5 2
7919.5 0
7920.5 0
7921.5 0
7922.5 0
7923.5 -1.57143
7924.5 0
7925.5 1
7926.5 0
7927.5 0
7928.5 0
7929.5 2
7930.5 0
7931.5 0
7932.5 0
7933.5 0
7934.5 1
7935.5 1
7936.5 0
7937.5 1
7938.5 1
7939.5 0
7940.5 2
7941.5 -1.28571
7942.5 0
7943.5 -1.57143
7944.5 0
7945.5 -0.285714
7946.5 1
7947.5 -0.285714
7948.5 0
7949.5 0
7950.5 0
7951.5 0
7952.5 -0.285714
7953.5 2
7954.5 1
7955.5 2
7956.5 1
7957.5 -1.28571
7958.5 1.71429
7959.5 -0.285714
7960.5 -2.57143
7961.5 -0.571429
7962.5 0.714286
7963.5 -2.57143
7964.5 -0.285714
7965.5 0
7966.5 0
7967.5 0
7968.5 0
7969.5 1
7970.5 -0.285714
7971.5 0
7972.5 0
7973.5 1
7974.5 1
7975.5 0
7976.5 1
7977.5 1
7978.5 -0.285714
7979.5 -2.57143
7980.5 2
7981.5 0
7982.5 0
7983.5 -1.57143
7984.5 0
7985.5 -0.285714
7986.5 0
7987.5 0
7988.5 -1.28571
7989.5 -0.285714
7990.5 -1.57143
7991.5 -1.85714
7992.5 -2.57143
7993.5 -0.285714
7994.5 0
7995.5 0
7996.5 2
7997.5 -1.57143
7998.5 -1.28571
7999.5 -1.28571
8000.5 2
8001.5 2
8002.5 -0.285714
8003.5 -1.57143
8004.5 -0.285714
8005.5 0.714286
8006.5 0
8007.5 1
8008.5 -1.28571
8009.5 2
8010.5 1
8011.5 1
8012.5 -1.28571
8013.5 0
8014.5 -1.28571
8015.5 -0.285714
8016.5 0.714286
8017.5 0
8018.5 -1.28571
8019.5 0
8020.5 1
8021.5 3
8022.5 0
8023.5 -0.285714
8024.5 3
8025.5 0
8026.5 3
8027.5 3
8028.5 4
8029.5 0.428571
8030.5 5
8031.5 2.71429
8032.5 1.71429
8033.5 3.71429
8034.5 -0.285714
8035.5 1
8036.5 0
8037.5 2
8038.5 1
8039.5 1
8040.5 0
8041.5 -0.285714
8042.5 0
8043.5 0
8044.5 1
8045.5 0
8046.5 0
8047.5 0
8048.5 1
8049.5 0
8050.5 2
8051.5 0
8052.5 0
8053.5 -2.57143
8054.5 0
8055.5 -0.285714
8056.5 -1.28571
8057.5 1
8058.5 0
8059.5 1
8060.5 0
8061.5 0
8062.5 -1.28571
8063.5 1
8064.5 0
8065.5 -5.14286
8066.5 1
8067.5 -1.28571
8068.5 0.714286
8069.5 0
8070.5 0
8071.5 -1.28571
8072.5 1.71429
8073.5 0
8074.5 0
8075.5 1
8076.5 0
8077.5 1
8078.5 0
8079.5 0
8080.5 1
8081.5 0
8082.5 -1.28571
8083.5 1
8084.5 2
8085.5 -2.57143
8086.5 -1.57143
8087.5 0.714286
8088.5 -1.28571
8089.5 0
8090.5 0
8091.5 0
8092.5 1
8093.5 0
8094.5 -1.28571
8095.5 -1.28571
8096.5 1
8097.5 0
8098.5 0
8099.5 0
8100.5 0
8101.5 0
8102.5 0
8103.5 0
8104.5 1
8105.5 2
8106.5 0
8107.5 0
8108.5 0
8109.5 -1.28571
8110.5 1
8111.5 -2.57143
8112.5 -1.28571
8113.5 0
8114.5 1
8115.5 0
8116.5 -1.28571
8117.5 1
8118.5 0
8119.5 -1.57143
8120.5 0
8121.5 -1.28571
8122.5 0
8123.5 0
8124.5 -1.28571
8125.5 0
8126.5 0
8127.5 2
8128.5 0
8129.5 0
8130.5 0
8131.5 -1.28571
8132.5 0
8133.5 0
8134.5 0
8135.5 0
8136.5 0
8137.5 -2.57143
8138.5 -1.28571
8139.5 0
8140.5 0
8141.5 0
8142.5 0
8143.5 -1.28571
8144.5 0
8145.5 -0.285714
8146.5 0
8147.5 1
8148.5 1
8149.5 0
8150.5 -1.28571
8151.5 0
8152.5 -1.28571
8153.5 0
8154.5 -1.28571
8155.5 0
8156.5 0
8157.5 0
8158.5 -0.285714
8159.5 0.714286
8160.5 0
8161.5 0
8162.5 1
8163.5 0
8164.5 0
8165.5 0
8166.5 0
8167.5 0
8168.5 1
8169.5 0
8170.5 0
8171.5 0
8172.5 1
8173.5 -0.285714
8174.5 2
8175.5 0
8176.5 0
8177.5 0
8178.5 2
8179.5 -1.28571
8180.5 0
8181.5 0
8182.5 -2.57143
8183.5 0
8184.5 0
8185.5 1
8186.5 0
8187.5 0
8188.5 0
8189.5 0
8190.5 1
8191.5 0
8192.5 1
8193.5 0
8194.5 1
8195.5 0
8196.5 -1.28571
8197.5 0
8198.5 0
8199.5 0
8200.5 -1.28571
8201.5 0
8202.5 0
8203.5 0
8204.5 0
8205.5 0
8206.5 -1.28571
8207.5 1
8208.5 1
8209.5 0
8210.5 2
8211.5 0
8212.5 -0.285714
8213.5 0
8214.5 0
8215.5 0
8216.5 0
8217.5 0
8218.5 0.714286
8219.5 1
8220.5 0
8221.5 0
8222.5 1
8223.5 0
8224.5 1
8225.5 -1.28571
8226.5 1
8227.5 0
8228.5 0
8229.5 0
8230.5 -0.285714
8231.5 0
8232.5 -1.28571
8233.5 0
8234.5 3
8235.5 -0.285714
8236.5 0
8237.5 0
8238.5 1
8239.5 -1.28571
8240.5 0
8241.5 -1.28571
8242.5 1
8243.5 0
8244.5 0
8245.5 0
8246.5 2
8247.5 0
8248.5 1
8249.5 0
8250.5 0
8251.5 -0.285714
8252.5 1
8253.5 3
8254.5 2
8255.5 0
8256.5 0
8257.5 -0.285714
8258.5 1
8259.5 0
8260.5 0
8261.5 -1.28571
8262.5 2
8263.5 1
8264.5 1
8265.5 0
8266.5 0
8267.5 0
8268.5 0
8269.5 2
8270.5 0
8271.5 1
8272.5 2
8273.5 -0.285714
8274.5 0
8275.5 0
8276.5 -0.285714
8277.5 0
8278.5 0
8279.5 0
8280.5 0
8281.5 1
8282.5 0
8283.5 0
8284.5 0
8285.5 0
8286.5 0
8287.5 0
8288.5 1
8289.5 0
8290.5 0
8291.5 0
8292.5 0
8293.5 -1.28571
8294.5 0
8295.5 -1.28571
8296.5 1
8297.5 0
8298.5 0
8299.5 1
8300.5 0
8301.5 1
8302.5 1
8303.5 0
8304.5 -1.28571
8305.5 1
8306.5 0
8307.5 -1.28571
8308.5 -1.28571
8309.5 0
8310.5 1
8311.5 0
8312.5 0
8313.5 1
8314.5 0
8315.5 0
8316.5 -0.285714
8317.5 1
8318.5 -1.28571
8319.5 1
8320.5 0
8321.5 0
8322.5 1
8323.5 0
8324.5 1
8325.5 1
8326.5 2
8327.5 1
8328.5 1
8329.5 0
8330.5 0
8331.5 0
8332.5 1
8333.5 1
8334.5 0
8335.5 0
8336.5 1
8337.5 0
8338.5 -1.28571
8339.5 0
8340.5 -1.28571
8341.5 2
8342.5 1
8343.5 1
8344.5 1
8345.5 -0.285714
8346.5 1
8347.5 0
8348.5 -1.28571
8349.5 0
8350.5 0
8351.5 0
8352.5 0
8353.5 0
8354.5 0
8355.5 1
8356.5 -2.57143
8357.5 0
8358.5 -1.28571
8359.5 0
8360.5 0
8361.5 0
8362.5 1
8363.5 0
8364.5 0
8365.5 0
8366.5 0
8367.5 -1.28571
8368.5 0
8369.5 0
8370.5 0
8371.5 -1.28571
8372.5 0
8373.5 2
8374.5 0
8375.5 0
8376.5 0
8377.5 0
8378.5 1
8379.5 -1.28571
8380.5 0
8381.5 -1.28571
8382.5 1
8383.5 1
8384.5 0
8385.5 0
8386.5 0
8387.5 0
8388.5 0
8389.5 0
8390.5 0
8391.5 0
8392.5 -0.285714
8393.5 0
8394.5 -1.28571
8395.5 0
8396.5 2
8397.5 0
8398.5 -0.285714
8399.5 1
8400.5 0
8401.5 1
8402.5 -1.28571
8403.5 0
8404.5 0
8405.5 0
8406.5 0
8407.5 0
8408.5 1
8409.5 0
8410.5 -1.28571
8411.5 0
8412.5 0
8413.5 0
8414.5 -1.28571
8415.5 -0.285714
8416.5 0
8417.5 -1.28571
8418.5 0
8419.5 0
8420.5 0
8421.5 1
8422.5 0
8423.5 0
8424.5 0
8425.5 0
8426.5 0
8427.5 0
8428.5 1
8429.5 0
8430.5 -1.28571
8431.5 -0.285714
8432.5 -1.28571
8433.5 0
8434.5 0
8435.5 0
8436.5 -1.28571
8437.5 -1.57143
8438.5 0
8439.5 0
8440.5 1
8441.5 1
8442.5 1
8443.5 1
8444.5 2
8445.5 0
8446.5 0
8447.5 -1.28571
8448.5 -2.57143
8449.5 0
8450.5 1
8451.5 0
8452.5 1
8453.5 0
8454.5 -1.28571
8455.5 0
8456.5 0
8457.5 0
8458.5 2
8459.5 0
8460.5 0
8461.5 0
8462.5 1
8463.5 -1.28571
8464.5 0
8465.5 -2.57143
8466.5 0
8467.5 0
8468.5 2
8469.5 -0.285714
8470.5 -1.28571
8471.5 -0.285714
8472.5 1
8473.5 1
8474.5 -0.285714
8475.5 0
8476.5 -1.28571
8477.5 0
8478.5 1
8479.5 0
8480.5 -1.28571
8481.5 1
8482.5 -1.28571
8483.5 0
8484.5 1
8485.5 0
8486.5 1
8487.5 0
8488.5 0
8489.5 0
8490.5 -1.28571
8491.5 1
8492.5 1
8493.5 0.714286
8494.5 -1.28571
8495.5 0.714286
8496.5 0
8497.5 0
8498.5 0
8499.5 0
8500.5 1
8501.5 -1.28571
8502.5 -1.28571
8503.5 0
8504.5 1
8505.5 -2.57143
8506.5 1
8507.5 0
8508.5 -1.28571
8509.5 0
8510.5 0
8511.5 1
8512.5 -1.28571
8513.5 1
8514.5 0
8515.5 1
8516.5 0
8517.5 0
8518.5 0
8519.5 0
8520.5 -0.285714
8521.5 0
8522.5 -1.28571
8523.5 2
8524.5 0
8525.5 1
8526.5 0
8527.5 0
8528.5 0
8529.5 0
8530.5 0
8531.5 0
8532.5 1
8533.5 0
8534.5 0
8535.5 0
8536.5 0
8537.5 -1.28571
8538.5 0
8539.5 -1.28571
8540.5 2
8541.5 1
8542.5 0
8543.5 0
8544.5 0
8545.5 -2.57143
8546.5 0
8547.5 1
8548.5 -1.28571
8549.5 0
8550.5 0
8551.5 0
8552.5 -1.28571
8553.5 0
8554.5 0
8555.5 0
8556.5 0
8557.5 0
8558.5 -1.28571
8559.5 1
8560.5 -1.28571
8561.5 0
8562.5 0
8563.5 -1.28571
8564.5 0
8565.5 0
8566.5 -0.285714
8567.5 0
8568.5 0
8569.5 1
8570.5 2
8571.5 0
8572.5 0
8573.5 -1.28571
8574.5 -1.57143
8575.5 0
8576.5 1
8577.5 0
8578.5 0
8579.5 -1.28571
8580.5 2
8581.5 1
8582.5 1
8583.5 0
8584.5 0
8585.5 0
8586.5 0
8587.5 0
8588.5 0
8589.5 -0.285714
8590.5 0
8591.5 0
8592.5 -0.285714
8593.5 0
8594.5 -1.28571
8595.5 0
8596.5 0
8597.5 0
8598.5 0
8599.5 0
8600.5 0
8601.5 0
8602.5 0
8603.5 -1.28571
8604.5 0
8605.5 0
8606.5 0
8607.5 0
8608.5 0
8609.5 -1.28571
8610.5 -1.28571
8611.5 0
8612.5 -1.28571
8613.5 0
8614.5 1
8615.5 0
8616.5 0
8617.5 2
8618.5 0
8619.5 0
8620.5 0
8621.5 0
8622.5 0
8623.5 -1.28571
8624.5 1
8625.5 0
8626.5 2
8627.5 -2.57143
8628.5 1
8629.5 0
8630.5 1
8631.5 2
8632.5 0
8633.5 0
8634.5 1
8635.5 0
8636.5 1
8637.5 1
8638.5 0
8639.5 0.714286
8640.5 0
8641.5 0
8642.5 0
8643.5 0
8644.5 -1.28571
8645.5 -0.285714
8646.5 0
8647.5 1
8648.5 -1.28571
8649.5 1
8650.5 0
8651.5 -1.28571
8652.5 0
8653.5 -0.285714
8654.5 0
8655.5 0
8656.5 0
8657.5 -1.28571
8658.5 0
8659.5 -1.28571
8660.5 0
8661.5 0
8662.5 0
8663.5 -1.28571
8664.5 0
8665.5 0
8666.5 0
8667.5 0
8668.5 0
8669.5 -1.28571
8670.5 0
8671.5 0
8672.5 0
8673.5 1
8674.5 -0.285714
8675.5 0
8676.5 0
8677.5 1
8678.5 -1.28571
8679.5 0
8680.5 0
8681.5 1
8682.5 0
8683.5 0
8684.5 1
8685.5 1
8686.5 0
8687.5 0
8688.5 -1.28571
8689.5 0
8690.5 0
8691.5 0
8692.5 0
8693.5 0
8694.5 1
8695.5 -1.28571
8696.5 -1.28571
8697.5 1
8698.5 0
8699.5 0
8700.5 0
8701.5 0
8702.5 -1.28571
8703.5 1
8704.5 1
8705.5 0
8706.5 0
8707.5 -0.285714
8708.5 0
8709.5 0
8710.5 0
8711.5 0
8712.5 -1.28571
8713.5 0
8714.5 -1.28571
8715.5 -1.28571
8716.5 0
8717.5 1
8718.5 0
8719.5 -0.285714
8720.5 0
8721.5 1
8722.5 0
8723.5 0
8724.5 -1.28571
8725.5 0
8726.5 0
8727.5 1
8728.5 0
8729.5 1
8730.5 0
8731.5 0
8732.5 0
8733.5 0
8734.5 0
8735.5 0
8736.5 -1.28571
8737.5 0
8738.5 0
8739.5 0
8740.5 0
8741.5 0
8742.5 0
8743.5 -1.28571
8744.5 0
8745.5 0
8746.5 0
8747.5 0
8748.5 0
8749.5 0
8750.5 0
8751.5 0
8752.5 0
8753.5 -1.28571
8754.5 0
8755.5 0
8756.5 0
8757.5 -2.57143
8758.5 -1.28571
8759.5 0
8760.5 0
8761.5 0
8762.5 0
8763.5 0
8764.5 -1.28571
8765.5 0
8766.5 0
8767.5 0
8768.5 -0.285714
8769.5 0
8770.5 0
8771.5 0
8772.5 2
8773.5 0
8774.5 0
8775.5 0
8776.5 0
8777.5 0
8778.5 -1.28571
8779.5 0
8780.5 0
8781.5 0
8782.5 -1.28571
8783.5 0
8784.5 0
8785.5 0
8786.5 0
8787.5 0
8788.5 1
8789.5 0
8790.5 0
8791.5 0
8792.5 -1.28571
8793.5 0
8794.5 0
8795.5 -1.28571
8796.5 0
8797.5 -1.28571
8798.5 0
8799.5 -1.28571
8800.5 0
8801.5 0
8802.5 -0.285714
8803.5 0
8804.5 1
8805.5 0
8806.5 0
8807.5 1
8808.5 -1.28571
8809.5 0
8810.5 0
8811.5 0
8812.5 0
8813.5 0
8814.5 0
8815.5 -1.28571
8816.5 -1.28571
8817.5 0
8818.5 0
8819.5 1
8820.5 2
8821.5 0
8822.5 1
8823.5 -1.28571
8824.5 0.714286
8825.5 0
8826.5 0
8827.5 0
8828.5 0
8829.5 0
8830.5 -0.285714
8831.5 1
8832.5 0
8833.5 -1.28571
8834.5 -1.28571
8835.5 0
8836.5 0
8837.5 0
8838.5 1
8839.5 0
8840.5 0
8841.5 0
8842.5 0
8843.5 0
8844.5 1
8845.5 0
8846.5 1
8847.5 0
8848.5 2
8849.5 1
8850.5 -2.57143
8851.5 0
8852.5 0
8853.5 0
8854.5 0
8855.5 2
8856.5 0
8857.5 0
8858.5 0
8859.5 1
8860.5 0
8861.5 1
8862.5 0
8863.5 -1.28571
8864.5 -0.285714
8865.5 1
8866.5 0
8867.5 0
8868.5 1
8869.5 0
8870.5 -1.28571
8871.5 0
8872.5 0
8873.5 2
8874.5 0
8875.5 0
8876.5 -1.28571
8877.5 0
8878.5 0
8879.5 0
8880.5 0
8881.5 1
8882.5 1
8883.5 -2.57143
8884.5 0
8885.5 0
8886.5 -1.28571
8887.5 0
8888.5 1
8889.5 0
8890.5 -1.28571
8891.5 0
8892.5 0
8893.5 1
8894.5 0
8895.5 0
8896.5 1
8897.5 0
8898.5 0
8899.5 0
8900.5 0
8901.5 1
8902.5 0
8903.5 0
8904.5 0
8905.5 0
8906.5 1
8907.5 0
8908.5 0
8909.5 1
8910.5 0
8911.5 2
8912.5 -0.285714
8913.5 -1.28571
8914.5 -2.57143
8915.5 0
8916.5 0
8917.5 -1.28571
8918.5 1
8919.5 0
8920.5 1
8921.5 0
8922.5 1
8923.5 0
8924.5 0
8925.5 0
8926.5 0
8927.5 -1.57143
8928.5 1
8929.5 0
8930.5 2
8931.5 0
8932.5 0
8933.5 -1.28571
8934.5 0
8935.5 0
8936.5 0
8937.5 0
8938.5 1
8939.5 0
8940.5 0
8941.5 0
8942.5 1
8943.5 0
8944.5 0
8945.5 0
8946.5 -1.28571
8947.5 -1.28571
8948.5 1
8949.5 0
8950.5 1
8951.5 0
8952.5 1
8953.5 0
8954.5 0
8955.5 0
8956.5 0
8957.5 1
8958.5 0
8959.5 1
8960.5 0
8961.5 -1.28571
8962.5 0
8963.5 1
8964.5 0
8965.5 2
8966.5 -1.28571
8967.5 0
8968.5 0
8969.5 0
8970.5 0
8971.5 0
8972.5 0
8973.5 0
8974.5 0
8975.5 -1.28571
8976.5 0
8977.5 0
8978.5 0
8979.5 1
8980.5 -0.285714
8981.5 0
8982.5 -1.28571
8983.5 0
8984.5 0
8985.5 0
8986.5 0
8987.5 0
8988.5 -1.28571
8989.5 -1.28571
8990.5 2
8991.5 0
8992.5 1
8993.5 -1.28571
8994.5 0
8995.5 0
8996.5 0
8997.5 1
8998.5 0
8999.5 0
9000.5 0
9001.5 0
9002.5 -1.28571
9003.5 -0.285714
9004.5 -0.285714
9005.5 -1.28571
9006.5 -1.28571
9007.5 0
9008.5 0
9009.5 1
9010.5 0
9011.5 0
9012.5 0
9013.5 0
9014.5 0
9015.5 0
9016.5 0
9017.5 0
9018.5 0
9019.5 0
9020.5 2
9021.5 1
9022.5 1
9023.5 0
9024.5 0
9025.5 0
9026.5 0
9027.5 1
9028.5 0
9029.5 0
9030.5 0
9031.5 1
9032.5 1
9033.5 0
9034.5 0
9035.5 1
9036.5 0
9037.5 0
9038.5 1
9039.5 -1.28571
9040.5 1
9041.5 1
9042.5 1
9043.5 -1.28571
9044.5 0
9045.5 0
9046.5 0
9047.5 0
9048.5 0
9049.5 0
9050.5 0
9051.5 0
9052.5 0
9053.5 1
9054.5 0
9055.5 1
9056.5 -1.28571
9057.5 0
9058.5 1
9059.5 0
9060.5 0
9061.5 1
9062.5 1
9063.5 0
9064.5 0
9065.5 0
9066.5 0
9067.5 0
9068.5 1
9069.5 -0.285714
9070.5 0
9071.5 0
9072.5 1
9073.5 0
9074.5 0
9075.5 0
9076.5 -0.285714
9077.5 0
9078.5 0
9079.5 0
9080.5 0
9081.5 0
9082.5 0
9083.5 2
9084.5 -1.28571
9085.5 0
9086.5 0
9087.5 0
9088.5 -1.28571
9089.5 1
9090.5 -1.28571
9091.5 0
9092.5 0
9093.5 0
9094.5 0
9095.5 -1.28571
9096.5 0
9097.5 -1.28571
9098.5 0
9099.5 0
9100.5 0
9101.5 -1.28571
9102.5 0
9103.5 0
9104.5 0
9105.5 0
9106.5 0
9107.5 0
9108.5 0
9109.5 -1.28571
9110.5 0
9111.5 0
9112.5 -1.28571
9113.5 0
9114.5 0
9115.5 0
9116.5 -0.285714
9117.5 0
9118.5 0
9119.5 1
9120.5 0
9121.5 0
9122.5 -1.28571
9123.5 0
9124.5 0
9125.5 0
9126.5 0
9127.5 0
9128.5 0
9129.5 -1.28571
9130.5 0
9131.5 0
9132.5 0
9133.5 0
9134.5 0
9135.5 0
9136.5 0
9137.5 2
9138.5 0
9139.5 -1.28571
9140.5 0
9141.5 -0.285714
9142.5 0
9143.5 0
9144.5 0
9145.5 0
9146.5 0
9147.5 0
9148.5 1
9149.5 1
9150.5 0
9151.5 0
9152.5 0
9153.5 0
9154.5 0
9155.5 -1.28571
9156.5 0
9157.5 0
9158.5 0
9159.5 0
9160.5 0
9161.5 0
9162.5 -1.28571
9163.5 0
9164.5 1
9165.5 -1.28571
9166.5 0
9167.5 0
9168.5 1
9169.5 0
9170.5 1
9171.5 -1.28571
9172.5 0
9173.5 0
9174.5 0
9175.5 1
9176.5 0
9177.5 -0.285714
9178.5 0
9179.5 0
9180.5 0
9181.5 0
9182.5 -1.28571
9183.5 0
9184.5 0
9185.5 0
9186.5 1
9187.5 0
9188.5 0
9189.5 -2.57143
9190.5 0
9191.5 0
9192.5 1
9193.5 0
9194.5 0
9195.5 0
9196.5 0
9197.5 0
9198.5 -1.28571
9199.5 1
9200.5 1
9201.5 0
9202.5 -1.28571
9203.5 -1.28571
9204.5 -1.28571
9205.5 0
9206.5 0
9207.5 -0.285714
9208.5 0
9209.5 0
9210.5 0
9211.5 0
9212.5 0
9213.5 1
9214.5 0
9215.5 0
9216.5 0
9217.5 0
9218.5 0
9219.5 1
9220.5 0
9221.5 0
9222.5 0
9223.5 0
9224.5 0
9225.5 0
9226.5 0
9227.5 0
9228.5 0
9229.5 0
9230.5 -1.28571
9231.5 1
9232.5 2
9233.5 0
9234.5 0
9235.5 0
9236.5 0
9237.5 -2.57143
9238.5 0
9239.5 0
9240.5 -1.28571
9241.5 0
9242.5 0
9243.5 -0.285714
9244.5 0
9245.5 0
9246.5 0
9247.5 0
9248.5 0
9249.5 0
9250.5 0
9251.5 1
9252.5 0
9253.5 1
9254.5 -1.28571
9255.5 0
9256.5 0
9257.5 0
9258.5 1
9259.5 -1.28571
9260.5 0
9261.5 0
9262.5 0
9263.5 0
9264.5 0
9265.5 0
9266.5 1
9267.5 0
9268.5 0
9269.5 1
9270.5 -1.28571
9271.5 1
9272.5 0
9273.5 0
9274.5 0.714286
9275.5 0
9276.5 0
9277.5 0
9278.5 0
9279.5 1
9280.5 0
9281.5 0
9282.5 0
9283.5 0
9284.5 0
9285.5 1
9286.5 0
9287.5 0
9288.5 1
9289.5 -0.285714
9290.5 0
9291.5 0
9292.5 0
9293.5 0
9294.5 0
9295.5 0
9296.5 1
9297.5 1
9298.5 -0.285714
9299.5 0
9300.5 -1.28571
9301.5 1
9302.5 1
9303.5 0
9304.5 -1.28571
9305.5 1
9306.5 1
9307.5 0
9308.5 0
9309.5 0
9310.5 3
9311.5 0
9312.5 0
9313.5 0
9314.5 0
9315.5 0
9316.5 0
9317.5 0
9318.5 0
9319.5 0
9320.5 0
9321.5 0
9322.5 0
9323.5 0
9324.5 0
9325.5 0
9326.5 -1.28571
9327.5 0
9328.5 0
9329.5 1
9330.5 0
9331.5 1
9332.5 0
9333.5 0
9334.5 0
9335.5 0
9336.5 0
9337.5 0
9338.5 1
9339.5 0
9340.5 0
9341.5 0
9342.5 0
9343.5 -1.28571
9344.5 -1.28571
9345.5 -0.285714
9346.5 0
9347.5 0
9348.5 0
9349.5 0
9350.5 0
9351.5 -1.28571
9352.5 -1.28571
9353.5 0
9354.5 0
9355.5 0
9356.5 -1.28571
9357.5 0
9358.5 1
9359.5 2
9360.5 -1.28571
9361.5 0
9362.5 -1.28571
9363.5 0
9364.5 0
9365.5 0
9366.5 0
9367.5 0
9368.5 -1.28571
9369.5 0
9370.5 0
9371.5 1
9372.5 0
9373.5 0
9374.5 -1.28571
9375.5 0
9376.5 0
9377.5 0
9378.5 0
9379.5 0
9380.5 0
9381.5 -1.28571
9382.5 1
9383.5 0
9384.5 0
9385.5 0
9386.5 0
9387.5 0
9388.5 0
9389.5 0
9390.5 0
9391.5 0
9392.5 0
9393.5 -1.28571
9394.5 0
9395.5 0
9396.5 1
9397.5 0
9398.5 -1.28571
9399.5 -1.28571
9400.5 0
9401.5 0
9402.5 0
9403.5 0
9404.5 0
9405.5 1
9406.5 2
9407.5 0
9408.5 -1.28571
9409.5 0
9410.5 1
9411.5 0
9412.5 0
9413.5 0
9414.5 0
9415.5 0
9416.5 -0.285714
9417.5 0
9418.5 0
9419.5 0
9420.5 0
9421.5 0
9422.5 0
9423.5 1
9424.5 0
9425.5 0
9426.5 0
9427.5 0
9428.5 1
9429.5 1
9430.5 0
9431.5 0
9432.5 1
9433.5 -1.28571
9434.5 0
9435.5 0
9436.5 0
9437.5 0
9438.5 0
9439.5 -0.285714
9440.5 0
9441.5 -1.28571
9442.5 0
9443.5 0
9444.5 0
9445.5 0
9446.5 0
9447.5 2
9448.5 0
9449.5 0
9450.5 0
9451.5 0
9452.5 0
9453.5 0
9454.5 0
9455.5 0
9456.5 0
9457.5 0
9458.5 0
9459.5 0
9460.5 0
9461.5 0
9462.5 0
9463.5 0
9464.5 1
9465.5 0
9466.5 0
9467.5 0
9468.5 0
9469.5 0
9470.5 0
9471.5 0
9472.5 0
9473.5 -1.28571
9474.5 0
9475.5 0
9476.5 0
9477.5 1
9478.5 -1.28571
9479.5 0
9480.5 0
9481.5 0
9482.5 0
9483.5 0
9484.5 -1.28571
9485.5 0
9486.5 0
9487.5 0
9488.5 0
9489.5 0
9490.5 0
9491.5 0
9492.5 0
9493.5 0
9494.5 0
9495.5 0
9496.5 0
9497.5 -1.28571
9498.5 0
9499.5 1
9500.5 0
9501.5 0
9502.5 -1.28571
9503.5 0
9504.5 -1.28571
9505.5 -1.28571
9506.5 -1.28571
9507.5 0
9508.5 0
9509.5 0
9510.5 0
9511.5 0
9512.5 0
9513.5 0
9514.5 0
9515.5 0
9516.5 0
9517.5 0
9518.5 1
9519.5 0
9520.5 -0.285714
9521.5 0
9522.5 -2.57143
9523.5 0
9524.5 -1.28571
9525.5 0
9526.5 0
9527.5 -0.285714
9528.5 0
9529.5 0
9530.5 -0.285714
9531.5 -1.28571
9532.5 1
9533.5 0
9534.5 1
9535.5 0
9536.5 0
9537.5 0
9538.5 1
9539.5 0
9540.5 0
9541.5 0
9542.5 0
9543.5 0
9544.5 0
9545.5 0
9546.5 0
9547.5 0
9548.5 -1.28571
9549.5 0
9550.5 0
9551.5 0
9552.5 1
9553.5 0
9554.5 0
9555.5 1
9556.5 1
9557.5 0
9558.5 -1.28571
9559.5 0
9560.5 0
9561.5 0
9562.5 0
9563.5 0
9564.5 0
9565.5 -1.28571
9566.5 0
9567.5 0
9568.5 0
9569.5 -1.28571
9570.5 0
9571.5 -1.28571
9572.5 0
9573.5 0
9574.5 0
9575.5 0
9576.5 0
9577.5 0
9578.5 -1.28571
9579.5 0
9580.5 0
9581.5 0
9582.5 0
9583.5 0
9584.5 0
9585.5 1
9586.5 0
9587.5 0
9588.5 0
9589.5 0
9590.5 -1.28571
9591.5 0
9592.5 0
9593.5 0
9594.5 0
9595.5 0
9596.5 0
9597.5 1
9598.5 0
9599.5 0
9600.5 0
9601.5 0
9602.5 0
9603.5 1
9604.5 0
9605.5 0
9606.5 0
9607.5 0
9608.5 0
9609.5 0
9610.5 0
9611.5 0
9612.5 0
9613.5 0
9614.5 0
9615.5 1
9616.5 0
9617.5 0
9618.5 0
9619.5 0
9620.5 0
9621.5 1
9622.5 0
9623.5 1
9624.5 0
9625.5 0
9626.5 0
9627.5 0
9628.5 0
9629.5 0
9630.5 0
9631.5 0
9632.5 0
9633.5 0
9634.5 0
9635.5 0
9636.5 0
9637.5 0
9638.5 2
9639.5 0
9640.5 0
9641.5 0
9642.5 0
9643.5 1
9644.5 0
9645.5 0
9646.5 0
9647.5 -1.28571
9648.5 0
9649.5 0
9650.5 0
9651.5 0
9652.5 0
9653.5 0
9654.5 0
9655.5 0
9656.5 0
9657.5 1
9658.5 0
9659.5 0
9660.5 0
9661.5 0
9662.5 0
9663.5 0
9664.5 0
9665.5 0
9666.5 1
9667.5 0
9668.5 0
9669.5 0
9670.5 0
9671.5 0
9672.5 0
9673.5 -1.28571
9674.5 0
9675.5 0
9676.5 0
9677.5 0
9678.5 0
9679.5 0
9680.5 0
9681.5 0
9682.5 0
9683.5 0
9684.5 0
9685.5 0
9686.5 0
9687.5 -1.28571
9688.5 0
9689.5 0
9690.5 1
9691.5 0
9692.5 1
9693.5 0
9694.5 0
9695.5 -1.28571
9696.5 0
9697.5 -1.28571
9698.5 0
9699.5 0
9700.5 3
9701.5 0
9702.5 0
9703.5 0
9704.5 0
9705.5 -1.28571
9706.5 0
9707.5 0
9708.5 0
9709.5 0
9710.5 0
9711.5 1
9712.5 0
9713.5 0
9714.5 0
9715.5 0
9716.5 1
9717.5 0
9718.5 0
9719.5 -1.28571
9720.5 0
9721.5 0
9722.5 0
9723.5 0
9724.5 0
9725.5 0
9726.5 0
9727.5 0
9728.5 0
9729.5 1
9730.5 0
9731.5 0
9732.5 0
9733.5 0
9734.5 0
9735.5 0
9736.5 0
9737.5 0
9738.5 0
9739.5 0
9740.5 0
9741.5 0
9742.5 0
9743.5 0
9744.5 0
9745.5 0
9746.5 1
9747.5 0
9748.5 0
9749.5 0
9750.5 0
9751.5 1
9752.5 0
9753.5 0
9754.5 -1.28571
9755.5 0
9756.5 1
9757.5 0
9758.5 0
9759.5 -1.28571
9760.5 0
9761.5 1
9762.5 0
9763.5 0
9764.5 0
9765.5 0
9766.5 0
9767.5 0
9768.5 0
9769.5 0
9770.5 0
9771.5 0
9772.5 0
9773.5 -1.28571
9774.5 0
9775.5 0
9776.5 1
9777.5 0
9778.5 0
9779.5 1
9780.5 0
9781.5 0
9782.5 0
9783.5 0
9784.5 0
9785.5 0
9786.5 0
9787.5 0
9788.5 0
9789.5 0
9790.5 0
9791.5 -1.28571
9792.5 0
9793.5 0
9794.5 0
9795.5 0
9796.5 0
9797.5 0
9798.5 1
9799.5 1
9800.5 -1.28571
9801.5 0
9802.5 0
9803.5 0
9804.5 0
9805.5 0
9806.5 0
9807.5 0
9808.5 0
9809.5 -1.28571
9810.5 0
9811.5 0
9812.5 0
9813.5 0
9814.5 0
9815.5 0
9816.5 0
9817.5 0
9818.5 0
9819.5 0
9820.5 0
9821.5 0
9822.5 0
9823.5 0
9824.5 0
9825.5 0
9826.5 0
9827.5 0
9828.5 0
9829.5 1
9830.5 0
9831.5 0
9832.5 0
9833.5 0
9834.5 0
9835.5 0
9836.5 0
9837.5 0
9838.5 -1.28571
9839.5 0
9840.5 0
9841.5 0
9842.5 0
9843.5 0
9844.5 0
9845.5 0
9846.5 0
9847.5 0
9848.5 0
9849.5 0
9850.5 0
9851.5 0
9852.5 1
9853.5 0
9854.5 0
9855.5 0
9856.5 0
9857.5 0
9858.5 0
9859.5 0
9860.5 0
9861.5 0
9862.5 0
9863.5 1
9864.5 0
9865.5 0
9866.5 1
9867.5 0
9868.5 0
9869.5 1
9870.5 0
9871.5 0
9872.5 1
9873.5 0
9874.5 0
9875.5 0
9876.5 0
9877.5 0
9878.5 0
9879.5 0
9880.5 0
9881.5 0
9882.5 0
9883.5 0
9884.5 0
9885.5 0
9886.5 0
9887.5 0
9888.5 0
9889.5 0
9890.5 0
9891.5 0
9892.5 0
9893.5 0
9894.5 1
9895.5 0
9896.5 1
9897.5 0
9898.5 0
9899.5 0
9900.5 0
9901.5 0
9902.5 0
9903.5 0
9904.5 0
9905.5 0
9906.5 0
9907.5 0
9908.5 0
9909.5 0
9910.5 0
9911.5 0
9912.5 0
9913.5 0
9914.5 0
9915.5 0
9916.5 0
9917.5 0
9918.5 1
9919.5 0
9920.5 0
9921.5 0
9922.5 0
9923.5 0
9924.5 0
9925.5 1
9926.5 -2.57143
9927.5 0
9928.5 0
9929.5 0
9930.5 0
9931.5 0
9932.5 0
9933.5 0
9934.5 1
9935.5 0
9936.5 -1.28571
9937.5 0
9938.5 1
9939.5 0
9940.5 0
9941.5 1
9942.5 0
9943.5 0
9944.5 0
9945.5 0
9946.5 0
9947.5 0
9948.5 1
9949.5 0
9950.5 0
9951.5 0
9952.5 0
9953.5 0
9954.5 0
9955.5 0
9956.5 0
9957.5 0
9958.5 0
9959.5 0
9960.5 0
9961.5 0
9962.5 0
9963.5 0
9964.5 0
9965.5 0
9966.5 0
9967.5 0
9968.5 0
9969.5 0
9970.5 0
9971.5 1
9972.5 0
9973.5 0
9974.5 0
9975.5 0
9976.5 0
9977.5 0
9978.5 0
9979.5 0
9980.5 0
9981.5 0
9982.5 0
9983.5 1
9984.5 0
9985.5 0
9986.5 0
9987.5 0
9988.5 0
9989.5 0
9990.5 1
9991.5 0
9992.5 0
9993.5 0
9994.5 0
9995.5 0
9996.5 0
9997.5 0
9998.5 0
9999.5 0
10000.5 0
10001.5 0
10002.5 0
10003.5 0
10004.5 0
10005.5 0
10006.5 0
10007.5 0
10008.5 0
10009.5 0
10010.5 0
10011.5 0
10012.5 0
10013.5 1
10014.5 0
10015.5 0
10016.5 0
10017.5 0
10018.5 0
10019.5 0
10020.5 0
10021.5 0
10022.5 0
10023.5 0
10024.5 0
10025.5 0
10026.5 -0.285714
10027.5 0
10028.5 0
10029.5 1
10030.5 0
10031.5 0
10032.5 0
10033.5 0
10034.5 0
10035.5 1
10036.5 0
10037.5 0
10038.5 1
10039.5 0
10040.5 0
10041.5 0
10042.5 0
10043.5 0
10044.5 0
10045.5 0
10046.5 0
10047.5 0
10048.5 0
10049.5 0
10050.5 0
10051.5 0
10052.5 0
10053.5 0
10054.5 0
10055.5 0
10056.5 0
10057.5 0
10058.5 0
10059.5 0
10060.5 0
10061.5 0
10062.5 0
10063.5 0
10064.5 0
10065.5 1
10066.5 0
10067.5 0
10068.5 0
10069.5 0
10070.5 0
10071.5 0
10072.5 0
10073.5 0
10074.5 0
10075.5 0
10076.5 0
10077.5 0
10078.5 0
10079.5 0
10080.5 0
10081.5 0
10082.5 0
10083.5 0
10084.5 0
10085.5 0
10086.5 0
10087.5 0
10088.5 0
10089.5 0
10090.5 0
10091.5 0
10092.5 0
10093.5 0
10094.5 0
10095.5 0
10096.5 0
10097.5 0
10098.5 0
10099.5 0
10100.5 1
10101.5 0
10102.5 0
10103.5 0
10104.5 0
10105.5 0
10106.5 0
10107.5 0
10108.5 0
10109.5 0
10110.5 0
10111.5 0
10112.5 0
10113.5 0
10114.5 0
10115.5 0
10116.5 0
10117.5 0
10118.5 0
10119.5 0
10120.5 0
10121.5 0
10122.5 0
10123.5 0
10124.5 0
10125.5 0
10126.5 0
10127.5 0
10128.5 0
10129.5 0
10130.5 0
10131.5 0
10132.5 0
10133.5 0
10134.5 0
10135.5 0
10136.5 0
10137.5 0
10138.5 0
10139.5 0
10140.5 0
10141.5 0
10142.5 0
10143.5 0
10144.5 0
10145.5 0
10146.5 1
10147.5 0
10148.5 0
10149.5 0
10150.5 -1.28571
10151.5 0
10152.5 0
10153.5 0
10154.5 0
10155.5 0
10156.5 1
10157.5 0
10158.5 0
10159.5 1
10160.5 0
10161.5 0
10162.5 0
10163.5 0
10164.5 0
10165.5 0
10166.5 0
10167.5 0
10168.5 0
10169.5 0
10170.5 0
10171.5 0
10172.5 0
10173.5 0
10174.5 0
10175.5 0
10176.5 0
10177.5 0
10178.5 0
10179.5 0
10180.5 0
10181.5 0
10182.5 0
10183.5 0
10184.5 0
10185.5 0
10186.5 0
10187.5 0
10188.5 0
10189.5 0
10190.5 0
10191.5 0
10192.5 0
10193.5 0
10194.5 0
10195.5 0
10196.5 0
10197.5 0
10198.5 0
10199.5 0
10200.5 0
10201.5 0
10202.5 0
10203.5 0
10204.5 0
10205.5 0
10206.5 0
10207.5 0
10208.5 0
10209.5 -1.28571
10210.5 0
10211.5 0
10212.5 0
10213.5 0
10214.5 0
10215.5 0
10216.5 0
10217.5 0
10218.5 0
10219.5 0
10220.5 0
10221.5 0
10222.5 0
10223.5 0
10224.5 0
10225.5 0
10226.5 0
10227.5 0
10228.5 0
10229.5 0
10230.5 0
10231.5 0
10232.5 0
10233.5 0
10234.5 0
10235.5 0
10236.5 0
10237.5 0
10238.5 0
10239.5 0
10240.5 0
10241.5 0
10242.5 0
10243.5 0
10244.5 0
10245.5 0
10246.5 0
10247.5 0
10248.5 0
10249.5 0
10250.5 0
10251.5 0
10252.5 0
10253.5 0
10254.5 0
10255.5 0
10256.5 0
10257.5 0
10258.5 0
10259.5 0
10260.5 0
10261.5 0
10262.5 0
10263.5 0
10264.5 0
10265.5 0
10266.5 0
10267.5 0
10268.5 0
10269.5 0
10270.5 0
10271.5 0
10272.5 0
10273.5 0
10274.5 -1.28571
10275.5 0
10276.5 0
10277.5 0
10278.5 0
10279.5 1
10280.5 0
10281.5 0
10282.5 0
10283.5 0
10284.5 0
10285.5 0
10286.5 0
10287.5 0
10288.5 0
10289.5 0
10290.5 0
10291.5 0
10292.5 0
10293.5 0
10294.5 0
10295.5 0
10296.5 0
10297.5 0
10298.5 0
10299.5 0
10300.5 0
10301.5 0
10302.5 0
10303.5 0
10304.5 0
10305.5 0
10306.5 0
10307.5 0
10308.5 0
10309.5 1
10310.5 0
10311.5 1
10312.5 0
10313.5 0
10314.5 0
10315.5 0
10316.5 0
10317.5 0
10318.5 0
10319.5 0
10320.5 0
10321.5 0
10322.5 0
10323.5 0
10324.5 0
10325.5 0
10326.5 0
10327.5 0
10328.5 0
10329.5 0
10330.5 0
10331.5 0
10332.5 0
10333.5 0
10334.5 -1.28571
10335.5 0
10336.5 0
10337.5 0
10338.5 1
10339.5 1
10340.5 0
10341.5 0
10342.5 0
10343.5 0
10344.5 0
10345.5 0
10346.5 0
10347.5 0
10348.5 0
10349.5 0
10350.5 0
10351.5 0
10352.5 0
10353.5 0
10354.5 1
10355.5 0
10356.5 0
10357.5 1
10358.5 0
10359.5 0
10360.5 0
10361.5 0
10362.5 0
10363.5 0
10364.5 0
10365.5 0
10366.5 0
10367.5 0
10368.5 0
10369.5 0
10370.5 0
10371.5 0
10372.5 0
10373.5 0
10374.5 0
10375.5 0
10376.5 0
10377.5 0
10378.5 0
10379.5 0
10380.5 0
10381.5 0
10382.5 0
10383.5 0
10384.5 0
10385.5 0
10386.5 0
10387.5 0
10388.5 0
10389.5 0
10390.5 0
10391.5 0
10392.5 0
10393.5 0
10394.5 0
10395.5 0
10396.5 0
10397.5 0
10398.5 0
10399.5 0
10400.5 0
10401.5 0
10402.5 0
10403.5 1
10404.5 0
10405.5 0
10406.5 0
10407.5 0
10408.5 0
10409.5 0
10410.5 0
10411.5 0
10412.5 0
10413.5 0
10414.5 0
10415.5 0
10416.5 0
10417.5 0
10418.5 0
10419.5 0
10420.5 0
10421.5 0
10422.5 0
10423.5 0
10424.5 0
10425.5 0
10426.5 0
10427.5 0
10428.5 0
10429.5 0
10430.5 0
10431.5 0
10432.5 0
10433.5 0
10434.5 0
10435.5 0
10436.5 0
10437.5 0
10438.5 0
10439.5 0
10440.5 0
10441.5 0
10442.5 0
10443.5 0
10444.5 0
10445.5 0
10446.5 0
10447.5 0
10448.5 0
10449.5 0
10450.5 0
10451.5 0
10452.5 0
10453.5 0
10454.5 0
10455.5 0
10456.5 0
10457.5 0
10458.5 0
10459.5 0
10460.5 0
10461.5 0
10462.5 0
10463.5 0
10464.5 0
10465.5 0
10466.5 0
10467.5 -1.28571
10468.5 0
10469.5 0
10470.5 0
10471.5 0
10472.5 0
10473.5 0
10474.5 0
10475.5 0
10476.5 0
10477.5 0
10478.5 0
10479.5 0
10480.5 0
10481.5 0
10482.5 0
10483.5 0
10484.5 0
10485.5 0
10486.5 0
10487.5 0
10488.5 0
10489.5 0
10490.5 0
10491.5 0
10492.5 0
10493.5 0
10494.5 0
10495.5 0
10496.5 0
10497.5 0
10498.5 0
10499.5 0
10500.5 0
10501.5 0
10502.5 0
10503.5 0
10504.5 0
10505.5 0
10506.5 0
10507.5 0
10508.5 0
10509.5 0
10510.5 0
10511.5 0
10512.5 0
10513.5 0
10514.5 0
10515.5 0
10516.5 0
10517.5 0
10518.5 0
10519.5 0
10520.5 0
10521.5 0
10522.5 0
10523.5 0
10524.5 0
10525.5 0
10526.5 0
10527.5 0
10528.5 0
10529.5 0
10530.5 0
10531.5 0
10532.5 0
10533.5 0
10534.5 0
10535.5 0
10536.5 0
10537.5 0
10538.5 0
10539.5 0
10540.5 0
10541.5 0
10542.5 0
10543.5 0
10544.5 0
10545.5 0
10546.5 0
10547.5 0
10548.5 0
10549.5 0
10550.5 0
10551.5 0
10552.5 0
10553.5 0
10554.5 0
10555.5 0
10556.5 0
10557.5 0
10558.5 0
10559.5 0
10560.5 0
10561.5 0
10562.5 0
10563.5 0
10564.5 0
10565.5 0
10566.5 1
10567.5 0
10568.5 0
10569.5 0
10570.5 0
10571.5 0
10572.5 0
10573.5 0
10574.5 0
10575.5 0
10576.5 0
10577.5 0
10578.5 0
10579.5 0
10580.5 0
10581.5 0
10582.5 0
10583.5 0
10584.5 0
10585.5 0
10586.5 0
10587.5 0
10588.5 0
10589.5 0
10590.5 0
10591.5 0
10592.5 0
10593.5 0
10594.5 0
10595.5 0
10596.5 0
10597.5 0
10598.5 0
10599.5 0
10600.5 0
10601.5 0
10602.5 0
10603.5 0
10604.5 0
10605.5 0
10606.5 0
10607.5 0
10608.5 0
10609.5 0
10610.5 0
10611.5 0
10612.5 0
10613.5 0
10614.5 0
10615.5 0
10616.5 0
10617.5 0
10618.5 0
10619.5 0
10620.5 0
10621.5 0
10622.5 0
10623.5 0
10624.5 0
10625.5 0
10626.5 0
10627.5 0
10628.5 0
10629.5 0
10630.5 0
10631.5 0
10632.5 0
10633.5 0
10634.5 0
10635.5 0
10636.5 0
10637.5 0
10638.5 0
10639.5 0
10640.5 0
10641.5 0
10642.5 0
10643.5 0
10644.5 0
10645.5 0
10646.5 0
10647.5 0
10648.5 0
10649.5 0
10650.5 0
10651.5 0
10652.5 0
10653.5 0
10654.5 0
10655.5 0
10656.5 0
10657.5 0
10658.5 1
10659.5 0
10660.5 0
10661.5 0
10662.5 0
10663.5 0
10664.5 0
10665.5 0
10666.5 0
10667.5 0
10668.5 0
10669.5 0
10670.5 0
10671.5 0
10672.5 0
10673.5 0
10674.5 0
10675.5 0
10676.5 0
10677.5 0
10678.5 0
10679.5 0
10680.5 0
10681.5 0
10682.5 0
10683.5 0
10684.5 0
10685.5 0
10686.5 0
10687.5 0
10688.5 0
10689.5 0
10690.5 0
10691.5 0
10692.5 0
10693.5 0
10694.5 0
10695.5 0
10696.5 0
10697.5 0
10698.5 1
10699.5 0
10700.5 0
10701.5 0
10702.5 0
10703.5 0
10704.5 0
10705.5 0
10706.5 0
10707.5 0
10708.5 0
10709.5 0
10710.5 0
10711.5 0
10712.5 0
10713.5 0
10714.5 0
10715.5 0
10716.5 0
10717.5 0
10718.5 0
10719.5 0
10720.5 0
10721.5 0
10722.5 0
10723.5 0
10724.5 0
10725.5 0
10726.5 0
10727.5 0
10728.5 0
10729.5 0
10730.5 0
10731.5 0
10732.5 0
10733.5 0
10734.5 0
10735.5 0
10736.5 0
10737.5 0
10738.5 0
10739.5 0
10740.5 0
10741.5 0
10742.5 0
10743.5 0
10744.5 0
10745.5 0
10746.5 0
10747.5 0
10748.5 0
10749.5 0
10750.5 0
10751.5 0
10752.5 0
10753.5 0
10754.5 0
10755.5 0
10756.5 0
10757.5 0
10758.5 0
10759.5 0
10760.5 0
10761.5 0
10762.5 0
10763.5 0
10764.5 0
10765.5 0
10766.5 0
10767.5 0
10768.5 0
10769.5 0
10770.5 0
10771.5 0
10772.5 0
10773.5 0
10774.5 0
10775.5 0
10776.5 0
10777.5 0
10778.5 0
10779.5 0
10780.5 0
10781.5 0
10782.5 0
10783.5 0
10784.5 0
10785.5 0
10786.5 0
10787.5 0
10788.5 0
10789.5 0
10790.5 0
10791.5 0
10792.5 0
10793.5 0
10794.5 0
10795.5 0
10796.5 0
10797.5 0
10798.5 0
10799.5 0
10800.5 0
10801.5 0
10802.5 0
10803.5 0
10804.5 0
10805.5 0
10806.5 0
10807.5 0
10808.5 0
10809.5 0
10810.5 0
10811.5 0
10812.5 0
10813.5 0
10814.5 0
10815.5 0
10816.5 0
10817.5 0
10818.5 0
10819.5 0
10820.5 0
10821.5 0
10822.5 0
10823.5 0
10824.5 0
10825.5 0
10826.5 0
10827.5 0
10828.5 0
10829.5 0
10830.5 1
10831.5 0
10832.5 0
10833.5 0
10834.5 0
10835.5 0
10836.5 0
10837.5 0
10838.5 0
10839.5 0
10840.5 0
10841.5 0
10842.5 0
10843.5 0
10844.5 0
10845.5 0
10846.5 0
10847.5 0
10848.5 0
10849.5 0
10850.5 0
10851.5 0
10852.5 0
10853.5 0
10854.5 0
10855.5 0
10856.5 0
10857.5 0
10858.5 0
10859.5 0
10860.5 0
10861.5 0
10862.5 0
10863.5 0
10864.5 0
10865.5 0
10866.5 0
10867.5 0
10868.5 0
10869.5 0
10870.5 0
10871.5 0
10872.5 0
10873.5 0
10874.5 0
10875.5 0
10876.5 0
10877.5 0
10878.5 1
10879.5 0
10880.5 0
10881.5 0
10882.5 0
10883.5 0
10884.5 0
10885.5 0
10886.5 0
10887.5 0
10888.5 0
10889.5 0
10890.5 0
10891.5 0
10892.5 1
10893.5 0
10894.5 0
10895.5 0
10896.5 0
10897.5 0
10898.5 0
10899.5 0
10900.5 0
10901.5 0
10902.5 0
10903.5 0
10904.5 0
10905.5 0
10906.5 0
10907.5 0
10908.5 0
10909.5 0
10910.5 0
10911.5 0
10912.5 0
10913.5 0
10914.5 0
10915.5 0
10916.5 -1.28571
10917.5 0
10918.5 0
10919.5 0
10920.5 0
10921.5 0
10922.5 0
10923.5 0
10924.5 0
10925.5 0
10926.5 0
10927.5 0
10928.5 0
10929.5 0
10930.5 0
10931.5 0
10932.5 0
10933.5 0
10934.5 0
10935.5 0
10936.5 0
10937.5 0
10938.5 0
10939.5 0
10940.5 0
10941.5 0
10942.5 0
10943.5 0
10944.5 0
10945.5 0
10946.5 0
10947.5 0
10948.5 0
10949.5 0
10950.5 0
10951.5 0
10952.5 0
10953.5 0
10954.5 0
10955.5 0
10956.5 0
10957.5 0
10958.5 0
10959.5 0
10960.5 0
10961.5 0
10962.5 0
10963.5 0
10964.5 0
10965.5 0
10966.5 0
10967.5 0
10968.5 0
10969.5 0
10970.5 0
10971.5 0
10972.5 0
10973.5 0
10974.5 0
10975.5 0
10976.5 0
10977.5 0
10978.5 0
10979.5 0
10980.5 0
10981.5 0
10982.5 0
10983.5 0
10984.5 0
10985.5 0
10986.5 0
10987.5 0
10988.5 0
10989.5 0
10990.5 0
10991.5 0
10992.5 0
10993.5 0
10994.5 0
10995.5 0
10996.5 0
10997.5 0
10998.5 0
10999.5 0
11000.5 0
11001.5 0
11002.5 0
11003.5 0
11004.5 0
11005.5 0
11006.5 0
11007.5 0
11008.5 0
11009.5 0
11010.5 0
11011.5 0
11012.5 0
11013.5 0
11014.5 0
11015.5 0
11016.5 0
11017.5 0
11018.5 0
11019.5 0
11020.5 0
11021.5 0
11022.5 0
11023.5 0
11024.5 0
11025.5 0
11026.5 0
11027.5 0
11028.5 1
11029.5 0
11030.5 0
11031.5 0
11032.5 0
11033.5 0
11034.5 0
11035.5 0
11036.5 0
11037.5 0
11038.5 0
11039.5 0
11040.5 0
11041.5 0
11042.5 0
11043.5 0
11044.5 0
11045.5 0
11046.5 0
11047.5 0
11048.5 0
11049.5 0
11050.5 0
11051.5 0
11052.5 0
11053.5 0
11054.5 0
11055.5 0
11056.5 0
11057.5 0
11058.5 0
11059.5 0
11060.5 0
11061.5 0
11062.5 0
11063.5 0
11064.5 0
11065.5 0
11066.5 0
11067.5 0
11068.5 0
11069.5 0
11070.5 0
11071.5 0
11072.5 0
11073.5 0
11074.5 0
11075.5 0
11076.5 0
11077.5 0
11078.5 0
11079.5 0
11080.5 0
11081.5 0
11082.5 0
11083.5 0
11084.5 0
11085.5 0
11086.5 0
11087.5 0
11088.5 0
11089.5 0
11090.5 0
11091.5 0
11092.5 0
11093.5 -1.28571
11094.5 0
11095.5 0
11096.5 0
11097.5 0
11098.5 0
11099.5 0
11100.5 0
11101.5 0
11102.5 0
11103.5 0
11104.5 0
11105.5 0
11106.5 0
11107.5 0
11108.5 0
11109.5 0
11110.5 0
11111.5 0
11112.5 0
11113.5 0
11114.5 0
11115.5 0
11116.5 0
11117.5 0
11118.5 0
11119.5 0
11120.5 0
11121.5 0
11122.5 0
11123.5 0
11124.5 0
11125.5 0
11126.5 1
11127.5 0
11128.5 0
11129.5 0
11130.5 0
11131.5 0
11132.5 0
11133.5 0
11134.5 0
11135.5 0
11136.5 0
11137.5 0
11138.5 1
11139.5 0
11140.5 0
11141.5 0
11142.5 0
11143.5 0
11144.5 0
11145.5 0
11146.5 0
11147.5 0
11148.5 0
11149.5 0
11150.5 0
11151.5 0
11152.5 0
11153.5 0
11154.5 0
11155.5 0
11156.5 0
11157.5 0
11158.5 0
11159.5 0
11160.5 0
11161.5 0
11162.5 0
11163.5 0
11164.5 0
11165.5 0
11166.5 0
11167.5 0
11168.5 0
11169.5 0
11170.5 0
11171.5 0
11172.5 0
11173.5 0
11174.5 0
11175.5 0
11176.5 0
11177.5 0
11178.5 0
11179.5 0
11180.5 0
11181.5 0
11182.5 0
11183.5 0
11184.5 0
11185.5 0
11186.5 0
11187.5 0
11188.5 0
11189.5 0
11190.5 0
11191.5 0
11192.5 0
11193.5 0
11194.5 0
11195.5 0
11196.5 1
11197.5 0
11198.5 0
11199.5 0
11200.5 0
11201.5 0
11202.5 0
11203.5 0
11204.5 0
11205.5 0
11206.5 0
11207.5 0
11208.5 0
11209.5 0
11210.5 0
11211.5 0
11212.5 0
11213.5 0
11214.5 0
11215.5 0
11216.5 0
11217.5 0
11218.5 0
11219.5 0
11220.5 0
11221.5 0
11222.5 0
11223.5 0
11224.5 0
11225.5 0
11226.5 0
11227.5 0
11228.5 0
11229.5 0
11230.5 0
11231.5 0
11232.5 0
11233.5 0
11234.5 0
11235.5 0
11236.5 0
11237.5 0
11238.5 0
11239.5 0
11240.5 0
11241.5 0
11242.5 0
11243.5 0
11244.5 0
11245.5 0
11246.5 0
11247.5 0
11248.5 0
11249.5 0
11250.5 0
11251.5 0
11252.5 0
11253.5 0
11254.5 0
11255.5 0
11256.5 0
11257.5 0
11258.5 0
11259.5 0
11260.5 1
11261.5 0
11262.5 0
11263.5 0
11264.5 0
11265.5 0
11266.5 0
11267.5 0
11268.5 0
11269.5 0
11270.5 0
11271.5 0
11272.5 0
11273.5 0
11274.5 0
11275.5 0
11276.5 0
11277.5 0
11278.5 0
11279.5 0
11280.5 0
11281.5 0
11282.5 0
11283.5 0
11284.5 0
11285.5 0
11286.5 0
11287.5 0
11288.5 0
11289.5 0
11290.5 0
11291.5 0
11292.5 0
11293.5 0
11294.5 0
11295.5 0
11296.5 0
11297.5 0
11298.5 0
11299.5 0
11300.5 0
11301.5 0
11302.5 0
11303.5 0
11304.5 0
11305.5 0
11306.5 0
11307.5 0
11308.5 0
11309.5 0
11310.5 0
11311.5 0
11312.5 0
11313.5 0
11314.5 0
11315.5 0
11316.5 0
11317.5 0
11318.5 0
11319.5 0
11320.5 0
11321.5 0
11322.5 0
11323.5 0
11324.5 1
11325.5 0
11326.5 0
11327.5 0
11328.5 0
11329.5 0
11330.5 0
11331.5 0
11332.5 0
11333.5 0
11334.5 0
11335.5 0
11336.5 1
11337.5 0
11338.5 0
11339.5 0
11340.5 0
11341.5 0
11342.5 0
11343.5 0
11344.5 0
11345.5 0
11346.5 0
11347.5 0
11348.5 0
11349.5 0
11350.5 0
11351.5 0
11352.5 0
11353.5 0
11354.5 0
11355.5 0
11356.5 0
11357.5 0
11358.5 0
11359.5 0
11360.5 0
11361.5 0
11362.5 0
11363.5 0
11364.5 0
11365.5 0
11366.5 0
11367.5 0
11368.5 0
11369.5 0
11370.5 0
11371.5 0
11372.5 0
11373.5 0
11374.5 0
11375.5 0
11376.5 0
11377.5 0
11378.5 0
11379.5 0
11380.5 0
11381.5 0
11382.5 0
11383.5 0
11384.5 0
11385.5 0
11386.5 0
11387.5 0
11388.5 0
11389.5 0
11390.5 0
11391.5 0
11392.5 0
11393.5 0
11394.5 0
11395.5 0
11396.5 0
11397.5 0
11398.5 0
11399.5 0
11400.5 0
11401.5 0
11402.5 0
11403.5 0
11404.5 0
11405.5 0
11406.5 0
11407.5 0
11408.5 0
11409.5 0
11410.5 0
11411.5 0
11412.5 0
11413.5 0
11414.5 0
11415.5 0
11416.5 0
11417.5 0
11418.5 0
11419.5 0
11420.5 0
11421.5 0
11422.5 0
11423.5 0
11424.5 0
11425.5 0
11426.5 0
11427.5 0
11428.5 0
11429.5 0
11430.5 0
11431.5 0
11432.5 0
11433.5 1
11434.5 0
11435.5 0
11436.5 0
11437.5 0
11438.5 0
11439.5 0
11440.5 0
11441.5 0
11442.5 0
11443.5 0
11444.5 0
11445.5 0
11446.5 0
11447.5 0
11448.5 0
11449.5 0
11450.5 0
11451.5 0
11452.5 0
11453.5 0
11454.5 0
11455.5 0
11456.5 0
11457.5 0
11458.5 0
11459.5 0
11460.5 0
11461.5 0
11462.5 0
11463.5 0
11464.5 0
11465.5 0
11466.5 0
11467.5 0
11468.5 0
11469.5 0
11470.5 0
11471.5 0
11472.5 0
11473.5 0
11474.5 0
11475.5 0
11476.5 0
11477.5 0
11478.5 0
11479.5 0
11480.5 0
11481.5 0
11482.5 0
11483.5 -1.28571
11484.5 0
11485.5 0
11486.5 0
11487.5 0
11488.5 0
11489.5 0
11490.5 0
11491.5 0
11492.5 0
11493.5 0
11494.5 0
11495.5 0
11496.5 0
11497.5 0
11498.5 0
11499.5 0
11500.5 0
11501.5 0
11502.5 0
11503.5 0
11504.5 0
11505.5 0
11506.5 0
11507.5 0
11508.5 0
11509.5 0
11510.5 0
11511.5 0
11512.5 0
11513.5 0
11514.5 0
11515.5 0
11516.5 0
11517.5 0
11518.5 0
11519.5 0
11520.5 0
11521.5 0
11522.5 0
11523.5 0
11524.5 0
11525.5 0
11526.5 0
11527.5 0
11528.5 1
11529.5 0
11530.5 0
11531.5 0
11532.5 0
11533.5 0
11534.5 0
11535.5 0
11536.5 0
11537.5 0
11538.5 1
11539.5 0
11540.5 0
11541.5 0
11542.5 0
11543.5 0
11544.5 0
11545.5 0
11546.5 0
11547.5 0
11548.5 0
11549.5 0
11550.5 0
11551.5 0
11552.5 0
11553.5 0
11554.5 0
11555.5 0
11556.5 0
11557.5 0
11558.5 0
11559.5 0
11560.5 0
11561.5 0
11562.5 0
11563.5 0
11564.5 0
11565.5 0
11566.5 0
11567.5 0
11568.5 0
11569.5 0
11570.5 0
11571.5 0
11572.5 -1.28571
11573.5 0
11574.5 0
11575.5 0
11576.5 0
11577.5 0
11578.5 0
11579.5 0
11580.5 0
11581.5 0
11582.5 0
11583.5 0
11584.5 0
11585.5 0
11586.5 0
11587.5 0
11588.5 0
11589.5 0
11590.5 0
11591.5 0
11592.5 0
11593.5 0
11594.5 0
11595.5 0
11596.5 0
11597.5 0
11598.5 0
11599.5 0
11600.5 0
11601.5 0
11602.5 0
11603.5 0
11604.5 0
11605.5 1
11606.5 0
11607.5 0
11608.5 0
11609.5 0
11610.5 0
11611.5 0
11612.5 0
11613.5 0
11614.5 0
11615.5 0
11616.5 0
11617.5 0
11618.5 0
11619.5 0
11620.5 0
11621.5 0
11622.5 0
11623.5 0
11624.5 0
11625.5 0
11626.5 0
11627.5 0
11628.5 0
11629.5 0
11630.5 0
11631.5 0
11632.5 0
11633.5 0
11634.5 0
11635.5 0
11636.5 0
11637.5 0
11638.5 0
11639.5 0
11640.5 0
11641.5 0
11642.5 0
11643.5 0
11644.5 0
11645.5 0
11646.5 0
11647.5 0
11648.5 0
11649.5 0
11650.5 0
11651.5 0
11652.5 0
11653.5 0
11654.5 0
11655.5 0
11656.5 1
11657.5 0
11658.5 0
11659.5 0
11660.5 0
11661.5 0
11662.5 0
11663.5 0
11664.5 0
11665.5 0
11666.5 0
11667.5 0
11668.5 0
11669.5 0
11670.5 0
11671.5 0
11672.5 0
11673.5 0
11674.5 0
11675.5 0
11676.5 0
11677.5 0
11678.5 0
11679.5 0
11680.5 0
11681.5 0
11682.5 0
11683.5 0
11684.5 0
11685.5 0
11686.5 0
11687.5 0
11688.5 0
11689.5 0
11690.5 0
11691.5 0
11692.5 0
11693.5 0
11694.5 0
11695.5 0
11696.5 0
11697.5 0
11698.5 0
11699.5 0
11700.5 0
11701.5 0
11702.5 0
11703.5 0
11704.5 0
11705.5 0
11706.5 0
11707.5 0
11708.5 0
11709.5 0
11710.5 0
11711.5 0
11712.5 0
11713.5 0
11714.5 0
11715.5 0
11716.5 0
11717.5 0
11718.5 0
11719.5 0
11720.5 0
11721.5 0
11722.5 0
11723.5 0
11724.5 0
11725.5 0
11726.5 0
11727.5 0
11728.5 0
11729.5 0
11730.5 0
11731.5 0
11732.5 0
11733.5 0
11734.5 0
11735.5 0
11736.5 0
11737.5 0
11738.5 0
11739.5 0
11740.5 0
11741.5 0
11742.5 0
11743.5 0
11744.5 0
11745.5 0
11746.5 0
11747.5 0
11748.5 0
11749.5 0
11750.5 0
11751.5 0
11752.5 0
11753.5 0
11754.5 0
11755.5 0
11756.5 0
11757.5 0
11758.5 0
11759.5 0
11760.5 0
11761.5 0
11762.5 0
11763.5 0
11764.5 0
11765.5 0
11766.5 0
11767.5 0
11768.5 0
11769.5 0
11770.5 0
11771.5 0
11772.5 0
11773.5 0
11774.5 0
11775.5 0
11776.5 0
11777.5 0
11778.5 0
11779.5 0
11780.5 0
11781.5 0
11782.5 0
11783.5 0
11784.5 0
11785.5 0
11786.5 0
11787.5 0
11788.5 0
11789.5 0
11790.5 0
11791.5 0
11792.5 0
11793.5 0
11794.5 0
11795.5 0
11796.5 0
11797.5 0
11798.5 0
11799.5 0
11800.5 0
11801.5 0
11802.5 0
11803.5 0
11804.5 0
11805.5 0
11806.5 0
11807.5 0
11808.5 0
11809.5 0
11810.5 0
11811.5 0
11812.5 0
11813.5 0
11814.5 0
11815.5 0
11816.5 0
11817.5 0
11818.5 0
11819.5 0
11820.5 0
11821.5 0
11822.5 0
11823.5 0
11824.5 0
11825.5 0
11826.5 0
11827.5 0
11828.5 0
11829.5 0
11830.5 0
11831.5 0
11832.5 0
11833.5 0
11834.5 0
11835.5 0
11836.5 0
11837.5 0
11838.5 0
11839.5 0
11840.5 0
11841.5 0
11842.5 0
11843.5 0
11844.5 0
11845.5 0
11846.5 0
11847.5 0
11848.5 0
11849.5 -1.28571
11850.5 0
11851.5 0
11852.5 0
11853.5 0
11854.5 0
11855.5 0
11856.5 0
11857.5 0
11858.5 0
11859.5 0
11860.5 0
11861.5 0
11862.5 0
11863.5 0
11864.5 0
11865.5 0
11866.5 0
11867.5 0
11868.5 0
11869.5 0
11870.5 0
11871.5 0
11872.5 0
11873.5 0
11874.5 0
11875.5 0
11876.5 0
11877.5 0
11878.5 0
11879.5 0
11880.5 0
11881.5 0
11882.5 0
11883.5 0
11884.5 0
11885.5 0
11886.5 0
11887.5 0
11888.5 0
11889.5 0
11890.5 0
11891.5 0
11892.5 0
11893.5 0
11894.5 0
11895.5 0
11896.5 0
11897.5 0
11898.5 0
11899.5 0
11900.5 0
11901.5 0
11902.5 0
11903.5 0
11904.5 0
11905.5 0
11906.5 0
11907.5 0
11908.5 0
11909.5 0
11910.5 0
11911.5 0
11912.5 0
11913.5 0
11914.5 0
11915.5 0
11916.5 0
11917.5 0
11918.5 0
11919.5 0
11920.5 0
11921.5 0
11922.5 0
11923.5 0
11924.5 0
11925.5 0
11926.5 0
11927.5 0
11928.5 0
11929.5 0
11930.5 0
11931.5 0
11932.5 0
11933.5 0
11934.5 0
11935.5 0
11936.5 0
11937.5 0
11938.5 0
11939.5 0
11940.5 0
11941.5 0
11942.5 0
11943.5 0
11944.5 0
11945.5 0
11946.5 0
11947.5 0
11948.5 0
11949.5 0
11950.5 0
11951.5 0
11952.5 0
11953.5 0
11954.5 0
11955.5 0
11956.5 0
11957.5 0
11958.5 0
11959.5 0
11960.5 0
11961.5 0
11962.5 0
11963.5 0
11964.5 0
11965.5 0
11966.5 0
11967.5 0
11968.5 0
11969.5 0
11970.5 0
11971.5 0
11972.5 0
11973.5 0
11974.5 0
11975.5 0
11976.5 0
11977.5 0
11978.5 0
11979.5 0
11980.5 0
11981.5 0
11982.5 0
11983.5 0
11984.5 0
11985.5 0
11986.5 0
11987.5 0
11988.5 0
11989.5 0
11990.5 0
11991.5 0
11992.5 0
11993.5 0
11994.5 0
11995.5 0
11996.5 0
11997.5 0
11998.5 0
11999.5 0
