# EGG_ProjY_E444.5(2.5)_B452.5(3.5)_B426.5(5.5)_B488.5(2.5)
# X axis : Energy (keV) [Y axis]
# Y axis : Counts/1 keV
# N Bins : 12000
# X Min : 0
# X Max : 12000
# X value at the center of the bins
0.5 0
1.5 0
2.5 0
3.5 0
4.5 0
5.5 -5.04346
6.5 35.1739
7.5 20.2609
8.5 -5.73911
9.5 -21.8695
10.5 2.52175
11.5 -6.30433
12.5 -28.9565
13.5 -70.6521
14.5 -56.1739
15.5 -161.913
16.5 -191.696
17.5 -300
18.5 -366.478
19.5 -374.696
20.5 -642.913
21.5 -762.913
22.5 -736.391
23.5 -743.956
24.5 -431.739
25.5 -414.217
26.5 -212.391
27.5 237
28.5 576.87
29.5 718.522
30.5 887.609
31.5 1040.13
32.5 1205.83
33.5 1266.44
34.5 1443.04
35.5 1431.17
36.5 1368.26
37.5 1533.7
38.5 1251
39.5 1030.44
40.5 937.87
41.5 482.522
42.5 163.566
43.5 258.653
44.5 -42.2168
45.5 57.8267
46.5 -355.912
47.5 -13.2603
48.5 -409.608
49.5 -475.652
50.5 -1062.13
51.5 -1213.04
52.5 -1688.65
53.5 -1983.87
54.5 -2139.35
55.5 -2424.78
56.5 -2894.61
57.5 -1851.43
58.5 -1238.22
59.5 -64.6078
60.5 2155.13
61.5 4044.87
62.5 7403.52
63.5 9962.52
64.5 13165.1
65.5 14493.3
66.5 14183.1
67.5 12760.4
68.5 9380.13
69.5 6170.22
70.5 3814.04
71.5 2012.09
72.5 829.566
73.5 314.696
74.5 339.088
75.5 -137.869
76.5 -261.086
77.5 -1179.74
78.5 -2767.56
79.5 -3801.26
80.5 -4258.83
81.5 -4748.22
82.5 -4976.48
83.5 -4503.87
84.5 -4500
85.5 -4440.35
86.5 -4080.3
87.5 -3487.13
88.5 -2778.17
89.5 -1763.04
90.5 -1373.56
91.5 -827.13
92.5 -195.999
93.5 -49.4342
94.5 153.914
95.5 268.914
96.5 170.261
97.5 442.175
98.5 367.131
99.5 572.044
100.5 597.305
101.5 431.175
102.5 116.044
103.5 600.566
104.5 443.348
105.5 299.175
106.5 149.348
107.5 419.653
108.5 243.566
109.5 553.783
110.5 580.349
111.5 871.479
112.5 581.566
113.5 429.566
114.5 890.392
115.5 573.522
116.5 867.696
117.5 751.175
118.5 790.218
119.5 672.87
120.5 396.827
121.5 410.827
122.5 627.001
123.5 564.088
124.5 577.088
125.5 612.436
126.5 808.088
127.5 599.349
128.5 317.783
129.5 522.175
130.5 192.653
131.5 455.87
132.5 369.131
133.5 243.523
134.5 292.001
135.5 901.87
136.5 1259.87
137.5 1960.26
138.5 2230
139.5 2244.7
140.5 1395.44
141.5 876.696
142.5 769.175
143.5 436.87
144.5 826.262
145.5 417.566
146.5 698.001
147.5 1066.96
148.5 1579.04
149.5 1497.83
150.5 1741.31
151.5 1621.78
152.5 1544.7
153.5 1042.74
154.5 259.349
155.5 389.783
156.5 17.4356
157.5 12.2617
158.5 207.436
159.5 61.1313
160.5 265.566
161.5 444.088
162.5 325.957
163.5 571.74
164.5 549.697
165.5 513.479
166.5 462.958
167.5 492.044
168.5 -151.825
169.5 221.349
170.5 531.436
171.5 86.9574
172.5 -196.043
173.5 -133.999
174.5 -369.346
175.5 -23.1293
176.5 236.74
177.5 855.088
178.5 564.957
179.5 107.523
180.5 746.479
181.5 1860
182.5 2666
183.5 3733.13
184.5 3940.39
185.5 3586.57
186.5 2399.87
187.5 1356.22
188.5 853.088
189.5 1059.78
190.5 1937.83
191.5 2419.26
192.5 2740.44
193.5 2765.44
194.5 2194.39
195.5 1292.17
196.5 467.131
197.5 -452.521
198.5 -603.564
199.5 -688.869
200.5 -510.564
201.5 -316.347
202.5 113.784
203.5 361.784
204.5 979.436
205.5 1612.7
206.5 1813.17
207.5 2065.44
208.5 2344
209.5 2301.09
210.5 2107.52
211.5 1828.74
212.5 1708.7
213.5 1535.7
214.5 441.827
215.5 581.088
216.5 579.957
217.5 821.957
218.5 1302.96
219.5 1526.44
220.5 1616.61
221.5 1226.57
222.5 1018.61
223.5 818.957
224.5 228.827
225.5 -431.782
226.5 -508.434
227.5 -169.521
228.5 -427.347
229.5 -218.738
230.5 138.131
231.5 124.61
232.5 -211.564
233.5 -245.521
234.5 259.436
235.5 -75.5209
236.5 418.914
237.5 217.349
238.5 652.218
239.5 558.696
240.5 449.392
241.5 655.914
242.5 869.827
243.5 669.175
244.5 532.653
245.5 664.566
246.5 661.522
247.5 656.566
248.5 434.696
249.5 588.783
250.5 811.392
251.5 634.349
252.5 650.392
253.5 571.218
254.5 570.914
255.5 679.088
256.5 528.479
257.5 853.74
258.5 705.566
259.5 601.827
260.5 900.305
261.5 618.914
262.5 781.088
263.5 586.262
264.5 1037.78
265.5 640.914
266.5 564.914
267.5 645.088
268.5 188.131
269.5 -62.608
270.5 -420.565
271.5 -1180.56
272.5 -1043.74
273.5 -781.782
274.5 -912.956
275.5 -224.13
276.5 135.262
277.5 515.435
278.5 403.435
279.5 901.957
280.5 964.827
281.5 982.088
282.5 876.131
283.5 1234.57
284.5 791.435
285.5 508.566
286.5 230.088
287.5 419.87
288.5 383.609
289.5 335.044
290.5 711.218
291.5 329.131
292.5 458.218
293.5 615.479
294.5 655.479
295.5 371.131
296.5 642.696
297.5 137.088
298.5 444.827
299.5 527.175
300.5 348.131
301.5 499.609
302.5 452.74
303.5 -73.6951
304.5 33.0006
305.5 -377.217
306.5 -960.608
307.5 -1208.83
308.5 -1325.04
309.5 -987.956
310.5 -417.13
311.5 -78.7385
312.5 638.696
313.5 2595.44
314.5 4785.44
315.5 6299.04
316.5 6426
317.5 6052.26
318.5 4766.74
319.5 2669.26
320.5 1176.48
321.5 507.392
322.5 401.566
323.5 468.261
324.5 362.001
325.5 468.783
326.5 361.435
327.5 89.0006
328.5 -193.912
329.5 -804.086
330.5 -971.782
331.5 -1229.39
332.5 -1235.7
333.5 -1354.3
334.5 -1188.3
335.5 -1244.13
336.5 -1268.22
337.5 -821.086
338.5 -787.521
339.5 -39.8255
340.5 300.653
341.5 993.218
342.5 1615.13
343.5 1086.57
344.5 1008.35
345.5 728.174
346.5 553.392
347.5 580.522
348.5 447.435
349.5 466.914
350.5 368.914
351.5 296.435
352.5 337.044
353.5 -106.043
354.5 119.435
355.5 6.82658
356.5 21.4788
357.5 213.261
358.5 168.044
359.5 666.696
360.5 1009.17
361.5 1061.17
362.5 1167.39
363.5 1373
364.5 716.87
365.5 702.174
366.5 504.218
367.5 487.392
368.5 699.001
369.5 442.131
370.5 545.392
371.5 334.957
372.5 644.435
373.5 378.566
374.5 259.522
375.5 112.305
376.5 -47.8691
377.5 -90.3908
378.5 40.3918
379.5 -143.434
380.5 -725.869
381.5 -256.26
382.5 -112.652
383.5 63.6961
384.5 72.7396
385.5 35.7831
386.5 302.305
387.5 76.87
388.5 199.827
389.5 75.6091
390.5 -44.6952
391.5 279.087
392.5 352.653
393.5 388.653
394.5 527.696
395.5 373
396.5 77.783
397.5 336.174
398.5 383.74
399.5 332.131
400.5 487.74
401.5 829.783
402.5 1181.26
403.5 2238.09
404.5 2292.78
405.5 947.522
406.5 377.348
407.5 323.087
408.5 343.174
409.5 57.4787
410.5 207.174
411.5 188.783
412.5 110.827
413.5 78.1743
414.5 -87.0865
415.5 -183.087
416.5 -212.391
417.5 -36.9996
418.5 -18.6083
419.5 407.74
420.5 408.261
421.5 879.305
422.5 1704.3
423.5 2030.3
424.5 1920.3
425.5 2082
426.5 1447.04
427.5 582.305
428.5 407.305
429.5 681.218
430.5 573.653
431.5 812.435
432.5 1187.91
433.5 1211.7
434.5 1027.39
435.5 851.566
436.5 650.044
437.5 -48.6518
438.5 -108.391
439.5 9.65259
440.5 -345.782
441.5 -236.782
442.5 111.131
443.5 -49.9561
444.5 142.174
445.5 -236.26
446.5 -239.217
447.5 -168.434
448.5 -93.9996
449.5 80.1308
450.5 260.913
451.5 254.435
452.5 385.522
453.5 157.826
454.5 199.131
455.5 388.826
456.5 456.435
457.5 88.3047
458.5 379.087
459.5 600.174
460.5 346.174
461.5 379.218
462.5 249.87
463.5 236.348
464.5 411.174
465.5 412.218
466.5 429.522
467.5 360.609
468.5 398.174
469.5 381.087
470.5 556.74
471.5 411.87
472.5 490.783
473.5 175.174
474.5 247.044
475.5 463.522
476.5 377.174
477.5 645.261
478.5 704.392
479.5 477.74
480.5 597.957
481.5 385.435
482.5 512.435
483.5 328.696
484.5 536.566
485.5 503.826
486.5 378.957
487.5 562
488.5 302.218
489.5 472.174
490.5 365.305
491.5 265.087
492.5 418.218
493.5 220.087
494.5 184.609
495.5 481.522
496.5 429.435
497.5 616.261
498.5 638.174
499.5 619.435
500.5 640.87
501.5 471.218
502.5 436.044
503.5 457.609
504.5 724.74
505.5 294.348
506.5 441.522
507.5 278.088
508.5 839.479
509.5 1173.39
510.5 1533.26
511.5 1494.48
512.5 1341.83
513.5 -91.7383
514.5 -51.3038
515.5 41.6526
516.5 526.957
517.5 319.348
518.5 587.653
519.5 713.087
520.5 835.305
521.5 1202.04
522.5 899.87
523.5 834.435
524.5 370.435
525.5 234.87
526.5 493.087
527.5 266.348
528.5 131.087
529.5 -68.0866
530.5 233.044
531.5 180.696
532.5 232.696
533.5 221.826
534.5 127.652
535.5 72.0438
536.5 223.218
537.5 220.566
538.5 588.566
539.5 529.479
540.5 388.305
541.5 375.087
542.5 186.826
543.5 77.6525
544.5 77.3481
545.5 -157.782
546.5 -319.826
547.5 -484.695
548.5 -146.869
549.5 -372.782
550.5 -470.043
551.5 -24.391
552.5 200.696
553.5 973.348
554.5 1953.74
555.5 2777.44
556.5 3098.96
557.5 3219.61
558.5 2851.39
559.5 1872
560.5 886.174
561.5 418.218
562.5 455.696
563.5 154.131
564.5 355.435
565.5 280.522
566.5 316.392
567.5 -80.6954
568.5 68.7829
569.5 -30.2606
570.5 -303.174
571.5 -607.608
572.5 -488.478
573.5 -564
574.5 -427.608
575.5 -405.608
576.5 -107.608
577.5 77.3047
578.5 158.392
579.5 464.652
580.5 767.609
581.5 470.957
582.5 317.392
583.5 -65.0429
584.5 -412.043
585.5 -481.043
586.5 -455.782
587.5 -356.261
588.5 -178.782
589.5 45.1307
590.5 115.392
591.5 124.305
592.5 116.957
593.5 246.348
594.5 69.3916
595.5 -116.217
596.5 -86.7388
597.5 132.826
598.5 -139.391
599.5 217.913
600.5 -4.78233
601.5 -50.1302
602.5 134.565
603.5 246.261
604.5 350.218
605.5 219.261
606.5 336.739
607.5 436.174
608.5 370.435
609.5 150.392
610.5 518.652
611.5 489.565
612.5 327.261
613.5 524.913
614.5 212.565
615.5 313.609
616.5 -82.9563
617.5 -299.043
618.5 -613.087
619.5 -643.739
620.5 -905.695
621.5 -589.087
622.5 -598.913
623.5 -282.652
624.5 -133.739
625.5 956.957
626.5 2138.48
627.5 3692.17
628.5 4176.04
629.5 4601.44
630.5 3971.78
631.5 2596.57
632.5 1111.35
633.5 -242.043
634.5 -1815.35
635.5 -2760.74
636.5 -3476.7
637.5 -3059.78
638.5 -2578.91
639.5 -1799.09
640.5 -993.956
641.5 -566.826
642.5 -644
643.5 -804.174
644.5 -856.304
645.5 -604
646.5 -741.261
647.5 -806.174
648.5 -506.608
649.5 -232.956
650.5 234.696
651.5 -3.65163
652.5 175.522
653.5 285.348
654.5 489.218
655.5 547.87
656.5 486
657.5 382.087
658.5 297.087
659.5 338.218
660.5 324.131
661.5 383.392
662.5 238.565
663.5 -524.434
664.5 -1611.3
665.5 -3122.3
666.5 -5184.22
667.5 -6381.39
668.5 -6971.48
669.5 -7009.09
670.5 -6243.48
671.5 -5237.35
672.5 -4557.17
673.5 -3942.17
674.5 -3698.7
675.5 -2670.22
676.5 -83.9997
677.5 4516.7
678.5 10737.6
679.5 16091.6
680.5 19190.6
681.5 19319.2
682.5 16547.9
683.5 10890
684.5 5467.04
685.5 2319.7
686.5 774.218
687.5 448.913
688.5 182.174
689.5 270.392
690.5 175.174
691.5 -271.435
692.5 -1057.56
693.5 -2363.78
694.5 -3586.87
695.5 -4353.26
696.5 -4582.61
697.5 -4967.61
698.5 -5565.22
699.5 -6824
700.5 -9020.48
701.5 -10550.3
702.5 -11384.8
703.5 -10834.7
704.5 -9456
705.5 -7411.65
706.5 -4682.56
707.5 120.218
708.5 8647.57
709.5 19664.3
710.5 28790
711.5 33417.8
712.5 33292.9
713.5 27358.2
714.5 17542.5
715.5 8567.87
716.5 3311.57
717.5 1144.91
718.5 552.174
719.5 425.652
720.5 306.957
721.5 85.3046
722.5 -633.652
723.5 -1987.26
724.5 -4455.39
725.5 -6670.35
726.5 -7728.13
727.5 -8665.17
728.5 -8652.65
729.5 -8729.26
730.5 -8923.56
731.5 -8864.17
732.5 -8748.3
733.5 -8167.35
734.5 -6729.35
735.5 -4167.35
736.5 -1648.04
737.5 -445.348
738.5 360.348
739.5 262.826
740.5 250.826
741.5 502.435
742.5 274.087
743.5 235.348
744.5 353.739
745.5 267.305
746.5 197.826
747.5 261.652
748.5 235
749.5 82.0437
750.5 332.305
751.5 228.565
752.5 327.174
753.5 145.392
754.5 219.826
755.5 203.696
756.5 407.218
757.5 157.565
758.5 273.565
759.5 347.783
760.5 816.392
761.5 875.914
762.5 600.827
763.5 261.522
764.5 120.522
765.5 316
766.5 301.783
767.5 239.739
768.5 322.609
769.5 177.392
770.5 106.044
771.5 199.044
772.5 128
773.5 265.435
774.5 271.348
775.5 312.261
776.5 164.522
777.5 362.913
778.5 330.435
779.5 184.826
780.5 448.522
781.5 285.174
782.5 483.957
783.5 391.087
784.5 438.739
785.5 362.957
786.5 278.609
787.5 434
788.5 223.261
789.5 438.565
790.5 427.565
791.5 283.826
792.5 303.957
793.5 298.044
794.5 343.696
795.5 253.783
796.5 276.174
797.5 447
798.5 371.087
799.5 287.522
800.5 251.826
801.5 285
802.5 288.131
803.5 109.261
804.5 223.087
805.5 340.652
806.5 343.566
807.5 359.348
808.5 261.652
809.5 129
810.5 128.609
811.5 367.87
812.5 321.348
813.5 419.174
814.5 617.739
815.5 635.913
816.5 594.783
817.5 769.609
818.5 468.044
819.5 433.087
820.5 341.305
821.5 200.305
822.5 351.565
823.5 195.218
824.5 339.348
825.5 179.305
826.5 201.261
827.5 25.8263
828.5 216.174
829.5 247
830.5 213.348
831.5 440.305
832.5 235.218
833.5 126.218
834.5 302.261
835.5 362.696
836.5 118.652
837.5 258.044
838.5 163.652
839.5 116.783
840.5 396.305
841.5 127.913
842.5 74.1307
843.5 268.348
844.5 275.913
845.5 260.044
846.5 429.087
847.5 545.392
848.5 526.261
849.5 550.826
850.5 546.565
851.5 534.783
852.5 291.696
853.5 243.261
854.5 333.348
855.5 223.305
856.5 190.957
857.5 248.087
858.5 210.435
859.5 73.348
860.5 301.044
861.5 275.261
862.5 289.739
863.5 266
864.5 238.218
865.5 347.435
866.5 221.261
867.5 255.392
868.5 191.827
869.5 250.261
870.5 527.087
871.5 305.305
872.5 237.913
873.5 312.348
874.5 135.652
875.5 402.652
876.5 404.696
877.5 313.435
878.5 422.913
879.5 397.522
880.5 488
881.5 316.522
882.5 295.174
883.5 165.913
884.5 190.131
885.5 294.957
886.5 375.174
887.5 383.087
888.5 234.696
889.5 291.826
890.5 245.044
891.5 248.392
892.5 225
893.5 263.87
894.5 264.609
895.5 358.174
896.5 365.565
897.5 279.696
898.5 266.087
899.5 213.044
900.5 346.305
901.5 234.044
902.5 420.783
903.5 359.392
904.5 290.348
905.5 354.218
906.5 235.522
907.5 215.739
908.5 456.783
909.5 603.305
910.5 346.522
911.5 297.783
912.5 396.174
913.5 328.261
914.5 350.218
915.5 361.218
916.5 344.392
917.5 300
918.5 488.044
919.5 349.87
920.5 392.348
921.5 417.826
922.5 308.696
923.5 356.826
924.5 364.087
925.5 421.739
926.5 258.305
927.5 449.478
928.5 355.739
929.5 559.392
930.5 289.739
931.5 430.261
932.5 301.739
933.5 478.218
934.5 371.218
935.5 334.696
936.5 362.218
937.5 476.392
938.5 125.392
939.5 451.305
940.5 337.696
941.5 402.565
942.5 477.131
943.5 392.131
944.5 607.522
945.5 466.174
946.5 419.392
947.5 281.392
948.5 262.87
949.5 305.044
950.5 348.305
951.5 358.261
952.5 410.783
953.5 213.174
954.5 234.218
955.5 98.0872
956.5 81.7393
957.5 236.218
958.5 193.87
959.5 110.913
960.5 8.8263
961.5 167.348
962.5 193.348
963.5 375.087
964.5 204.783
965.5 10.1307
966.5 79.696
967.5 239.565
968.5 312
969.5 225.348
970.5 313.218
971.5 223.913
972.5 293
973.5 251.391
974.5 252.218
975.5 252.131
976.5 142.348
977.5 -13.7824
978.5 99.6958
979.5 342.044
980.5 391.957
981.5 708.565
982.5 649.696
983.5 778.435
984.5 643.522
985.5 512.739
986.5 449.174
987.5 445.305
988.5 320.609
989.5 273.87
990.5 383.913
991.5 209.87
992.5 165.305
993.5 198.261
994.5 307.609
995.5 199.348
996.5 242.391
997.5 92.8697
998.5 140.392
999.5 297.261
1000.5 1507.74
1001.5 3335.18
1002.5 2905.35
1003.5 1145.44
1004.5 122.87
1005.5 116.478
1006.5 101.087
1007.5 -110.956
1008.5 -43.652
1009.5 -153.869
1010.5 -195.913
1011.5 -154.956
1012.5 201.696
1013.5 43.7393
1014.5 306.305
1015.5 210.218
1016.5 475.305
1017.5 183.087
1018.5 451.435
1019.5 206
1020.5 304.522
1021.5 57.5219
1022.5 141.87
1023.5 299.913
1024.5 470.479
1025.5 119.913
1026.5 118.609
1027.5 77.348
1028.5 160.391
1029.5 182.131
1030.5 26.8697
1031.5 87.6958
1032.5 155.391
1033.5 121.131
1034.5 236.131
1035.5 179
1036.5 146.435
1037.5 254.652
1038.5 183
1039.5 186.218
1040.5 200.435
1041.5 14.4349
1042.5 -122.913
1043.5 -64.8694
1044.5 -144.043
1045.5 -234.435
1046.5 -148.956
1047.5 11.0001
1048.5 75.3045
1049.5 59.2176
1050.5 351.305
1051.5 673
1052.5 1109.96
1053.5 1496.26
1054.5 1699.17
1055.5 1520.43
1056.5 1173.22
1057.5 733.174
1058.5 441.783
1059.5 104.174
1060.5 142.565
1061.5 33.7393
1062.5 220
1063.5 184.261
1064.5 198.131
1065.5 204.913
1066.5 -4.78247
1067.5 138.478
1068.5 -275.478
1069.5 -264.869
1070.5 -198.565
1071.5 -153.826
1072.5 68.0439
1073.5 115.262
1074.5 -174.825
1075.5 68.9572
1076.5 -103.478
1077.5 -112.652
1078.5 55.4784
1079.5 -2.69553
1080.5 32.8697
1081.5 151.739
1082.5 166.87
1083.5 -0.565097
1084.5 50.1306
1085.5 -116.087
1086.5 -36.1303
1087.5 -55.3042
1088.5 -51.0868
1089.5 21.3045
1090.5 54.7393
1091.5 270.174
1092.5 338.087
1093.5 684.522
1094.5 471.826
1095.5 328.783
1096.5 405.652
1097.5 411.609
1098.5 213.131
1099.5 202.913
1100.5 53.5653
1101.5 117.044
1102.5 199.044
1103.5 123.261
1104.5 172.87
1105.5 228.826
1106.5 73.8697
1107.5 133.609
1108.5 114.783
1109.5 36.6523
1110.5 -35.4781
1111.5 -20.7825
1112.5 93.3479
1113.5 21.7393
1114.5 128.435
1115.5 25.6088
1116.5 75.1306
1117.5 93.8262
1118.5 6.91317
1119.5 121.131
1120.5 190.826
1121.5 173.609
1122.5 347.913
1123.5 1019.57
1124.5 3662.83
1125.5 9928.31
1126.5 11341.9
1127.5 4755.44
1128.5 1368.3
1129.5 306.609
1130.5 268.522
1131.5 90.4349
1132.5 179.261
1133.5 201.044
1134.5 113.391
1135.5 115.348
1136.5 69.8262
1137.5 -35.6521
1138.5 -27.826
1139.5 17.174
1140.5 130.522
1141.5 45.261
1142.5 -37.1303
1143.5 -121.261
1144.5 -182.869
1145.5 -143.956
1146.5 -161.174
1147.5 -54.9564
1148.5 -94.2607
1149.5 19.5219
1150.5 70.4784
1151.5 63.5653
1152.5 202.218
1153.5 308.739
1154.5 1393.44
1155.5 5601.66
1156.5 10389.1
1157.5 12790.7
1158.5 5167.92
1159.5 804.914
1160.5 78.9567
1161.5 124.391
1162.5 47.4784
1163.5 -48.2607
1164.5 236.087
1165.5 42.1741
1166.5 28.5653
1167.5 75.7392
1168.5 -82.3043
1169.5 -55.4782
1170.5 -40.6956
1171.5 92.6957
1172.5 58.261
1173.5 37.261
1174.5 228.826
1175.5 15.174
1176.5 -66.3912
1177.5 10.8262
1178.5 -203
1179.5 -265.609
1180.5 -303.261
1181.5 -250.609
1182.5 137.609
1183.5 167.348
1184.5 543.131
1185.5 753.435
1186.5 1595.83
1187.5 2030.52
1188.5 2254.7
1189.5 2300.17
1190.5 1714.13
1191.5 998
1192.5 616.87
1193.5 265.391
1194.5 309.174
1195.5 378.783
1196.5 533.783
1197.5 386.044
1198.5 128.087
1199.5 13.6523
1200.5 64.5218
1201.5 -14.9999
1202.5 50.5218
1203.5 -65.7825
1204.5 -181.435
1205.5 -264.696
1206.5 -462.869
1207.5 -536.304
1208.5 -517.696
1209.5 -649.043
1210.5 -528.783
1211.5 -568.391
1212.5 -149.783
1213.5 -87.3477
1214.5 -35.1738
1215.5 -110.261
1216.5 -91.4782
1217.5 -68.4347
1218.5 -146.304
1219.5 -161.348
1220.5 -26.0434
1221.5 -48.6086
1222.5 -105.217
1223.5 -129.956
1224.5 -51.8695
1225.5 -32.4347
1226.5 -3.99989
1227.5 7.26098
1228.5 31.0871
1229.5 111.87
1230.5 93.087
1231.5 3.73921
1232.5 53.087
1233.5 -28.8695
1234.5 49.3479
1235.5 62.6523
1236.5 -45.5217
1237.5 95.3044
1238.5 -35.3043
1239.5 4.73921
1240.5 89.0001
1241.5 102.739
1242.5 57.6523
1243.5 123.174
1244.5 109.087
1245.5 99.5653
1246.5 0.304429
1247.5 -30.8695
1248.5 44.3914
1249.5 71.5653
1250.5 68.1305
1251.5 -9.69557
1252.5 49.4349
1253.5 39.8696
1254.5 82.1305
1255.5 64.2609
1256.5 -36.0434
1257.5 6.34791
1258.5 35.7392
1259.5 36.4784
1260.5 1.69577
1261.5 124.957
1262.5 49.7827
1263.5 50.5653
1264.5 306.913
1265.5 341
1266.5 286.478
1267.5 247.391
1268.5 240.261
1269.5 274.174
1270.5 -19.739
1271.5 77.8696
1272.5 22.8696
1273.5 50.6088
1274.5 13.3044
1275.5 -2.99991
1276.5 52.261
1277.5 191.391
1278.5 364.609
1279.5 475.913
1280.5 473.174
1281.5 582.696
1282.5 436.131
1283.5 313.565
1284.5 179.913
1285.5 49.0001
1286.5 -28.0434
1287.5 -100.783
1288.5 -226.522
1289.5 -193.913
1290.5 -104.13
1291.5 -60.7825
1292.5 -23.9129
1293.5 -71.6086
1294.5 -59.1738
1295.5 16.7392
1296.5 -69.7825
1297.5 -148.261
1298.5 -69.6521
1299.5 30.8262
1300.5 -25.3043
1301.5 -146.217
1302.5 -90.8695
1303.5 -46.3912
1304.5 13.0001
1305.5 47.2175
1306.5 103.609
1307.5 38.174
1308.5 128.783
1309.5 27.261
1310.5 104.957
1311.5 134.217
1312.5 45.1305
1313.5 63.3044
1314.5 18.8697
1315.5 53.9566
1316.5 13.5653
1317.5 -8.4347
1318.5 68.174
1319.5 99.6088
1320.5 32.5218
1321.5 13.7392
1322.5 -27.9999
1323.5 -33.3043
1324.5 9.86965
1325.5 -146.869
1326.5 127.696
1327.5 32.3914
1328.5 163.522
1329.5 137.783
1330.5 183.131
1331.5 458.217
1332.5 499.565
1333.5 605.739
1334.5 635.131
1335.5 471
1336.5 334.174
1337.5 393.826
1338.5 141.87
1339.5 78.3044
1340.5 3.26094
1341.5 100.783
1342.5 16.5653
1343.5 81.087
1344.5 37.3479
1345.5 90.4349
1346.5 -9.73905
1347.5 -56.6086
1348.5 -82.1738
1349.5 -19.5651
1350.5 -258.565
1351.5 -181.826
1352.5 -210.696
1353.5 -200.696
1354.5 -216.435
1355.5 -191.522
1356.5 -158.739
1357.5 -125.087
1358.5 -30.3043
1359.5 -55.0869
1360.5 68.3479
1361.5 91.0436
1362.5 109.348
1363.5 297.826
1364.5 398.478
1365.5 542.261
1366.5 483.652
1367.5 277.913
1368.5 149.435
1369.5 48.7392
1370.5 85.5653
1371.5 138.217
1372.5 -21.2173
1373.5 206.739
1374.5 161.565
1375.5 257.087
1376.5 81.7392
1377.5 111.087
1378.5 140.435
1379.5 125.609
1380.5 12.3479
1381.5 -219.174
1382.5 -173.522
1383.5 -164
1384.5 -130.217
1385.5 -36.6956
1386.5 -29.0868
1387.5 165.348
1388.5 -16.9999
1389.5 110.044
1390.5 70.0436
1391.5 -26.7825
1392.5 65.3479
1393.5 -36.3043
1394.5 -33.5651
1395.5 -108.261
1396.5 -67.9564
1397.5 -65.1738
1398.5 -86.826
1399.5 -104.217
1400.5 -10.3043
1401.5 78.8696
1402.5 110.217
1403.5 57.1305
1404.5 27.5653
1405.5 105.087
1406.5 7.9566
1407.5 -44.9999
1408.5 55.2609
1409.5 5.7392
1410.5 70.0436
1411.5 32.2175
1412.5 55.6957
1413.5 56.8262
1414.5 107.739
1415.5 -21.7825
1416.5 -19.3477
1417.5 -54.739
1418.5 -6.73904
1419.5 -123.217
1420.5 -120.391
1421.5 -47.6521
1422.5 -4.21731
1423.5 76.0436
1424.5 336.087
1425.5 429.696
1426.5 625.174
1427.5 1133.26
1428.5 1102.83
1429.5 673.392
1430.5 350.478
1431.5 22.9566
1432.5 -257.956
1433.5 -222.783
1434.5 -227.261
1435.5 -165.609
1436.5 -159.826
1437.5 -53.9999
1438.5 211.739
1439.5 753.348
1440.5 971.044
1441.5 1384.52
1442.5 1222.74
1443.5 1056.09
1444.5 623.044
1445.5 231.696
1446.5 -104.304
1447.5 -208.783
1448.5 -217.043
1449.5 -175
1450.5 -170
1451.5 -158.696
1452.5 -61.3477
1453.5 45.1305
1454.5 -245.304
1455.5 -127.217
1456.5 -261.783
1457.5 -303.956
1458.5 -431
1459.5 -387.435
1460.5 -380.652
1461.5 -499.522
1462.5 -385.261
1463.5 -307.609
1464.5 -140.869
1465.5 -214
1466.5 6.17399
1467.5 157.783
1468.5 84.4783
1469.5 22.4349
1470.5 -41.9999
1471.5 29.0436
1472.5 15.7392
1473.5 59.8696
1474.5 14.5653
1475.5 142.87
1476.5 150.304
1477.5 103.304
1478.5 100.826
1479.5 87.6957
1480.5 7.91312
1481.5 26.5218
1482.5 62.4783
1483.5 95.6957
1484.5 36.9566
1485.5 0.30442
1486.5 -18.2173
1487.5 -44.4782
1488.5 -34.8695
1489.5 -68.0434
1490.5 -221.696
1491.5 -25.826
1492.5 127.478
1493.5 188.652
1494.5 268.522
1495.5 432.522
1496.5 631.087
1497.5 620.261
1498.5 815.609
1499.5 740.827
1500.5 351.522
1501.5 153.391
1502.5 248.522
1503.5 89.087
1504.5 210.217
1505.5 187.783
1506.5 199.261
1507.5 199.087
1508.5 48.3914
1509.5 83.5218
1510.5 9.52183
1511.5 -22.5217
1512.5 -65.0434
1513.5 70.0001
1514.5 60.5653
1515.5 9.13051
1516.5 5.86965
1517.5 -17.6086
1518.5 -97.739
1519.5 -89.913
1520.5 -77.0869
1521.5 -15.2173
1522.5 -61.5217
1523.5 -73.4782
1524.5 -23.0869
1525.5 95.3914
1526.5 -77.0869
1527.5 -39.5217
1528.5 -83.5651
1529.5 -93.1304
1530.5 -80.0869
1531.5 -115.13
1532.5 -110.217
1533.5 59.5653
1534.5 -13.3043
1535.5 -13.2173
1536.5 115.87
1537.5 182.826
1538.5 75.7392
1539.5 147.131
1540.5 159.783
1541.5 205.131
1542.5 228.217
1543.5 17.4784
1544.5 -4.65209
1545.5 176.739
1546.5 149.696
1547.5 211.87
1548.5 225.217
1549.5 257.391
1550.5 350.739
1551.5 208.957
1552.5 195.261
1553.5 260.174
1554.5 235.044
1555.5 208.044
1556.5 190.957
1557.5 169.522
1558.5 135.348
1559.5 -4.73906
1560.5 67.9566
1561.5 1.7392
1562.5 0.304422
1563.5 91.1305
1564.5 25.0001
1565.5 78.6957
1566.5 150.522
1567.5 20.174
1568.5 -6.6521
1569.5 70.3914
1570.5 -105.348
1571.5 1.04355
1572.5 -106.522
1573.5 32.6522
1574.5 192.391
1575.5 507.174
1576.5 815.652
1577.5 787.913
1578.5 344.652
1579.5 -31.3912
1580.5 72.0001
1581.5 49.0435
1582.5 89.1305
1583.5 121.957
1584.5 129.304
1585.5 50.5653
1586.5 27.8696
1587.5 71.0001
1588.5 78.261
1589.5 -18.0434
1590.5 33.7392
1591.5 192.217
1592.5 21.174
1593.5 43.7827
1594.5 42.6957
1595.5 30.9566
1596.5 -19.7391
1597.5 48.2175
1598.5 -17.9565
1599.5 11.4783
1600.5 -44.4347
1601.5 71.3914
1602.5 48.2609
1603.5 43.0436
1604.5 -45.6086
1605.5 30.0435
1606.5 156.087
1607.5 78.174
1608.5 102.652
1609.5 34.7827
1610.5 82.9131
1611.5 60.2609
1612.5 125.435
1613.5 -26.3912
1614.5 82.6522
1615.5 -17.3912
1616.5 34.2609
1617.5 -0.478194
1618.5 28.087
1619.5 -53.6956
1620.5 52.4349
1621.5 101.174
1622.5 -18.826
1623.5 80.1305
1624.5 101.652
1625.5 81.7827
1626.5 -40.5651
1627.5 50.0435
1628.5 143.261
1629.5 174.087
1630.5 72.8262
1631.5 62.0436
1632.5 137.696
1633.5 97.2175
1634.5 107.478
1635.5 -33.4347
1636.5 29.6957
1637.5 -14.913
1638.5 88.3479
1639.5 97.3045
1640.5 258
1641.5 237.522
1642.5 57.9131
1643.5 252.261
1644.5 229.174
1645.5 199.609
1646.5 116.783
1647.5 86.7828
1648.5 87.0002
1649.5 59.7827
1650.5 -10.5651
1651.5 131.87
1652.5 74.0435
1653.5 93.0435
1654.5 50.4783
1655.5 28.0435
1656.5 99.6957
1657.5 12.5218
1658.5 -104.609
1659.5 -118.13
1660.5 -239.652
1661.5 -269.565
1662.5 -251.13
1663.5 -129.609
1664.5 -87.0869
1665.5 -30.826
1666.5 114.652
1667.5 16.7392
1668.5 52.5653
1669.5 42.2175
1670.5 73.6957
1671.5 -89.3912
1672.5 -39.4782
1673.5 50.174
1674.5 49.0435
1675.5 1.86963
1676.5 -25.6521
1677.5 54.0001
1678.5 -5.82602
1679.5 -5.73907
1680.5 36.2609
1681.5 -31.0869
1682.5 24.9131
1683.5 57.9566
1684.5 -41.4347
1685.5 54.8262
1686.5 -18.8695
1687.5 90.2175
1688.5 -97.4782
1689.5 -41.3912
1690.5 -118.522
1691.5 -131.043
1692.5 -29.0434
1693.5 -164
1694.5 -82.7391
1695.5 -77.7391
1696.5 -15.6086
1697.5 13.8262
1698.5 151.565
1699.5 267.522
1700.5 376.348
1701.5 475.348
1702.5 895.391
1703.5 1348.17
1704.5 1443.39
1705.5 1499.65
1706.5 1381.09
1707.5 1125.3
1708.5 635.478
1709.5 352.696
1710.5 48.4349
1711.5 -106
1712.5 -160.913
1713.5 -108.956
1714.5 -61.0869
1715.5 -95.3912
1716.5 -143.261
1717.5 -184.304
1718.5 -261.391
1719.5 -428.739
1720.5 -337.956
1721.5 -583.913
1722.5 -432.696
1723.5 -431.13
1724.5 -550.087
1725.5 -348
1726.5 -197.869
1727.5 -334.739
1728.5 -126.087
1729.5 -123.652
1730.5 -271.739
1731.5 -464.261
1732.5 -581.087
1733.5 -895.087
1734.5 -755.869
1735.5 -686.956
1736.5 -515.348
1737.5 -192.304
1738.5 -42.5652
1739.5 161.652
1740.5 200.348
1741.5 63.9131
1742.5 55.174
1743.5 68.0001
1744.5 38.5653
1745.5 15.0435
1746.5 25.3914
1747.5 -40.6521
1748.5 50.6522
1749.5 17.087
1750.5 149.261
1751.5 200
1752.5 342.391
1753.5 339.435
1754.5 455.826
1755.5 442.435
1756.5 450.957
1757.5 284.696
1758.5 121.957
1759.5 110.696
1760.5 -93.6086
1761.5 18.6088
1762.5 59.3479
1763.5 -116.783
1764.5 -125.696
1765.5 -352.087
1766.5 -473.478
1767.5 -855.174
1768.5 -1042.74
1769.5 -1174.48
1770.5 -1177.22
1771.5 -994
1772.5 -761.087
1773.5 -114.913
1774.5 1146.39
1775.5 2614.87
1776.5 4117.3
1777.5 4725.57
1778.5 4784.91
1779.5 4018.26
1780.5 2818.87
1781.5 1515.43
1782.5 702.783
1783.5 172.478
1784.5 70.6088
1785.5 152.435
1786.5 39.5653
1787.5 -43.5217
1788.5 -141.217
1789.5 -379.609
1790.5 -686.696
1791.5 -963.522
1792.5 -1234.83
1793.5 -1308.52
1794.5 -1186.39
1795.5 -1258.09
1796.5 -1312.83
1797.5 -1228.61
1798.5 -1225.09
1799.5 -1161.26
1800.5 -883.174
1801.5 -662.739
1802.5 -395.435
1803.5 26.174
1804.5 115.435
1805.5 39.8261
1806.5 71.2175
1807.5 136.522
1808.5 154.217
1809.5 133.565
1810.5 162.522
1811.5 0.217455
1812.5 10.3044
1813.5 108.044
1814.5 -5.30429
1815.5 -47.6521
1816.5 109.609
1817.5 52.5218
1818.5 -80.0434
1819.5 89.5218
1820.5 26.6957
1821.5 -13.2173
1822.5 -31.3478
1823.5 72.8262
1824.5 -41.5217
1825.5 18.7392
1826.5 -28.9999
1827.5 37.2174
1828.5 38.9131
1829.5 42.4348
1830.5 11.087
1831.5 99.9131
1832.5 96.4783
1833.5 71.0435
1834.5 70.9566
1835.5 114
1836.5 155
1837.5 66.1305
1838.5 137.957
1839.5 34.087
1840.5 13.2174
1841.5 2.86962
1842.5 5.00007
1843.5 15.8262
1844.5 -49.1738
1845.5 1.73919
1846.5 13.3479
1847.5 52.8261
1848.5 -20.8695
1849.5 159.913
1850.5 109.478
1851.5 124.609
1852.5 189
1853.5 342.739
1854.5 229.174
1855.5 199
1856.5 217.478
1857.5 145.044
1858.5 149.217
1859.5 50.4349
1860.5 27.7392
1861.5 97.5653
1862.5 -36.4782
1863.5 6.26093
1864.5 -0.565162
1865.5 29.2174
1866.5 19.3044
1867.5 -8.86951
1868.5 53.087
1869.5 -34.3478
1870.5 73.5653
1871.5 -24.6955
1872.5 -12.0432
1873.5 -128.261
1874.5 -65.5651
1875.5 -87.9565
1876.5 -105.739
1877.5 61.6957
1878.5 19.087
1879.5 42.0001
1880.5 14.7392
1881.5 7.60875
1882.5 54.5218
1883.5 18.3479
1884.5 47.7392
1885.5 25.6524
1886.5 257.652
1887.5 -3.39096
1888.5 308.783
1889.5 193
1890.5 69.3914
1891.5 4.78266
1892.5 -22.5652
1893.5 37.174
1894.5 43.174
1895.5 35.087
1896.5 96.4348
1897.5 53.0001
1898.5 145.13
1899.5 24.2609
1900.5 111.478
1901.5 74.0435
1902.5 37.087
1903.5 54.8696
1904.5 23.2174
1905.5 23.7392
1906.5 0.217443
1907.5 11.2609
1908.5 36.2609
1909.5 112
1910.5 30.9131
1911.5 72.8262
1912.5 -14.0869
1913.5 32.8696
1914.5 31.8696
1915.5 155.565
1916.5 -23.1739
1917.5 71.9131
1918.5 18.6522
1919.5 -1.0869
1920.5 112.913
1921.5 112.913
1922.5 22.1305
1923.5 106.826
1924.5 -60.8695
1925.5 -11.9999
1926.5 41.9566
1927.5 76.2609
1928.5 125.957
1929.5 200.261
1930.5 509.739
1931.5 402.957
1932.5 249.565
1933.5 171.522
1934.5 156.435
1935.5 52.9566
1936.5 58.0435
1937.5 -16.3043
1938.5 120.565
1939.5 -18.4347
1940.5 6.9566
1941.5 -41.0869
1942.5 -103.087
1943.5 90.0001
1944.5 -16.1738
1945.5 -2.0869
1946.5 88.1305
1947.5 8.73919
1948.5 70.7392
1949.5 8.52181
1950.5 35.8696
1951.5 8.43486
1952.5 18.4783
1953.5 58.6522
1954.5 63.9131
1955.5 2.17396
1956.5 -15.8695
1957.5 -10.4347
1958.5 44.0001
1959.5 105.391
1960.5 101.783
1961.5 -72.8695
1962.5 43.8696
1963.5 45.3914
1964.5 17.3914
1965.5 23.174
1966.5 26.7392
1967.5 102.304
1968.5 35.3044
1969.5 45.6522
1970.5 147.565
1971.5 43.3914
1972.5 68.7827
1973.5 153.957
1974.5 12.9131
1975.5 10.0001
1976.5 -41.9565
1977.5 -23.2608
1978.5 30.174
1979.5 56.1305
1980.5 87.174
1981.5 158.913
1982.5 198.609
1983.5 266.217
1984.5 280.913
1985.5 118.696
1986.5 133
1987.5 185.913
1988.5 224.174
1989.5 111.391
1990.5 181.522
1991.5 128.087
1992.5 98.4349
1993.5 85.5218
1994.5 66.7392
1995.5 93.3044
1996.5 100.478
1997.5 -29.2173
1998.5 126.087
1999.5 60.6088
2000.5 76.5218
2001.5 138.217
2002.5 117.044
2003.5 132.304
2004.5 147.913
2005.5 -11.7826
2006.5 -40.7826
2007.5 -125.609
2008.5 -90.1304
2009.5 15.0435
2010.5 10.7392
2011.5 -22.0869
2012.5 -42.0869
2013.5 6.86962
2014.5 47.0001
2015.5 7.21745
2016.5 -12.3912
2017.5 46.2609
2018.5 -35.9999
2019.5 32.3044
2020.5 29.0435
2021.5 16.4348
2022.5 20.7827
2023.5 139.957
2024.5 102.565
2025.5 92.3914
2026.5 117.565
2027.5 -103.304
2028.5 5.13049
2029.5 109.217
2030.5 24.9566
2031.5 66.7827
2032.5 -3.21734
2033.5 120.522
2034.5 20.5218
2035.5 -25
2036.5 11.3479
2037.5 37.9131
2038.5 -38.826
2039.5 -111.609
2040.5 -68.6521
2041.5 -12.913
2042.5 6.73918
2043.5 16.9566
2044.5 -24.0434
2045.5 92.6522
2046.5 63
2047.5 -3.21734
2048.5 44.5218
2049.5 107.696
2050.5 51.7392
2051.5 151.957
2052.5 77.4348
2053.5 60.8262
2054.5 67.7392
2055.5 59.7827
2056.5 47.6957
2057.5 52.3044
2058.5 73.4783
2059.5 97.5218
2060.5 35.3479
2061.5 80.6522
2062.5 90.0435
2063.5 15.0435
2064.5 7.00005
2065.5 -13.3043
2066.5 -5.43473
2067.5 64.7392
2068.5 27.8696
2069.5 150.174
2070.5 90.5653
2071.5 208.304
2072.5 379.13
2073.5 411.696
2074.5 382
2075.5 308.696
2076.5 182.044
2077.5 43.2609
2078.5 -5.65212
2079.5 134.044
2080.5 104.044
2081.5 149.261
2082.5 208.435
2083.5 149.652
2084.5 169.348
2085.5 43.8696
2086.5 97.3479
2087.5 40.9566
2088.5 -32.5651
2089.5 -29.7825
2090.5 -174.13
2091.5 -23.9565
2092.5 -18.6086
2093.5 -10.1304
2094.5 -51.1304
2095.5 13.3044
2096.5 -30.0434
2097.5 -48.3043
2098.5 -14.6086
2099.5 -60.4782
2100.5 -30.2608
2101.5 -28.9999
2102.5 48.4348
2103.5 39.2174
2104.5 -33.3913
2105.5 127.217
2106.5 15.1305
2107.5 44.3479
2108.5 45.7827
2109.5 -6.73908
2110.5 67.174
2111.5 21.3914
2112.5 -16.7391
2113.5 -61.5217
2114.5 11.7827
2115.5 55.2174
2116.5 -90.5652
2117.5 30.2174
2118.5 38.9131
2119.5 125.565
2120.5 26.2609
2121.5 6.17396
2122.5 7.47831
2123.5 -31.6956
2124.5 11.0435
2125.5 -79.6086
2126.5 -11.826
2127.5 -63.1304
2128.5 -47
2129.5 -5.99995
2130.5 16.5653
2131.5 35.0435
2132.5 130.522
2133.5 56.2174
2134.5 135.652
2135.5 74
2136.5 53.3479
2137.5 30.9566
2138.5 126.913
2139.5 91.6957
2140.5 61.5218
2141.5 48.2175
2142.5 -46.9999
2143.5 30.7392
2144.5 84.261
2145.5 183.913
2146.5 72.8696
2147.5 116.87
2148.5 222.609
2149.5 210.435
2150.5 368.913
2151.5 241.652
2152.5 91.7393
2153.5 77.1305
2154.5 66.8261
2155.5 -31.913
2156.5 15.6522
2157.5 76.8696
2158.5 23.5218
2159.5 110.087
2160.5 98.087
2161.5 5.39135
2162.5 58.6087
2163.5 14.3479
2164.5 60.087
2165.5 -5.43473
2166.5 40.3044
2167.5 25.7827
2168.5 144.044
2169.5 140.739
2170.5 133.522
2171.5 218.609
2172.5 371.13
2173.5 331.304
2174.5 342.609
2175.5 273.217
2176.5 211.913
2177.5 129.304
2178.5 90.7392
2179.5 -4.60863
2180.5 -8.52169
2181.5 66.6957
2182.5 -34.826
2183.5 10.4783
2184.5 5.26093
2185.5 -124
2186.5 -123.13
2187.5 -80.3478
2188.5 18.6522
2189.5 -17.8695
2190.5 28.3044
2191.5 55.2609
2192.5 -60.1738
2193.5 -52.4782
2194.5 14.0001
2195.5 -7.60864
2196.5 50.8261
2197.5 -14.3912
2198.5 31.8697
2199.5 119.565
2200.5 33.2175
2201.5 -28.6521
2202.5 -21.4782
2203.5 43.6522
2204.5 49
2205.5 54.087
2206.5 141.696
2207.5 126.957
2208.5 161.913
2209.5 138.304
2210.5 148.826
2211.5 137.13
2212.5 76.7827
2213.5 102.478
2214.5 49.0001
2215.5 49.1305
2216.5 14.9566
2217.5 -15.1739
2218.5 87.6522
2219.5 4.17396
2220.5 71.4348
2221.5 106.217
2222.5 126.565
2223.5 10.4349
2224.5 125.565
2225.5 -18.6956
2226.5 -10.5217
2227.5 49.5218
2228.5 16.8261
2229.5 -18.9999
2230.5 46.6957
2231.5 -73.9565
2232.5 -56.0434
2233.5 -161.435
2234.5 -31.7391
2235.5 -72
2236.5 49.3479
2237.5 47.7392
2238.5 72.2609
2239.5 185.609
2240.5 108.261
2241.5 22.3914
2242.5 128.913
2243.5 151.217
2244.5 165.87
2245.5 95.3914
2246.5 67.7392
2247.5 52.1305
2248.5 59.0435
2249.5 -96.5652
2250.5 6.56527
2251.5 -58.1739
2252.5 91.7392
2253.5 40.9131
2254.5 -131.435
2255.5 78.5218
2256.5 44
2257.5 -59.9565
2258.5 68.6522
2259.5 -2.04343
2260.5 33
2261.5 -90.6087
2262.5 -30.5652
2263.5 -36.6956
2264.5 -83
2265.5 16.7827
2266.5 -61.2173
2267.5 -33
2268.5 -54.1739
2269.5 -6.78256
2270.5 10
2271.5 54.2609
2272.5 66.8696
2273.5 148.304
2274.5 312.826
2275.5 399.217
2276.5 480.565
2277.5 436.696
2278.5 404.609
2279.5 277.087
2280.5 283.217
2281.5 143.522
2282.5 197.652
2283.5 122
2284.5 132.696
2285.5 119.217
2286.5 90.5653
2287.5 94.2174
2288.5 67.9566
2289.5 -82.6956
2290.5 -83.3913
2291.5 -165.435
2292.5 -99.0869
2293.5 -6.60865
2294.5 -123.956
2295.5 -175.478
2296.5 -67.0869
2297.5 -32.1738
2298.5 -14.7825
2299.5 5.60877
2300.5 -16.9564
2301.5 82.087
2302.5 1.60876
2303.5 80.6957
2304.5 -13.6086
2305.5 46.6087
2306.5 110.435
2307.5 -20.8695
2308.5 124.826
2309.5 113.435
2310.5 79.2609
2311.5 96.087
2312.5 32.3913
2313.5 65.9566
2314.5 4.86961
2315.5 109.304
2316.5 52
2317.5 -25.1304
2318.5 55.6087
2319.5 7.30439
2320.5 80
2321.5 71.087
2322.5 -28.3913
2323.5 3.13048
2324.5 5.087
2325.5 48.1305
2326.5 -4.47822
2327.5 -14.3913
2328.5 -5.47822
2329.5 30.2174
2330.5 8.17396
2331.5 53.174
2332.5 1.00005
2333.5 16.4348
2334.5 -32.6086
2335.5 60.5218
2336.5 67.9566
2337.5 112.478
2338.5 41.4348
2339.5 61.7392
2340.5 65.3044
2341.5 6.17396
2342.5 -17.3478
2343.5 144.261
2344.5 55.3479
2345.5 56.5218
2346.5 49.9131
2347.5 59.2174
2348.5 14.3479
2349.5 7.6957
2350.5 91.3044
2351.5 91.6522
2352.5 90.5653
2353.5 96.4783
2354.5 70.3479
2355.5 -15.6956
2356.5 19.087
2357.5 -24.1739
2358.5 -32.3478
2359.5 -51.4347
2360.5 83.0435
2361.5 69.3044
2362.5 41.7392
2363.5 -13.6086
2364.5 52.2174
2365.5 101.044
2366.5 68.5653
2367.5 75.3044
2368.5 84
2369.5 138.304
2370.5 60.087
2371.5 73.3913
2372.5 66.0435
2373.5 41.6522
2374.5 -22.6956
2375.5 17.174
2376.5 44.4783
2377.5 60.7827
2378.5 37.2609
2379.5 2.95657
2380.5 128.087
2381.5 77.6957
2382.5 32.1305
2383.5 14.9566
2384.5 118.522
2385.5 29.7827
2386.5 36.7826
2387.5 -39.0434
2388.5 6.21743
2389.5 -115.217
2390.5 -58.5652
2391.5 -48.8695
2392.5 -65.1739
2393.5 -33.5652
2394.5 -40.913
2395.5 14.8261
2396.5 79.087
2397.5 174.217
2398.5 262.957
2399.5 333.304
2400.5 331.348
2401.5 383.391
2402.5 384.957
2403.5 216.044
2404.5 224.391
2405.5 225.13
2406.5 85.5653
2407.5 40.3479
2408.5 88
2409.5 109.87
2410.5 33.087
2411.5 86.6087
2412.5 -3.73909
2413.5 -16.4347
2414.5 33.4783
2415.5 63.087
2416.5 -55.2608
2417.5 19.9131
2418.5 32.0435
2419.5 -4.52169
2420.5 3.60874
2421.5 -52.2173
2422.5 -54.4347
2423.5 -84.4782
2424.5 -31.6087
2425.5 11.6957
2426.5 -15.2173
2427.5 -65.1304
2428.5 69.4783
2429.5 81.2609
2430.5 45.7392
2431.5 119.652
2432.5 -34.4782
2433.5 10.3479
2434.5 34.9131
2435.5 -59.8695
2436.5 -16.8695
2437.5 40.3479
2438.5 5.56526
2439.5 46.8696
2440.5 9.91308
2441.5 -7.47822
2442.5 60.2609
2443.5 9.4783
2444.5 66.8261
2445.5 139.044
2446.5 190.609
2447.5 78.5218
2448.5 68.3479
2449.5 70.7392
2450.5 109.261
2451.5 88.7392
2452.5 78.6522
2453.5 57.7826
2454.5 -29.7391
2455.5 -54.4782
2456.5 -113
2457.5 -69.4347
2458.5 -36.5652
2459.5 -85.3913
2460.5 -24.3913
2461.5 -78.2174
2462.5 -8.39126
2463.5 -38.5652
2464.5 36.0435
2465.5 40.4348
2466.5 4.56526
2467.5 28.087
2468.5 66.3044
2469.5 8.26092
2470.5 166.217
2471.5 89.4348
2472.5 82.5218
2473.5 73
2474.5 113.13
2475.5 102.87
2476.5 62.4783
2477.5 100.044
2478.5 77.3913
2479.5 44.2609
2480.5 -0.608656
2481.5 10.1305
2482.5 141.696
2483.5 22.3479
2484.5 21.3044
2485.5 36.2609
2486.5 -18.9565
2487.5 -21.2608
2488.5 3.95657
2489.5 -6.04343
2490.5 28.5653
2491.5 112.044
2492.5 -7.43473
2493.5 57.0001
2494.5 91.3044
2495.5 57.3479
2496.5 71.087
2497.5 118.913
2498.5 354.13
2499.5 442.957
2500.5 689
2501.5 801.522
2502.5 774.478
2503.5 614.478
2504.5 464
2505.5 193.217
2506.5 154.087
2507.5 71.5218
2508.5 107.261
2509.5 64.7827
2510.5 54.3479
2511.5 45.4348
2512.5 77.3044
2513.5 31.7827
2514.5 13.0435
2515.5 -110.217
2516.5 -193.565
2517.5 -233.913
2518.5 -240.435
2519.5 -240.782
2520.5 -212.348
2521.5 -243.913
2522.5 -174.261
2523.5 -173.043
2524.5 -135.826
2525.5 -92.2173
2526.5 -58.0434
2527.5 -10.6086
2528.5 35.5218
2529.5 -1.8695
2530.5 51.2609
2531.5 7.04352
2532.5 -6.26083
2533.5 67.5653
2534.5 30.8261
2535.5 4.13047
2536.5 110.565
2537.5 83.3044
2538.5 23.6087
2539.5 66.9131
2540.5 36.174
2541.5 56.3044
2542.5 30.5653
2543.5 -69
2544.5 47.6957
2545.5 27.087
2546.5 -13
2547.5 36.8696
2548.5 -91.0869
2549.5 -60.3913
2550.5 -53.0434
2551.5 -50.6521
2552.5 -36.8695
2553.5 0.913085
2554.5 -45.2174
2555.5 16.5218
2556.5 116
2557.5 49.4348
2558.5 129.304
2559.5 162.609
2560.5 103.913
2561.5 183.044
2562.5 195.044
2563.5 118.304
2564.5 39.8696
2565.5 52.6957
2566.5 -23.6521
2567.5 98.5218
2568.5 129.739
2569.5 113.044
2570.5 63.5653
2571.5 79.9566
2572.5 85.5653
2573.5 48.2174
2574.5 -2.43474
2575.5 28.9131
2576.5 -5.65213
2577.5 -44.3043
2578.5 -2.52169
2579.5 -34.3478
2580.5 -33.1304
2581.5 -0.608644
2582.5 -67.1739
2583.5 -86.0434
2584.5 -5.60865
2585.5 -53.8695
2586.5 38.3913
2587.5 48.4783
2588.5 99.6087
2589.5 183.261
2590.5 189.652
2591.5 305.044
2592.5 411.217
2593.5 363.261
2594.5 311.217
2595.5 222
2596.5 156.87
2597.5 91.7392
2598.5 72.3479
2599.5 28.087
2600.5 -71.6956
2601.5 119.174
2602.5 288.87
2603.5 534.696
2604.5 808.652
2605.5 956.13
2606.5 765.957
2607.5 357.174
2608.5 49.7392
2609.5 65.7392
2610.5 -30.5652
2611.5 17.8261
2612.5 -136.783
2613.5 -9.65213
2614.5 -16.4782
2615.5 -46
2616.5 -22.6086
2617.5 -4.73907
2618.5 -30.2608
2619.5 100.826
2620.5 -10.4782
2621.5 27.6522
2622.5 37.4348
2623.5 -33.3913
2624.5 -14.5217
2625.5 -69.6521
2626.5 -22.6087
2627.5 50.7826
2628.5 1.30439
2629.5 63.3913
2630.5 47.0435
2631.5 75.3913
2632.5 61.174
2633.5 150.044
2634.5 46.6522
2635.5 33.9566
2636.5 17.3479
2637.5 43.9566
2638.5 124.739
2639.5 126.478
2640.5 32.7392
2641.5 31.0435
2642.5 104.826
2643.5 63.8261
2644.5 35.6522
2645.5 0.869604
2646.5 -25.6956
2647.5 76
2648.5 42.2174
2649.5 13.6957
2650.5 77.6522
2651.5 55.7392
2652.5 162.522
2653.5 50.8696
2654.5 88.174
2655.5 65.6957
2656.5 95.7392
2657.5 66.3044
2658.5 127.783
2659.5 -46.4347
2660.5 18.4783
2661.5 -1.5217
2662.5 -22.3478
2663.5 93.3913
2664.5 85.9131
2665.5 99.5653
2666.5 41.2174
2667.5 39.3479
2668.5 154.044
2669.5 140.826
2670.5 115.652
2671.5 80.174
2672.5 36.2174
2673.5 80.174
2674.5 91.9131
2675.5 62.6087
2676.5 84
2677.5 12.8696
2678.5 64.087
2679.5 15.7392
2680.5 29.3044
2681.5 8.26092
2682.5 -52.8695
2683.5 -22.5652
2684.5 -56.3043
2685.5 -122.565
2686.5 45.4348
2687.5 -42.826
2688.5 30.2174
2689.5 -32.5217
2690.5 24.8696
2691.5 49.3913
2692.5 -15.0434
2693.5 16.1305
2694.5 17.7392
2695.5 21.9131
2696.5 -22.8695
2697.5 3.56525
2698.5 128.391
2699.5 28.3913
2700.5 46.087
2701.5 32.6087
2702.5 133.609
2703.5 144.87
2704.5 103.565
2705.5 73.087
2706.5 16.174
2707.5 114.565
2708.5 58.6522
2709.5 10.5218
2710.5 71.087
2711.5 76.1305
2712.5 10.6957
2713.5 14.7826
2714.5 23.5653
2715.5 97.5653
2716.5 12.0435
2717.5 -6.21735
2718.5 16.174
2719.5 -12.9999
2720.5 -57.2173
2721.5 -82.1303
2722.5 26.0871
2723.5 -2.13033
2724.5 -23.7391
2725.5 5.13048
2726.5 78.3913
2727.5 89.087
2728.5 121.304
2729.5 60.2609
2730.5 98.5653
2731.5 161.087
2732.5 21.6522
2733.5 92.2174
2734.5 48.087
2735.5 -21.9565
2736.5 50.1305
2737.5 80.7826
2738.5 47.4348
2739.5 81.2609
2740.5 118.174
2741.5 48.1305
2742.5 28.8696
2743.5 -18.2173
2744.5 -48.4782
2745.5 -9.26082
2746.5 92.5218
2747.5 -88.3913
2748.5 50.9566
2749.5 -26.7391
2750.5 42.6087
2751.5 49.9566
2752.5 81.2609
2753.5 107.261
2754.5 121.652
2755.5 144.174
2756.5 219.739
2757.5 119.739
2758.5 171.913
2759.5 101.87
2760.5 131.435
2761.5 62.4348
2762.5 62.7392
2763.5 83.4783
2764.5 46.8261
2765.5 46.4348
2766.5 49.2609
2767.5 22.2174
2768.5 31.0435
2769.5 -41.4782
2770.5 -67.3478
2771.5 110.13
2772.5 33.6087
2773.5 -28.6521
2774.5 32.0435
2775.5 12.8261
2776.5 -50.3478
2777.5 -46.0869
2778.5 12.6522
2779.5 32.6957
2780.5 -45.9565
2781.5 7.69569
2782.5 -19.6956
2783.5 39.9131
2784.5 17.174
2785.5 50.3044
2786.5 49
2787.5 32.2609
2788.5 86.0435
2789.5 114.826
2790.5 84.7826
2791.5 122.044
2792.5 49.2174
2793.5 93.9566
2794.5 113.174
2795.5 195.783
2796.5 144.522
2797.5 114.261
2798.5 133.348
2799.5 91.8696
2800.5 97.087
2801.5 109.522
2802.5 40.4783
2803.5 -19.0434
2804.5 -14.3913
2805.5 -51.5652
2806.5 -20.6087
2807.5 -8.5217
2808.5 -40.0434
2809.5 -5.99996
2810.5 -130.391
2811.5 0.478303
2812.5 -36
2813.5 -9.78256
2814.5 10.9131
2815.5 13.3479
2816.5 92.3044
2817.5 -3.13039
2818.5 107.478
2819.5 117.044
2820.5 76.9566
2821.5 64.4348
2822.5 42.6087
2823.5 87.2609
2824.5 64.3913
2825.5 41.5653
2826.5 13.7392
2827.5 22.3479
2828.5 21.087
2829.5 -0.869526
2830.5 38.174
2831.5 13
2832.5 26.8696
2833.5 -37.3478
2834.5 -3.7391
2835.5 12.6522
2836.5 31.8696
2837.5 8.56525
2838.5 -2.30431
2839.5 84.3479
2840.5 11.0435
2841.5 6.69569
2842.5 30.8261
2843.5 -64.3043
2844.5 49.2174
2845.5 -80.3043
2846.5 -10.6086
2847.5 86.0001
2848.5 -15.1304
2849.5 27.1305
2850.5 82.8696
2851.5 7.56525
2852.5 90.2174
2853.5 143.478
2854.5 154.913
2855.5 117.652
2856.5 168.174
2857.5 180.87
2858.5 117.261
2859.5 156.696
2860.5 72.174
2861.5 18.2174
2862.5 54.4348
2863.5 13.7392
2864.5 31.3913
2865.5 31.2609
2866.5 18.7826
2867.5 48.3479
2868.5 -18.7391
2869.5 -3.17388
2870.5 -41.2174
2871.5 -57.8695
2872.5 32.9131
2873.5 9.34786
2874.5 81.5218
2875.5 101.87
2876.5 60.8696
2877.5 70.1739
2878.5 48.6957
2879.5 59
2880.5 95.4348
2881.5 -10.8695
2882.5 70.3479
2883.5 -43.3043
2884.5 -17.0434
2885.5 59.6957
2886.5 30.0435
2887.5 57.4783
2888.5 42.9566
2889.5 49.6957
2890.5 -54.6956
2891.5 -7.47822
2892.5 52.4348
2893.5 31.174
2894.5 6.65221
2895.5 -21.6956
2896.5 -8.99997
2897.5 -24.4347
2898.5 -16.9565
2899.5 19.6087
2900.5 -61.8695
2901.5 -25.4782
2902.5 -38.1304
2903.5 -18.2174
2904.5 40.6522
2905.5 44.6087
2906.5 40.4783
2907.5 68.0435
2908.5 96.4348
2909.5 130.652
2910.5 -11.8695
2911.5 25.4783
2912.5 91.5653
2913.5 32.6087
2914.5 83.7392
2915.5 -6.60866
2916.5 14.8261
2917.5 59.1305
2918.5 46.6957
2919.5 81.3913
2920.5 83
2921.5 27.3044
2922.5 114.957
2923.5 95.2174
2924.5 39.6957
2925.5 7.91308
2926.5 40.6087
2927.5 -56.0434
2928.5 44.087
2929.5 27.087
2930.5 32.5218
2931.5 55.5653
2932.5 -2.47823
2933.5 37.6522
2934.5 -37.7826
2935.5 -61.2608
2936.5 -117.043
2937.5 -15.1304
2938.5 3.26092
2939.5 -14.7826
2940.5 -13.2174
2941.5 -58.2608
2942.5 83.3044
2943.5 25.9131
2944.5 63.7392
2945.5 90.7827
2946.5 38.9132
2947.5 -35.2173
2948.5 113.435
2949.5 111.478
2950.5 -14.5652
2951.5 11.9131
2952.5 48.4783
2953.5 38.0435
2954.5 4.26091
2955.5 77.6087
2956.5 106.435
2957.5 -19.5652
2958.5 4.56525
2959.5 -63.1304
2960.5 -10.7826
2961.5 -5.7391
2962.5 -37.0434
2963.5 -16.3478
2964.5 -24.8261
2965.5 -1.30431
2966.5 -29.7391
2967.5 25.3913
2968.5 -46.2174
2969.5 2.04351
2970.5 -2.82605
2971.5 -34.9565
2972.5 -86.3043
2973.5 -14.5652
2974.5 -46.4782
2975.5 -81.1739
2976.5 -64.5217
2977.5 22.5218
2978.5 149.826
2979.5 243.696
2980.5 351.913
2981.5 372.826
2982.5 328.87
2983.5 305.739
2984.5 287.044
2985.5 162.478
2986.5 83
2987.5 89.6087
2988.5 67.0435
2989.5 19.5652
2990.5 57.7826
2991.5 20.4348
2992.5 -4.69562
2993.5 -56.3478
2994.5 -86.1304
2995.5 -160.696
2996.5 -69.1304
2997.5 -144.391
2998.5 -121.696
2999.5 -117.13
3000.5 -4.26083
3001.5 162.478
3002.5 516.217
3003.5 950.087
3004.5 1845.78
3005.5 2342.35
3006.5 2042.3
3007.5 1142.52
3008.5 438.652
3009.5 168.739
3010.5 131
3011.5 -6.82605
3012.5 22.3044
3013.5 58.9131
3014.5 55.5218
3015.5 81.9131
3016.5 -0.913006
3017.5 88.2609
3018.5 -62.1739
3019.5 -1.91301
3020.5 19.7392
3021.5 -9.08692
3022.5 -42.6956
3023.5 -108.348
3024.5 -53.913
3025.5 -71.7826
3026.5 -44.4782
3027.5 -57.9565
3028.5 7.47829
3029.5 6.60873
3030.5 -29.6087
3031.5 17.8261
3032.5 15.174
3033.5 -99.3478
3034.5 -59.5652
3035.5 -96.3043
3036.5 45.9131
3037.5 -4.21732
3038.5 84.4783
3039.5 -8.69558
3040.5 24.7392
3041.5 85.6087
3042.5 110.652
3043.5 112.217
3044.5 160.652
3045.5 200.13
3046.5 220.261
3047.5 227.261
3048.5 103.957
3049.5 147.609
3050.5 138.087
3051.5 83.9131
3052.5 89.8261
3053.5 -17.913
3054.5 63.2609
3055.5 -36.6956
3056.5 -41.7826
3057.5 -56.3478
3058.5 -6.69562
3059.5 -19.8261
3060.5 -25.4347
3061.5 -59.2174
3062.5 -37.4782
3063.5 -82.913
3064.5 10.9131
3065.5 2.8696
3066.5 -27.5217
3067.5 27.4783
3068.5 72.3913
3069.5 20.9566
3070.5 -2.34779
3071.5 7.56525
3072.5 29.0435
3073.5 44.087
3074.5 -30.4347
3075.5 30.2609
3076.5 12.5653
3077.5 -26.7391
3078.5 -7.39127
3079.5 10
3080.5 -23.2174
3081.5 8.78264
3082.5 32.087
3083.5 19.3479
3084.5 87.8261
3085.5 58.3913
3086.5 88.1305
3087.5 167.391
3088.5 143.913
3089.5 44.3479
3090.5 24.087
3091.5 41.5652
3092.5 33.1305
3093.5 -5.95649
3094.5 -10.5217
3095.5 37.7826
3096.5 38.087
3097.5 -31.5652
3098.5 48.3913
3099.5 31.4348
3100.5 -63.8695
3101.5 -19.6087
3102.5 -38.6087
3103.5 -22.3043
3104.5 -43.6087
3105.5 -49.8695
3106.5 -77.5217
3107.5 -64.7391
3108.5 -22.4347
3109.5 -26.826
3110.5 -31.3043
3111.5 -7.34779
3112.5 -56.5652
3113.5 -33.2174
3114.5 54.8696
3115.5 14.7392
3116.5 78.5218
3117.5 -1.69562
3118.5 29.8261
3119.5 111.478
3120.5 107.087
3121.5 -14.8695
3122.5 25.5218
3123.5 57.087
3124.5 52
3125.5 -22.1739
3126.5 9.56525
3127.5 -57.0869
3128.5 -56.913
3129.5 -61.913
3130.5 -100.956
3131.5 -62.3478
3132.5 -31.6087
3133.5 2.6522
3134.5 -7.95649
3135.5 50.3479
3136.5 79.6957
3137.5 121.783
3138.5 122.826
3139.5 84.7392
3140.5 136.391
3141.5 113.609
3142.5 148.174
3143.5 40.9566
3144.5 99.7392
3145.5 44.9566
3146.5 41.8261
3147.5 60.087
3148.5 20.3044
3149.5 59.2609
3150.5 -20.3478
3151.5 -27
3152.5 16.7392
3153.5 -30.1739
3154.5 -73.2174
3155.5 -24.5217
3156.5 22.4783
3157.5 -80.6087
3158.5 -25.8695
3159.5 -19.6087
3160.5 -29.6087
3161.5 63.4783
3162.5 51.2174
3163.5 33.5652
3164.5 33.6522
3165.5 30.8261
3166.5 -10.3478
3167.5 61.5652
3168.5 -21.8261
3169.5 74.5218
3170.5 -27.2174
3171.5 -9.99997
3172.5 30.9566
3173.5 116.913
3174.5 124
3175.5 154.957
3176.5 121.739
3177.5 135.957
3178.5 108.652
3179.5 69.7392
3180.5 85.6087
3181.5 62.4348
3182.5 70.4783
3183.5 92.8696
3184.5 39.4348
3185.5 33.6957
3186.5 16.0435
3187.5 9.60873
3188.5 -15.6956
3189.5 27.2174
3190.5 -18.3913
3191.5 -92.8695
3192.5 -62.4782
3193.5 -102.826
3194.5 -73.0434
3195.5 -77.3478
3196.5 -99
3197.5 -6.91301
3198.5 19.1739
3199.5 53.087
3200.5 65.7827
3201.5 47.3044
3202.5 147.044
3203.5 138.087
3204.5 45.8696
3205.5 120.261
3206.5 -39.6521
3207.5 61.9131
3208.5 -44.4782
3209.5 -21.6087
3210.5 -10.3913
3211.5 50.4783
3212.5 62.6087
3213.5 21.9566
3214.5 43.7826
3215.5 72.2174
3216.5 97.7826
3217.5 27.087
3218.5 0.739163
3219.5 -55.7391
3220.5 -25.1739
3221.5 -43.5217
3222.5 -2.69562
3223.5 -1.7391
3224.5 35.9131
3225.5 18.1305
3226.5 147.826
3227.5 97.4783
3228.5 13.9566
3229.5 82.6522
3230.5 36.9566
3231.5 42.3479
3232.5 -44.3478
3233.5 -32.3478
3234.5 -9.04344
3235.5 111.304
3236.5 46.9566
3237.5 107.826
3238.5 57.7826
3239.5 40.9566
3240.5 -13.2608
3241.5 15.4783
3242.5 -49.3478
3243.5 -5.56518
3244.5 85.7826
3245.5 -12.2608
3246.5 -5.17388
3247.5 -3.52171
3248.5 8.00003
3249.5 -61.4348
3250.5 40.9131
3251.5 27.6522
3252.5 -54.7391
3253.5 -5.1304
3254.5 2.60873
3255.5 -30.7391
3256.5 -1.82605
3257.5 -21.8695
3258.5 -48.8695
3259.5 11.8696
3260.5 -27.6956
3261.5 4.95656
3262.5 24.4348
3263.5 57.087
3264.5 -23.7391
3265.5 53.4348
3266.5 -4.60866
3267.5 16.7826
3268.5 38.1305
3269.5 -18.1304
3270.5 2.30438
3271.5 28.0435
3272.5 -16.0435
3273.5 54.0435
3274.5 91.0435
3275.5 43.6522
3276.5 12.2174
3277.5 9.78264
3278.5 -12.3043
3279.5 27.0435
3280.5 36.087
3281.5 -2.17389
3282.5 14
3283.5 22.8261
3284.5 24.4348
3285.5 -17.3478
3286.5 12.8261
3287.5 15.7392
3288.5 -16.6087
3289.5 -19.0434
3290.5 -2.99997
3291.5 -17.5217
3292.5 0.95655
3293.5 -22.6956
3294.5 -48.4782
3295.5 13.6522
3296.5 -1.95649
3297.5 98.8261
3298.5 102.609
3299.5 58.9131
3300.5 90.6522
3301.5 124.913
3302.5 122.044
3303.5 182.348
3304.5 80.1739
3305.5 82
3306.5 96.6957
3307.5 6.91307
3308.5 46.9131
3309.5 66.9566
3310.5 48.6522
3311.5 54.0435
3312.5 18
3313.5 -6.17388
3314.5 16.9131
3315.5 -12.6521
3316.5 25.6957
3317.5 -47.5652
3318.5 -107.478
3319.5 -82.913
3320.5 -72.1739
3321.5 -75.7391
3322.5 2.087
3323.5 -21.2174
3324.5 -10.913
3325.5 2.86959
3326.5 -4.26084
3327.5 -20.0435
3328.5 28.5652
3329.5 -1.65215
3330.5 -37.7391
3331.5 17.2174
3332.5 -0.130404
3333.5 -58.4782
3334.5 -8.91301
3335.5 -47.6087
3336.5 -17.2174
3337.5 65.8696
3338.5 -9.26084
3339.5 0.95655
3340.5 6.21742
3341.5 59.5652
3342.5 24.6087
3343.5 0.173939
3344.5 50.0435
3345.5 24.1305
3346.5 23.2174
3347.5 25.7826
3348.5 18.6957
3349.5 57.2609
3350.5 8.13046
3351.5 28.5652
3352.5 -1.65214
3353.5 23.9131
3354.5 -15
3355.5 28.2609
3356.5 -3.69562
3357.5 59.4783
3358.5 8.91307
3359.5 22.4783
3360.5 80.3044
3361.5 38.6522
3362.5 141.087
3363.5 110.783
3364.5 69.8261
3365.5 97.9131
3366.5 12.9566
3367.5 52.3479
3368.5 79.5653
3369.5 35.0435
3370.5 -22.913
3371.5 -6.91302
3372.5 14.9566
3373.5 -7.08693
3374.5 7.30438
3375.5 68
3376.5 67.1305
3377.5 57.3479
3378.5 50.5218
3379.5 47.8261
3380.5 -6.21736
3381.5 -27.8695
3382.5 -17.3913
3383.5 15.1739
3384.5 -69.3478
3385.5 -33.4782
3386.5 5.39133
3387.5 8.21742
3388.5 -4.08693
3389.5 -36.3043
3390.5 22.2174
3391.5 73.5218
3392.5 -9.34779
3393.5 -7.39127
3394.5 -58
3395.5 -6.86953
3396.5 -9.7391
3397.5 -58.5652
3398.5 42.5218
3399.5 -41.6956
3400.5 18.1739
3401.5 49.8261
3402.5 69.5218
3403.5 26.0435
3404.5 22.087
3405.5 -11.1739
3406.5 13.0435
3407.5 -42.2608
3408.5 -25.8695
3409.5 -34.6087
3410.5 -23.0435
3411.5 6.21742
3412.5 77.2174
3413.5 69.3479
3414.5 46.087
3415.5 69.5652
3416.5 74.6957
3417.5 100.87
3418.5 119.913
3419.5 56.6087
3420.5 84.9565
3421.5 82.6087
3422.5 58.087
3423.5 152.957
3424.5 61.5218
3425.5 112.957
3426.5 107.826
3427.5 111.826
3428.5 39.9566
3429.5 10.6522
3430.5 35.5218
3431.5 60.7392
3432.5 -7.21736
3433.5 65.3044
3434.5 -44.913
3435.5 22.1305
3436.5 -22.2608
3437.5 -22
3438.5 -28.0434
3439.5 -47.4782
3440.5 21.0435
3441.5 -52.1739
3442.5 3.6522
3443.5 -35.9565
3444.5 -6.21736
3445.5 59.6957
3446.5 -8.04344
3447.5 22.5218
3448.5 0.0870104
3449.5 -42.913
3450.5 -25.7391
3451.5 37.2174
3452.5 -24
3453.5 -13.6087
3454.5 -10.0434
3455.5 82.6087
3456.5 62.5652
3457.5 86.4348
3458.5 73.8696
3459.5 80.7392
3460.5 103.565
3461.5 86.3044
3462.5 56.0435
3463.5 16.087
3464.5 26.4348
3465.5 77.8261
3466.5 -9.7391
3467.5 -17.4348
3468.5 4.91307
3469.5 -64.5652
3470.5 -36.5217
3471.5 -29.3478
3472.5 0.521765
3473.5 29.6522
3474.5 -38.0435
3475.5 3.13046
3476.5 26.4348
3477.5 24.087
3478.5 73.4783
3479.5 4.60872
3480.5 -43.4782
3481.5 28.8261
3482.5 -92.8261
3483.5 -49.0869
3484.5 -9.08693
3485.5 5.56525
3486.5 -45.913
3487.5 -0.130398
3488.5 10.5653
3489.5 -6.5217
3490.5 -15.4782
3491.5 8.91309
3492.5 71.2174
3493.5 -51.0869
3494.5 6.00004
3495.5 25.4783
3496.5 73.2174
3497.5 65.2609
3498.5 53.8696
3499.5 47.5652
3500.5 12
3501.5 61.8261
3502.5 33.4348
3503.5 4.82611
3504.5 59.3913
3505.5 61.1305
3506.5 52.7826
3507.5 33.8696
3508.5 30
3509.5 53.0435
3510.5 34.2174
3511.5 88
3512.5 51.2609
3513.5 112.044
3514.5 41.6087
3515.5 24.1739
3516.5 36.6087
3517.5 14.3044
3518.5 -43.4782
3519.5 -30.1739
3520.5 21.2609
3521.5 -27.2608
3522.5 22.087
3523.5 98.8261
3524.5 181.739
3525.5 153.217
3526.5 178.783
3527.5 172.217
3528.5 224.261
3529.5 128.652
3530.5 112.696
3531.5 45.1305
3532.5 24.3044
3533.5 -9.99996
3534.5 -17.8261
3535.5 24.6522
3536.5 -13.6087
3537.5 5.0435
3538.5 -20.9565
3539.5 -38.2174
3540.5 -63.2608
3541.5 -133.391
3542.5 -108.696
3543.5 -82.6956
3544.5 -117
3545.5 -83
3546.5 -73
3547.5 -43
3548.5 -0.86954
3549.5 -40.0869
3550.5 -1.21737
3551.5 37.7392
3552.5 -1.47824
3553.5 49.2174
3554.5 46.1305
3555.5 6.60872
3556.5 -44.6521
3557.5 47.8261
3558.5 -30.5652
3559.5 95.9565
3560.5 0.739155
3561.5 -7.21737
3562.5 2.78264
3563.5 44.8696
3564.5 5.30438
3565.5 42.9566
3566.5 -31
3567.5 26.3479
3568.5 -37.3913
3569.5 -47.4782
3570.5 8.30437
3571.5 8.21741
3572.5 27
3573.5 0.60872
3574.5 3.78263
3575.5 68.1305
3576.5 50.8696
3577.5 -26.7826
3578.5 40.9131
3579.5 11.087
3580.5 51.9566
3581.5 48.087
3582.5 47.6522
3583.5 132.87
3584.5 97.5653
3585.5 148.739
3586.5 97.2174
3587.5 107.913
3588.5 27.1739
3589.5 92.1739
3590.5 41.6087
3591.5 7.13046
3592.5 10.8261
3593.5 7.39133
3594.5 59.7392
3595.5 5.0435
3596.5 7.30437
3597.5 60.8261
3598.5 -42.3043
3599.5 23.3044
3600.5 21.3479
3601.5 12.2609
3602.5 3.60872
3603.5 -40.913
3604.5 -41.6087
3605.5 3.08698
3606.5 50.3479
3607.5 38.4348
3608.5 57.2609
3609.5 68
3610.5 83.3479
3611.5 60.8261
3612.5 23.4783
3613.5 -34.0435
3614.5 15.4783
3615.5 4.69568
3616.5 29.3479
3617.5 10.7826
3618.5 16.2174
3619.5 6.47829
3620.5 34.7392
3621.5 -42.6087
3622.5 -38.3478
3623.5 66.6087
3624.5 -22.1739
3625.5 43.2174
3626.5 -28.2608
3627.5 32.4783
3628.5 -11.8695
3629.5 24.6522
3630.5 76.0435
3631.5 43
3632.5 22.7826
3633.5 -56.5652
3634.5 -11.8261
3635.5 39.7392
3636.5 1.78263
3637.5 56
3638.5 10.9131
3639.5 37.3479
3640.5 5.13046
3641.5 11.3913
3642.5 64.5652
3643.5 6.17394
3644.5 -54.2174
3645.5 -24.0434
3646.5 58.5218
3647.5 -10.6087
3648.5 -22.3478
3649.5 -34.5652
3650.5 -38.7391
3651.5 0.913072
3652.5 22.3913
3653.5 28.8261
3654.5 -4.52171
3655.5 -44.8695
3656.5 32.087
3657.5 -8.65215
3658.5 3.30437
3659.5 -37.1739
3660.5 51.8261
3661.5 9.39133
3662.5 14.0435
3663.5 -11.5652
3664.5 73.2174
3665.5 30.4348
3666.5 76.6957
3667.5 36.2609
3668.5 84.8261
3669.5 62.3913
3670.5 28.7826
3671.5 42.3044
3672.5 111.261
3673.5 -12.3913
3674.5 14.6522
3675.5 -31.9565
3676.5 -6.43476
3677.5 -13.6087
3678.5 3.60872
3679.5 -1.99997
3680.5 10.2609
3681.5 39.3479
3682.5 2.21742
3683.5 -22.6087
3684.5 73.1305
3685.5 32.3913
3686.5 35.7392
3687.5 31.087
3688.5 8.56524
3689.5 6.13046
3690.5 41.4348
3691.5 40.2609
3692.5 42.8696
3693.5 39.3044
3694.5 40.4348
3695.5 25.7826
3696.5 58.9566
3697.5 52.8261
3698.5 15.9131
3699.5 10.8696
3700.5 27
3701.5 -26.6087
3702.5 64.2609
3703.5 74.8261
3704.5 32.4348
3705.5 49.087
3706.5 66.1739
3707.5 -18.8695
3708.5 17.4783
3709.5 -0.173886
3710.5 -29.4348
3711.5 2.91307
3712.5 -47.4348
3713.5 -54.6087
3714.5 -25.2608
3715.5 -37.7391
3716.5 -87.3913
3717.5 -37.8695
3718.5 -22.5217
3719.5 63.1305
3720.5 -29.4782
3721.5 86.6957
3722.5 18.6522
3723.5 68.087
3724.5 60.2174
3725.5 12.4348
3726.5 80.7826
3727.5 -13.4348
3728.5 -5.3478
3729.5 51.9565
3730.5 9.86959
3731.5 33.6087
3732.5 33.9565
3733.5 -3.73911
3734.5 0.34785
3735.5 23.3044
3736.5 -40.0869
3737.5 -25.1739
3738.5 13.6957
3739.5 59.7826
3740.5 19.2609
3741.5 -26.6087
3742.5 -11.0435
3743.5 26.9566
3744.5 3.13047
3745.5 -87.0869
3746.5 -18.4347
3747.5 -15.7826
3748.5 -30
3749.5 -13.1739
3750.5 -28.6087
3751.5 -19.2608
3752.5 8.86959
3753.5 10.4783
3754.5 -11.7826
3755.5 8.2609
3756.5 19.9131
3757.5 -47.3478
3758.5 74.3479
3759.5 45.4348
3760.5 104.957
3761.5 149
3762.5 160.304
3763.5 129.435
3764.5 183.435
3765.5 68.9131
3766.5 120.696
3767.5 59.1739
3768.5 -0.260846
3769.5 76.3044
3770.5 82.8261
3771.5 160.304
3772.5 107.696
3773.5 47.2609
3774.5 8.34785
3775.5 55
3776.5 48.0435
3777.5 5.30437
3778.5 6.60872
3779.5 -36.4348
3780.5 -58.6522
3781.5 -22.0435
3782.5 -0.565194
3783.5 -50.5652
3784.5 -54.0435
3785.5 12.9131
3786.5 -47.0869
3787.5 -88.7826
3788.5 -35.3043
3789.5 11.8261
3790.5 -50.1304
3791.5 -41.5217
3792.5 -61.2608
3793.5 -19.9565
3794.5 61.087
3795.5 -8.73911
3796.5 27.7392
3797.5 -3.52172
3798.5 -9.21737
3799.5 17.8696
3800.5 18.9131
3801.5 25.1305
3802.5 22.1739
3803.5 6.78263
3804.5 -15.6956
3805.5 45.1739
3806.5 75.087
3807.5 33.5652
3808.5 -32.7391
3809.5 -38.913
3810.5 27.2609
3811.5 35.4783
3812.5 1.13046
3813.5 25.2609
3814.5 39.0435
3815.5 64.3913
3816.5 108.957
3817.5 80.7826
3818.5 44.1305
3819.5 80.6087
3820.5 8.47828
3821.5 66.9131
3822.5 85.7826
3823.5 -7.99998
3824.5 2.82611
3825.5 -6.9565
3826.5 9.34785
3827.5 -0.173889
3828.5 15.6522
3829.5 0.304371
3830.5 -29.3043
3831.5 12.8261
3832.5 -24.6522
3833.5 3.30437
3834.5 -23.913
3835.5 14.0435
3836.5 -24.1304
3837.5 -26.5652
3838.5 23.3913
3839.5 64.7392
3840.5 -26.9565
3841.5 -9.52172
3842.5 30.6522
3843.5 2.30437
3844.5 72.2609
3845.5 5.34785
3846.5 -34.4782
3847.5 34.9565
3848.5 18.3479
3849.5 29.4348
3850.5 33.4783
3851.5 13.1305
3852.5 -11.8695
3853.5 61
3854.5 74.7392
3855.5 54.0435
3856.5 10.2174
3857.5 49.7826
3858.5 35.1305
3859.5 31.6522
3860.5 18.8261
3861.5 -20
3862.5 -1.56519
3863.5 4.13047
3864.5 16.6087
3865.5 -80.7826
3866.5 14.8696
3867.5 15.3044
3868.5 -30.4782
3869.5 18.1739
3870.5 45.8261
3871.5 45.8261
3872.5 87.5218
3873.5 68.9565
3874.5 31.5218
3875.5 10
3876.5 3.04351
3877.5 0.0869855
3878.5 1.30437
3879.5 -47.3913
3880.5 -27.2174
3881.5 -33.1739
3882.5 6.0435
3883.5 -7.39128
3884.5 -32.4348
3885.5 21.1739
3886.5 -9.43476
3887.5 3.95654
3888.5 -39.6956
3889.5 -40.6521
3890.5 31.9565
3891.5 40.1305
3892.5 30.2609
3893.5 -32.3043
3894.5 -1.69563
3895.5 -42.4782
3896.5 23.5218
3897.5 -19.6956
3898.5 33.087
3899.5 28
3900.5 -8.17389
3901.5 -27.8261
3902.5 15.0435
3903.5 32.9566
3904.5 -13.7826
3905.5 -8.7391
3906.5 -18.3043
3907.5 8.95655
3908.5 39.9131
3909.5 26.5652
3910.5 11.087
3911.5 33
3912.5 11.5652
3913.5 33.7392
3914.5 17.9565
3915.5 22.6522
3916.5 54.3044
3917.5 5.52176
3918.5 -7.91302
3919.5 -2.82606
3920.5 41.2174
3921.5 22.9566
3922.5 3.13046
3923.5 -56.3478
3924.5 4.17394
3925.5 26.4348
3926.5 -71
3927.5 48.9565
3928.5 -35.0435
3929.5 21.6087
3930.5 33.2609
3931.5 -8.30433
3932.5 50.087
3933.5 98.3044
3934.5 76.2609
3935.5 38.3913
3936.5 78.7826
3937.5 50.9131
3938.5 46.9131
3939.5 65.2609
3940.5 62.4783
3941.5 71.2609
3942.5 69.7392
3943.5 67.0435
3944.5 57.1305
3945.5 69.5652
3946.5 76.7392
3947.5 66.1305
3948.5 80.087
3949.5 37.5218
3950.5 43.3913
3951.5 -17.8261
3952.5 -17.5652
3953.5 -2.82606
3954.5 46.0435
3955.5 19.3913
3956.5 35.0435
3957.5 -28.9565
3958.5 -1.65214
3959.5 75.9566
3960.5 -30.3478
3961.5 -20.7391
3962.5 77.4783
3963.5 -3.26084
3964.5 -13.6521
3965.5 -22.1304
3966.5 -73.3478
3967.5 -40.4348
3968.5 -52.913
3969.5 -20.2608
3970.5 -5.30431
3971.5 27.087
3972.5 1.86961
3973.5 121.652
3974.5 68.3913
3975.5 54.0435
3976.5 49.1305
3977.5 33.4348
3978.5 -17.9565
3979.5 -64.6956
3980.5 15.2609
3981.5 -24.0435
3982.5 -8.17389
3983.5 -56.8695
3984.5 34.4783
3985.5 40.6087
3986.5 9.73915
3987.5 60.0435
3988.5 68.6957
3989.5 43.8261
3990.5 71.9565
3991.5 120.565
3992.5 53.7826
3993.5 2.26089
3994.5 32.4783
3995.5 15.7392
3996.5 6.86959
3997.5 -25.3913
3998.5 -49.0435
3999.5 13.5218
4000.5 1.26089
4001.5 -21.8695
4002.5 -62
4003.5 -54.8261
4004.5 -117.913
4005.5 -67.8695
4006.5 19.2609
4007.5 38.9565
4008.5 8.82611
4009.5 127.783
4010.5 172.391
4011.5 215.435
4012.5 197.565
4013.5 212.043
4014.5 246.348
4015.5 87.5652
4016.5 110.13
4017.5 151.609
4018.5 66.3044
4019.5 34.1739
4020.5 69.0435
4021.5 19.3044
4022.5 49.7392
4023.5 -12.1304
4024.5 -17.2608
4025.5 68.4348
4026.5 -31.7826
4027.5 -26.6956
4028.5 -103.565
4029.5 -19.0435
4030.5 -49.9565
4031.5 -82.5217
4032.5 -91.8261
4033.5 -85.4782
4034.5 -60.2608
4035.5 -36.2174
4036.5 -65.913
4037.5 -108.174
4038.5 -15.5217
4039.5 -15.9565
4040.5 -8.17389
4041.5 -29.3913
4042.5 30.1739
4043.5 -6.21737
4044.5 -20.7826
4045.5 -29.1739
4046.5 -14.5652
4047.5 -30.6087
4048.5 58.7826
4049.5 -16.1304
4050.5 38
4051.5 48.9565
4052.5 44.2609
4053.5 21.2609
4054.5 96.3478
4055.5 32.5218
4056.5 49
4057.5 44.0435
4058.5 14.8261
4059.5 2.21741
4060.5 7.52176
4061.5 22.1739
4062.5 -9.26085
4063.5 10.9565
4064.5 -12.6087
4065.5 6.52176
4066.5 -31.3043
4067.5 -38.7391
4068.5 -52.7391
4069.5 2.39133
4070.5 -50.7391
4071.5 -35.9565
4072.5 -25.0435
4073.5 -77.2174
4074.5 -49.7391
4075.5 26.8261
4076.5 20.7826
4077.5 21.5218
4078.5 5.08698
4079.5 42.7826
4080.5 18.0435
4081.5 78.7391
4082.5 31.5652
4083.5 93.7826
4084.5 39.3478
4085.5 33.2174
4086.5 -5.43476
4087.5 28.3044
4088.5 37.4783
4089.5 27.8696
4090.5 16.5218
4091.5 25.1305
4092.5 21.9565
4093.5 -45.0435
4094.5 -11.1739
4095.5 -10.7826
4096.5 35.6522
4097.5 -39.8695
4098.5 -74.8695
4099.5 -46.9565
4100.5 -63.5217
4101.5 -11.6522
4102.5 -18.7826
4103.5 -5.65215
4104.5 42.5218
4105.5 -18.1739
4106.5 21.9131
4107.5 42.2609
4108.5 45
4109.5 85.6522
4110.5 152.565
4111.5 152.044
4112.5 79.8696
4113.5 54.2609
4114.5 55.3044
4115.5 50.1305
4116.5 29.1305
4117.5 72.5218
4118.5 121.565
4119.5 52.3044
4120.5 2.69567
4121.5 -7.39128
4122.5 21
4123.5 -6.17389
4124.5 -27.9565
4125.5 13.3044
4126.5 -40.913
4127.5 11.2174
4128.5 20.5218
4129.5 21.4783
4130.5 32.0435
4131.5 37.6957
4132.5 23.2174
4133.5 -100.391
4134.5 -27.913
4135.5 31.0435
4136.5 -18.5652
4137.5 -45.6087
4138.5 -96
4139.5 -14.0435
4140.5 39.2174
4141.5 -31.0869
4142.5 0.478282
4143.5 -0.782587
4144.5 15.9565
4145.5 -3.30433
4146.5 22.5218
4147.5 -32.6087
4148.5 -51.9565
4149.5 56.5652
4150.5 18.3913
4151.5 -21.4782
4152.5 56.3044
4153.5 85.2174
4154.5 34.0435
4155.5 34.8696
4156.5 -48.4782
4157.5 -9.65215
4158.5 -30
4159.5 -2.04346
4160.5 14.6087
4161.5 -26.9565
4162.5 -30.1739
4163.5 7.17393
4164.5 -25.3913
4165.5 -20.4348
4166.5 -27.4348
4167.5 -6.60867
4168.5 -20.7826
4169.5 46.7826
4170.5 -0.130407
4171.5 19.0435
4172.5 5.17394
4173.5 97.087
4174.5 76.6087
4175.5 46.1305
4176.5 52.1305
4177.5 78.6522
4178.5 96.2609
4179.5 114.826
4180.5 76.6522
4181.5 29.087
4182.5 81.1305
4183.5 67.8696
4184.5 16
4185.5 67.4348
4186.5 -3.5652
4187.5 33.3478
4188.5 -16.6956
4189.5 -10.6522
4190.5 22.3478
4191.5 20.6087
4192.5 17.3913
4193.5 -31.3043
4194.5 -56.7391
4195.5 -90.6956
4196.5 -64.8261
4197.5 -35.6956
4198.5 -18.0869
4199.5 -5.9565
4200.5 -9.43476
4201.5 8.0435
4202.5 96.6957
4203.5 73.7392
4204.5 144.565
4205.5 125.348
4206.5 260.217
4207.5 151.348
4208.5 135.696
4209.5 23.087
4210.5 40.7826
4211.5 51.2609
4212.5 27.6957
4213.5 28.6522
4214.5 -24.2174
4215.5 41.6087
4216.5 18.9131
4217.5 20.3913
4218.5 45.8696
4219.5 -31.4782
4220.5 -2.69563
4221.5 -31
4222.5 -48.913
4223.5 -111.783
4224.5 -33.6087
4225.5 -21.6956
4226.5 -33.3478
4227.5 -6.78259
4228.5 -40.4348
4229.5 25.5652
4230.5 -11.4782
4231.5 -48.7826
4232.5 -3.73911
4233.5 23.5652
4234.5 78.9565
4235.5 63.8261
4236.5 9.86959
4237.5 35.7392
4238.5 34.8261
4239.5 57.5218
4240.5 48.2174
4241.5 10.1305
4242.5 11.5652
4243.5 55.0435
4244.5 28.2609
4245.5 45.6087
4246.5 -34
4247.5 41.9565
4248.5 29.1739
4249.5 61.6957
4250.5 40.7392
4251.5 -15.7391
4252.5 2.73915
4253.5 42.8696
4254.5 -19.4348
4255.5 20.8696
4256.5 -15.6522
4257.5 6.78263
4258.5 -2.73911
4259.5 -26.8261
4260.5 -19.6087
4261.5 -25.0435
4262.5 33.5652
4263.5 -18.1304
4264.5 -43.8261
4265.5 19.1305
4266.5 -20.2608
4267.5 71.5218
4268.5 13.9565
4269.5 1.95654
4270.5 53.9131
4271.5 27.1305
4272.5 -7.30433
4273.5 40.9565
4274.5 8.00002
4275.5 -11.8261
4276.5 -0.478239
4277.5 33.6957
4278.5 37.4783
4279.5 -1.52172
4280.5 36.5218
4281.5 -23.913
4282.5 19.1305
4283.5 -17.4782
4284.5 5.56524
4285.5 28.1739
4286.5 22.0435
4287.5 51.6522
4288.5 24.3913
4289.5 3.91306
4290.5 11.087
4291.5 41.1305
4292.5 7.73915
4293.5 2.86958
4294.5 -4.08694
4295.5 30.7826
4296.5 -80.1304
4297.5 14.4783
4298.5 13.4348
4299.5 -14.7391
4300.5 30.087
4301.5 -47.0435
4302.5 33
4303.5 53.4348
4304.5 59.4783
4305.5 66.087
4306.5 66.1305
4307.5 56.6087
4308.5 60.5652
4309.5 47.7826
4310.5 17.7391
4311.5 -5.86955
4312.5 2.26089
4313.5 49.7391
4314.5 32.2174
4315.5 -9.91302
4316.5 3.30437
4317.5 26.2609
4318.5 -19.0869
4319.5 -63.6522
4320.5 -31.0869
4321.5 -43.3913
4322.5 -28.8695
4323.5 -1.17389
4324.5 15.4348
4325.5 39.9131
4326.5 16.2609
4327.5 17.5652
4328.5 -19.913
4329.5 -30.6087
4330.5 20.9131
4331.5 18.0435
4332.5 -24.7391
4333.5 56.4348
4334.5 19.4348
4335.5 41.1739
4336.5 0.565237
4337.5 44.4348
4338.5 20.6522
4339.5 64.1739
4340.5 -7.9565
4341.5 21.7391
4342.5 36.8261
4343.5 -36.5217
4344.5 1.69567
4345.5 36.8261
4346.5 -15.4782
4347.5 -0.130416
4348.5 -13.6522
4349.5 -44.6087
4350.5 40.3913
4351.5 -40.5217
4352.5 -8.91302
4353.5 -29.8695
4354.5 -24.9565
4355.5 -32.6956
4356.5 10.4783
4357.5 -21.7391
4358.5 43.6087
4359.5 0.21741
4360.5 0.0434973
4361.5 -8.21737
4362.5 5.00002
4363.5 36.087
4364.5 56.8696
4365.5 -7.26085
4366.5 79.1305
4367.5 62.8261
4368.5 55.0435
4369.5 21.8696
4370.5 47.2174
4371.5 -16.2174
4372.5 106.957
4373.5 162.13
4374.5 167.696
4375.5 208.87
4376.5 118.826
4377.5 31.5218
4378.5 41.9131
4379.5 -50.913
4380.5 47.2174
4381.5 -63.2174
4382.5 -5.7391
4383.5 -27.5217
4384.5 -67.6956
4385.5 -23.5217
4386.5 -42.1304
4387.5 -46.6522
4388.5 -36.9565
4389.5 -12.6087
4390.5 -41.2608
4391.5 -1.65215
4392.5 90.6957
4393.5 27.2174
4394.5 23.3478
4395.5 45.4783
4396.5 38.7826
4397.5 104.87
4398.5 96.5218
4399.5 72.4783
4400.5 110.478
4401.5 17.3044
4402.5 62.9565
4403.5 28.3913
4404.5 58.1739
4405.5 47.5218
4406.5 69.9131
4407.5 72.9565
4408.5 42
4409.5 2.13046
4410.5 6.30437
4411.5 9.47828
4412.5 -1.47824
4413.5 -35.2608
4414.5 -59.6956
4415.5 -17.0869
4416.5 -8.08693
4417.5 -39.4348
4418.5 -41.7826
4419.5 -29.3478
4420.5 -40.3478
4421.5 -69.6522
4422.5 51.7391
4423.5 16.9131
4424.5 36.8696
4425.5 2.30437
4426.5 -24.7391
4427.5 -48.1304
4428.5 -8.30433
4429.5 -34.3913
4430.5 -10.7826
4431.5 -29
4432.5 17.9565
4433.5 3.52176
4434.5 67.8696
4435.5 20.3479
4436.5 44.6522
4437.5 141.739
4438.5 144.522
4439.5 149.304
4440.5 178.391
4441.5 142.261
4442.5 122.13
4443.5 149.043
4444.5 89.3913
4445.5 84.8696
4446.5 20.7826
4447.5 56.3478
4448.5 13.6522
4449.5 -16.6956
4450.5 14.0435
4451.5 -50.3478
4452.5 24
4453.5 -5.26084
4454.5 -42.3913
4455.5 -47.6956
4456.5 39.9566
4457.5 13.3044
4458.5 25.8696
4459.5 59.3479
4460.5 7.21743
4461.5 38
4462.5 8.56525
4463.5 24.4783
4464.5 -36.1304
4465.5 -8.78259
4466.5 -19.6522
4467.5 11
4468.5 -5.26085
4469.5 12.4783
4470.5 33.1739
4471.5 30.9131
4472.5 75.4348
4473.5 74.2174
4474.5 116.304
4475.5 40.8696
4476.5 36.6087
4477.5 7.39132
4478.5 -23.3478
4479.5 -12.4348
4480.5 6.21741
4481.5 20.4348
4482.5 11.8696
4483.5 28.087
4484.5 7.17393
4485.5 -17.4782
4486.5 81.3478
4487.5 -18.5217
4488.5 -64.4348
4489.5 -17.1304
4490.5 -22.7826
4491.5 -34.0435
4492.5 -80
4493.5 -99.6956
4494.5 -8.47824
4495.5 -17.2608
4496.5 11.6957
4497.5 96.087
4498.5 97.7392
4499.5 148.087
4500.5 104.217
4501.5 125.826
4502.5 76.1305
4503.5 106.522
4504.5 44.6522
4505.5 11.8696
4506.5 -8.86955
4507.5 28.5652
4508.5 25.3913
4509.5 22.5218
4510.5 59.8696
4511.5 -1.69563
4512.5 -7.9565
4513.5 8.26089
4514.5 -12.0435
4515.5 -0.47824
4516.5 17.5652
4517.5 1.4348
4518.5 -21.0869
4519.5 -33.3043
4520.5 -26.4348
4521.5 -14.8261
4522.5 27.2174
4523.5 45.7392
4524.5 -3.39128
4525.5 -32.2608
4526.5 2.08698
4527.5 -13.2174
4528.5 -9.13041
4529.5 -43.3043
4530.5 -16.7391
4531.5 -19.3913
4532.5 24.4348
4533.5 42.9131
4534.5 56.5218
4535.5 127.174
4536.5 162.87
4537.5 141.13
4538.5 82.6522
4539.5 78
4540.5 127.826
4541.5 58.6087
4542.5 65.4348
4543.5 21.7391
4544.5 -10.6956
4545.5 -9.86955
4546.5 47.5652
4547.5 -37.7391
4548.5 5.21741
4549.5 -64.3913
4550.5 14.4348
4551.5 -52.6956
4552.5 -64.6087
4553.5 19.9131
4554.5 20.9131
4555.5 41.4348
4556.5 114.522
4557.5 108.696
4558.5 67.9131
4559.5 63
4560.5 52.5652
4561.5 35.4783
4562.5 39.1305
4563.5 76.1305
4564.5 103.435
4565.5 47.8696
4566.5 -6.91302
4567.5 27.6087
4568.5 38.6087
4569.5 31.2609
4570.5 -10.4782
4571.5 -24
4572.5 9.47828
4573.5 -12.4348
4574.5 4.95654
4575.5 -18.4782
4576.5 -37.0435
4577.5 11.2609
4578.5 23.5218
4579.5 10.4348
4580.5 27.5652
4581.5 -31.3913
4582.5 28.087
4583.5 52.5652
4584.5 -5.52172
4585.5 51.4348
4586.5 62.6957
4587.5 55.4348
4588.5 64.4348
4589.5 65.9565
4590.5 147
4591.5 62
4592.5 24.3044
4593.5 83.1739
4594.5 19.7391
4595.5 25.3478
4596.5 51.5652
4597.5 4.56524
4598.5 -24.913
4599.5 20.3044
4600.5 15.4783
4601.5 12.3044
4602.5 30.1739
4603.5 -56.3478
4604.5 -7.5652
4605.5 -14.4348
4606.5 20.8696
4607.5 13.9131
4608.5 -38.4782
4609.5 8.60871
4610.5 -34.0435
4611.5 14.3044
4612.5 6.95654
4613.5 -9.43476
4614.5 -0.73911
4615.5 -11.7826
4616.5 -6.30433
4617.5 15.6522
4618.5 23.1305
4619.5 44.7826
4620.5 64.9131
4621.5 35.4783
4622.5 -15.5652
4623.5 69.7826
4624.5 68.5652
4625.5 86.8261
4626.5 12.1739
4627.5 27.2174
4628.5 76.5218
4629.5 52.3913
4630.5 57.5652
4631.5 18.9565
4632.5 15.6522
4633.5 28.087
4634.5 17.3044
4635.5 18.6087
4636.5 22.3478
4637.5 6.6522
4638.5 -34.6522
4639.5 31.8696
4640.5 3.13046
4641.5 44.6087
4642.5 66.7391
4643.5 25.6957
4644.5 -0.391286
4645.5 48.6522
4646.5 0.434802
4647.5 -45.7826
4648.5 17.6087
4649.5 43
4650.5 15.5652
4651.5 20.4348
4652.5 33.9131
4653.5 54.3913
4654.5 -20.7826
4655.5 67
4656.5 20.5652
4657.5 21.6522
4658.5 0.69567
4659.5 0.826105
4660.5 42.2174
4661.5 28.9131
4662.5 42.6522
4663.5 45.4348
4664.5 29.1739
4665.5 54.9565
4666.5 26.6087
4667.5 -7.17389
4668.5 5.21741
4669.5 78.6087
4670.5 31.7391
4671.5 34.8696
4672.5 -3.34781
4673.5 3.17393
4674.5 7.91306
4675.5 13.5218
4676.5 33.5218
4677.5 52.1305
4678.5 5.86958
4679.5 4.47828
4680.5 -6.34781
4681.5 46.9131
4682.5 -22.913
4683.5 -31
4684.5 22.5218
4685.5 47.4783
4686.5 15.1739
4687.5 62.3044
4688.5 51.4348
4689.5 89.2609
4690.5 37
4691.5 66.087
4692.5 34.4783
4693.5 64.9131
4694.5 37.4783
4695.5 3.0435
4696.5 70.1305
4697.5 -7.65216
4698.5 45.1739
4699.5 51.6087
4700.5 11.3913
4701.5 0.826105
4702.5 -21.1739
4703.5 -26.8261
4704.5 42.9565
4705.5 4.52176
4706.5 16.8261
4707.5 -16.4348
4708.5 -49.8261
4709.5 31.6522
4710.5 23.5652
4711.5 -5.30433
4712.5 61.3913
4713.5 8.08698
4714.5 73.0435
4715.5 79.3044
4716.5 91.1305
4717.5 94.8696
4718.5 88.6087
4719.5 44.7826
4720.5 135.174
4721.5 76
4722.5 2.00002
4723.5 56.5652
4724.5 25.1739
4725.5 61.4348
4726.5 22.3913
4727.5 35.7826
4728.5 11.8261
4729.5 41.6522
4730.5 -9.5652
4731.5 46.3044
4732.5 -1.73911
4733.5 6.78263
4734.5 16.1739
4735.5 57.8261
4736.5 10.3913
4737.5 -32.9565
4738.5 -9.13042
4739.5 -53.8261
4740.5 -57.4348
4741.5 -11.6956
4742.5 -19.6522
4743.5 80.6522
4744.5 17.5218
4745.5 13.6957
4746.5 47.0435
4747.5 43.5218
4748.5 109
4749.5 58.1739
4750.5 37.5218
4751.5 40.8696
4752.5 69.6957
4753.5 32.9565
4754.5 -19.2608
4755.5 -12.2174
4756.5 -29.913
4757.5 37.1739
4758.5 34.8261
4759.5 33.4783
4760.5 17.1305
4761.5 -2.91303
4762.5 -36.6956
4763.5 25.3913
4764.5 -25.8261
4765.5 -26.6956
4766.5 -15.6522
4767.5 -7.73911
4768.5 46.5218
4769.5 -6.69563
4770.5 -23.3043
4771.5 -40.0435
4772.5 -24.5652
4773.5 7.21741
4774.5 34.7392
4775.5 60.6957
4776.5 29.3478
4777.5 72.087
4778.5 51.9565
4779.5 22.4783
4780.5 11.4783
4781.5 35.0435
4782.5 16.4783
4783.5 -18.8261
4784.5 -47.913
4785.5 100.13
4786.5 0.869583
4787.5 31.5218
4788.5 9.34784
4789.5 23.0435
4790.5 28.087
4791.5 -8.30433
4792.5 13.8696
4793.5 39.1739
4794.5 91.8261
4795.5 12.4783
4796.5 21.8261
4797.5 39.5218
4798.5 14.7391
4799.5 74.1305
4800.5 94.8696
4801.5 15.9131
4802.5 51.9131
4803.5 50.1739
4804.5 1.95654
4805.5 -4.73911
4806.5 -50.3043
4807.5 -38.4782
4808.5 -25.6521
4809.5 -29.4782
4810.5 -10.7391
4811.5 -70.7826
4812.5 -59.3913
4813.5 55.7826
4814.5 61.3044
4815.5 122.174
4816.5 87.8261
4817.5 130.522
4818.5 143.565
4819.5 136.261
4820.5 81.3044
4821.5 46.7826
4822.5 28
4823.5 35.3044
4824.5 40.6522
4825.5 -17.1304
4826.5 -0.391288
4827.5 -20.0435
4828.5 6.52176
4829.5 3.91306
4830.5 14.1739
4831.5 32.1305
4832.5 21.0435
4833.5 29.3044
4834.5 14
4835.5 69.8696
4836.5 0.913064
4837.5 1.30437
4838.5 50.2609
4839.5 -39.6522
4840.5 50.3478
4841.5 -11.6087
4842.5 70.2174
4843.5 72.9566
4844.5 39.3044
4845.5 -16.5217
4846.5 -3.78258
4847.5 18.9131
4848.5 11.9131
4849.5 3.13045
4850.5 -8.65215
4851.5 -1.34781
4852.5 21.9131
4853.5 47.7391
4854.5 26.0435
4855.5 37.6087
4856.5 26.1305
4857.5 0.260887
4858.5 44.6087
4859.5 34.7826
4860.5 -24.4782
4861.5 -1.08694
4862.5 -18.4348
4863.5 -14.5652
4864.5 -25.8261
4865.5 -69.7391
4866.5 -25.1739
4867.5 11.9131
4868.5 37.8261
4869.5 24.8696
4870.5 40.3478
4871.5 41.8696
4872.5 71.087
4873.5 41.3044
4874.5 97.1739
4875.5 51.0435
4876.5 32.5652
4877.5 75.7826
4878.5 118
4879.5 44
4880.5 17.2609
4881.5 141.304
4882.5 158.217
4883.5 314.696
4884.5 438.826
4885.5 474.174
4886.5 376.261
4887.5 366
4888.5 224.348
4889.5 58.0435
4890.5 4.26089
4891.5 -64.4348
4892.5 25.3913
4893.5 -6.9565
4894.5 -13.7391
4895.5 -24.4348
4896.5 -24.7826
4897.5 -57.3043
4898.5 -78.3478
4899.5 -64.1304
4900.5 -110.304
4901.5 -100.609
4902.5 -35.8261
4903.5 -35.5652
4904.5 58.4348
4905.5 93.7392
4906.5 143.348
4907.5 158
4908.5 219.043
4909.5 198.565
4910.5 250.435
4911.5 247.565
4912.5 213.261
4913.5 86.7391
4914.5 79.8261
4915.5 72.8261
4916.5 24.087
4917.5 57.3044
4918.5 -5.5217
4919.5 -16.2174
4920.5 22.8261
4921.5 -20
4922.5 -63.3913
4923.5 -66.1304
4924.5 -112.13
4925.5 -86.8261
4926.5 -82.7391
4927.5 -91.4782
4928.5 -68
4929.5 -56.4348
4930.5 -67.0869
4931.5 -95.6522
4932.5 -122.043
4933.5 -74.4348
4934.5 -12.6522
4935.5 1.0435
4936.5 -22.3043
4937.5 -0.826069
4938.5 63.3913
4939.5 55.0435
4940.5 99.9131
4941.5 186.087
4942.5 194.348
4943.5 233.391
4944.5 166.435
4945.5 202.478
4946.5 232.174
4947.5 223
4948.5 252.174
4949.5 349.696
4950.5 387.043
4951.5 389.522
4952.5 368.478
4953.5 231.478
4954.5 181.913
4955.5 103.609
4956.5 34.9565
4957.5 -24.913
4958.5 -65.6087
4959.5 -66.5652
4960.5 -70.5652
4961.5 -41
4962.5 -106.783
4963.5 -112.435
4964.5 -81.7826
4965.5 -183.826
4966.5 -129.435
4967.5 -137.13
4968.5 -106.913
4969.5 -123
4970.5 -73.3478
4971.5 -86.7391
4972.5 -46.2174
4973.5 -50.7826
4974.5 -58
4975.5 9.08698
4976.5 21.1739
4977.5 -25.8261
4978.5 58.087
4979.5 -0.391275
4980.5 -6.65215
4981.5 46.9566
4982.5 12.6522
4983.5 -36.2174
4984.5 40
4985.5 -32.4782
4986.5 25.4348
4987.5 -5.5652
4988.5 75.4783
4989.5 -2.39129
4990.5 8.39132
4991.5 2.04349
4992.5 38.3913
4993.5 50.9565
4994.5 -3.13042
4995.5 23
4996.5 28.8261
4997.5 -11.7826
4998.5 13.7826
4999.5 36.3478
5000.5 30.5652
5001.5 25.7826
5002.5 3.26089
5003.5 42.0435
5004.5 4.60872
5005.5 54.087
5006.5 62
5007.5 89.7826
5008.5 84.9131
5009.5 -33.7826
5010.5 29.5218
5011.5 -0.565198
5012.5 29.7826
5013.5 5.0435
5014.5 1.17393
5015.5 -6.52172
5016.5 -9.13042
5017.5 45.5652
5018.5 18.2609
5019.5 25.2174
5020.5 12.6087
5021.5 47.1305
5022.5 7.26089
5023.5 86.4348
5024.5 -27.3478
5025.5 10.1739
5026.5 -2.52172
5027.5 32.2174
5028.5 14.2174
5029.5 50.9131
5030.5 87.1305
5031.5 12
5032.5 -20.2608
5033.5 -59.913
5034.5 4.47829
5035.5 80.4783
5036.5 12.6087
5037.5 6.26089
5038.5 40.8261
5039.5 40.1305
5040.5 90.2609
5041.5 134.043
5042.5 111.348
5043.5 146.913
5044.5 92.8261
5045.5 133.957
5046.5 96.8261
5047.5 85.5218
5048.5 74.7391
5049.5 51.3478
5050.5 -2.1739
5051.5 5.95654
5052.5 5.34784
5053.5 -38.6087
5054.5 0.260886
5055.5 18.3913
5056.5 25.3478
5057.5 -24.4782
5058.5 8.73915
5059.5 -25.5217
5060.5 -33.0435
5061.5 -69.1304
5062.5 4.08698
5063.5 -6.52172
5064.5 19.4348
5065.5 90.3913
5066.5 70.0435
5067.5 138.304
5068.5 169.826
5069.5 144.87
5070.5 146
5071.5 150.435
5072.5 40.7392
5073.5 68
5074.5 86.2174
5075.5 75.6522
5076.5 79.0435
5077.5 86.9131
5078.5 43.4783
5079.5 39
5080.5 44.4348
5081.5 -22.3043
5082.5 -3.65215
5083.5 -30.1739
5084.5 -41.8261
5085.5 -8.21737
5086.5 54.8261
5087.5 -26.2608
5088.5 -20.2608
5089.5 -8.47824
5090.5 32.1305
5091.5 19.087
5092.5 70.4348
5093.5 34.9565
5094.5 106.652
5095.5 22.5652
5096.5 17.1305
5097.5 15.8696
5098.5 56.9565
5099.5 67.4783
5100.5 12.7392
5101.5 -6.39128
5102.5 12.3479
5103.5 -27.7826
5104.5 19.9565
5105.5 -5.99998
5106.5 -14.2609
5107.5 -1.47824
5108.5 7.4348
5109.5 29.7391
5110.5 -31.1739
5111.5 -13.3913
5112.5 13.5652
5113.5 18.6522
5114.5 -32.2174
5115.5 9.69567
5116.5 28.3478
5117.5 52
5118.5 45.4783
5119.5 -6.21737
5120.5 6.52176
5121.5 -30.0869
5122.5 -13.2174
5123.5 -42.2174
5124.5 -65.2174
5125.5 -52.6087
5126.5 6.26089
5127.5 -30.1304
5128.5 -11.0435
5129.5 -40.4348
5130.5 27.2609
5131.5 58.3913
5132.5 35.3478
5133.5 46.4783
5134.5 79.6957
5135.5 83.9131
5136.5 146.261
5137.5 95.7392
5138.5 112.652
5139.5 98.3044
5140.5 24.9131
5141.5 68.7826
5142.5 32.8696
5143.5 53.2174
5144.5 58.087
5145.5 40.087
5146.5 32.8696
5147.5 31.5218
5148.5 60.7391
5149.5 60.9565
5150.5 57.9565
5151.5 36.087
5152.5 19.4783
5153.5 46.3044
5154.5 53.8696
5155.5 18.087
5156.5 49.8696
5157.5 2.00002
5158.5 1.26089
5159.5 1.13046
5160.5 5.34785
5161.5 -13.7391
5162.5 40.7392
5163.5 135.435
5164.5 137.391
5165.5 130.696
5166.5 140.217
5167.5 194.348
5168.5 151.043
5169.5 88.9131
5170.5 57.5218
5171.5 71.087
5172.5 13.7826
5173.5 39.1305
5174.5 48.8696
5175.5 66.5218
5176.5 -9.5652
5177.5 27.4783
5178.5 -80.3913
5179.5 4.65219
5180.5 14.4348
5181.5 14.2174
5182.5 -24.3913
5183.5 -5.91303
5184.5 -23.0869
5185.5 -42.2174
5186.5 7.17393
5187.5 18.3913
5188.5 8.4348
5189.5 -6.78259
5190.5 17.2174
5191.5 28.2609
5192.5 70.3044
5193.5 18.0435
5194.5 24
5195.5 12.3044
5196.5 -26.3043
5197.5 -26.8695
5198.5 -1.47824
5199.5 5.17393
5200.5 30.4348
5201.5 59.4783
5202.5 -22.8261
5203.5 7.82611
5204.5 -16.7826
5205.5 7.82611
5206.5 -6.13042
5207.5 52.9131
5208.5 33.8261
5209.5 31.9131
5210.5 8.26089
5211.5 45.5652
5212.5 30.3478
5213.5 20.8696
5214.5 -20.8261
5215.5 29.7391
5216.5 -10.2174
5217.5 -0.869549
5218.5 29.4783
5219.5 -43.1739
5220.5 19.1305
5221.5 21.3478
5222.5 65.9565
5223.5 26.9131
5224.5 14.6522
5225.5 -3.26085
5226.5 76.3044
5227.5 59.6522
5228.5 74.9131
5229.5 0.956538
5230.5 21.087
5231.5 8.13045
5232.5 5.26089
5233.5 58.1739
5234.5 27.3913
5235.5 46.2174
5236.5 -23.0869
5237.5 55.3044
5238.5 -6.34781
5239.5 -1.04346
5240.5 28.6087
5241.5 31.3044
5242.5 -1.47824
5243.5 -31.2174
5244.5 53.6522
5245.5 26.8696
5246.5 15.9565
5247.5 14.6522
5248.5 -3.43477
5249.5 -41.0869
5250.5 -22.5652
5251.5 42.3044
5252.5 77.8696
5253.5 16.087
5254.5 -0.565202
5255.5 33.7826
5256.5 31.5652
5257.5 -1.13042
5258.5 44.2609
5259.5 -31.2609
5260.5 43.9131
5261.5 25.5652
5262.5 46.8696
5263.5 42.7826
5264.5 -33.0434
5265.5 35.4348
5266.5 29.8696
5267.5 19.3478
5268.5 6.30436
5269.5 82.9131
5270.5 51.8261
5271.5 64.3044
5272.5 30.7391
5273.5 22.2174
5274.5 27.6522
5275.5 55
5276.5 83.4348
5277.5 -21.7826
5278.5 -21.2608
5279.5 27.0435
5280.5 1.56524
5281.5 31.087
5282.5 25
5283.5 45.1739
5284.5 56.4783
5285.5 33.9565
5286.5 12.8261
5287.5 21.6957
5288.5 62.9131
5289.5 24.1739
5290.5 43.6087
5291.5 -24.6956
5292.5 23.7826
5293.5 25.9565
5294.5 15.2609
5295.5 13.3913
5296.5 -24.5652
5297.5 12.4348
5298.5 -14.5652
5299.5 -3.95651
5300.5 29.6522
5301.5 -27.3478
5302.5 9.30437
5303.5 -8.47824
5304.5 16.3044
5305.5 11.087
5306.5 54.4783
5307.5 70.6522
5308.5 46.7826
5309.5 90.1739
5310.5 152.609
5311.5 142.261
5312.5 124.217
5313.5 181.217
5314.5 205.348
5315.5 87.9565
5316.5 46.3913
5317.5 30.2609
5318.5 -1.34781
5319.5 10.9565
5320.5 14.5218
5321.5 -2.13042
5322.5 -26.0869
5323.5 -15.4348
5324.5 -22.6087
5325.5 -41.2174
5326.5 1.0435
5327.5 -54.6522
5328.5 -8.34781
5329.5 -31.8695
5330.5 -26.3478
5331.5 25.9131
5332.5 -26
5333.5 21.3044
5334.5 -62.2609
5335.5 15.0435
5336.5 21.2174
5337.5 12.3913
5338.5 34
5339.5 -20.5217
5340.5 32
5341.5 7.69567
5342.5 16.2174
5343.5 24.7391
5344.5 35.1304
5345.5 7.86958
5346.5 40.4348
5347.5 -2.73911
5348.5 -1.69563
5349.5 -23.2608
5350.5 12.9565
5351.5 -29.5652
5352.5 -34.4782
5353.5 -43.7391
5354.5 -23.2173
5355.5 -27.3043
5356.5 34.3913
5357.5 26.8696
5358.5 -24.3913
5359.5 -15
5360.5 31.4783
5361.5 -24.2609
5362.5 57.3478
5363.5 6.78262
5364.5 -31.1304
5365.5 25.2174
5366.5 51.3478
5367.5 -2.82607
5368.5 5.8261
5369.5 17.3478
5370.5 14.087
5371.5 17
5372.5 15.2609
5373.5 -2.95651
5374.5 18.3044
5375.5 45.9565
5376.5 11.5218
5377.5 3.95654
5378.5 -22.7826
5379.5 17.1304
5380.5 30.3913
5381.5 19.7391
5382.5 16.3913
5383.5 48.6087
5384.5 113.217
5385.5 78.3479
5386.5 18.1305
5387.5 37.5218
5388.5 138.826
5389.5 104.13
5390.5 75.3914
5391.5 152.13
5392.5 259.739
5393.5 429.957
5394.5 702.826
5395.5 850.522
5396.5 1194.09
5397.5 1238.78
5398.5 1117.48
5399.5 606.652
5400.5 303.87
5401.5 95.9131
5402.5 0.565235
5403.5 17.0435
5404.5 -46.4782
5405.5 -51.6522
5406.5 -68.5217
5407.5 -86.6522
5408.5 -95.0435
5409.5 -110.435
5410.5 -161.391
5411.5 -117.304
5412.5 -84.3478
5413.5 -123.261
5414.5 -66.3478
5415.5 -79.8695
5416.5 -51.9565
5417.5 -46.4782
5418.5 -15.913
5419.5 -34.2174
5420.5 -0.13042
5421.5 -50
5422.5 -13.0869
5423.5 23.3478
5424.5 22.3044
5425.5 -49.3043
5426.5 -7.1739
5427.5 7.47827
5428.5 0.391317
5429.5 6.13045
5430.5 -0.999987
5431.5 8.56523
5432.5 -7.91303
5433.5 20.1304
5434.5 13.1739
5435.5 -18.7826
5436.5 12.5218
5437.5 17.6522
5438.5 13.1304
5439.5 -19.3913
5440.5 -29.1739
5441.5 -53.0869
5442.5 -66.8261
5443.5 -77.2174
5444.5 -135.565
5445.5 -97.3478
5446.5 -158.391
5447.5 -63.5217
5448.5 -39.3913
5449.5 4.39132
5450.5 181
5451.5 312.739
5452.5 447.435
5453.5 495.217
5454.5 508.217
5455.5 457.391
5456.5 415.696
5457.5 407.565
5458.5 259.522
5459.5 218.174
5460.5 134.13
5461.5 84.2609
5462.5 27.2609
5463.5 23.8696
5464.5 44.3913
5465.5 -12.6522
5466.5 -51
5467.5 -119.261
5468.5 -80.2174
5469.5 -189.522
5470.5 -160
5471.5 -212.435
5472.5 -168.435
5473.5 -200.261
5474.5 -225.304
5475.5 -158.304
5476.5 -161.261
5477.5 -171.652
5478.5 -144.913
5479.5 -107.87
5480.5 -26.0435
5481.5 -27
5482.5 -21.7391
5483.5 -19.4348
5484.5 -11.9565
5485.5 -38.0869
5486.5 -8.9565
5487.5 44.6957
5488.5 6.2609
5489.5 -22.6521
5490.5 42.3479
5491.5 7.73915
5492.5 -15.0869
5493.5 -20.913
5494.5 -9.34781
5495.5 15.4783
5496.5 -19.3043
5497.5 2.8261
5498.5 -26.7826
5499.5 2.52175
5500.5 -43.9565
5501.5 51.4348
5502.5 -9.99999
5503.5 -35.8696
5504.5 -20.0435
5505.5 11.7391
5506.5 -43.6087
5507.5 -33.1304
5508.5 -111
5509.5 -43.6522
5510.5 -83.5652
5511.5 -17.6522
5512.5 -81.4782
5513.5 -84.4348
5514.5 -72.0869
5515.5 -1.17389
5516.5 30.0435
5517.5 26.7826
5518.5 92.8696
5519.5 38.3478
5520.5 60.6087
5521.5 94.7826
5522.5 103.478
5523.5 143
5524.5 54.0435
5525.5 40.6522
5526.5 24.6957
5527.5 15.8261
5528.5 20.3913
5529.5 2.65219
5530.5 28.0435
5531.5 21.2174
5532.5 11.9131
5533.5 29.8696
5534.5 26.8261
5535.5 4.13045
5536.5 -2.30433
5537.5 7.30437
5538.5 -3.47824
5539.5 -12.5217
5540.5 -80.5217
5541.5 -80.2174
5542.5 -108.435
5543.5 -145.739
5544.5 -90.4782
5545.5 -129.826
5546.5 -75
5547.5 -53.1739
5548.5 -51.6956
5549.5 15.8261
5550.5 27.9131
5551.5 101.696
5552.5 192.87
5553.5 218.217
5554.5 226.087
5555.5 256.739
5556.5 254.043
5557.5 194.652
5558.5 71.8696
5559.5 69.1739
5560.5 49.2174
5561.5 -12
5562.5 -23.7826
5563.5 5.60871
5564.5 26.1739
5565.5 2.00001
5566.5 -43.0869
5567.5 -63.5217
5568.5 -66.7826
5569.5 -9.95651
5570.5 -9.08694
5571.5 -25.7391
5572.5 -25
5573.5 -44.1739
5574.5 -61
5575.5 -93.913
5576.5 -29.5652
5577.5 -52.3913
5578.5 -33.3913
5579.5 -69.8261
5580.5 -13.6087
5581.5 -48.7391
5582.5 -87.4348
5583.5 11.6087
5584.5 40.3913
5585.5 105.304
5586.5 120.565
5587.5 129.043
5588.5 144.522
5589.5 139.478
5590.5 108.652
5591.5 119.957
5592.5 121.826
5593.5 35.4348
5594.5 38.8696
5595.5 -9.95651
5596.5 10.1739
5597.5 -25.6522
5598.5 -31.3913
5599.5 -18.7391
5600.5 -75.6087
5601.5 -64.5217
5602.5 -10.3478
5603.5 -61.5217
5604.5 -46.2174
5605.5 -74.8695
5606.5 -89.6087
5607.5 -8.91303
5608.5 -27.5217
5609.5 -59.5652
5610.5 -28.9565
5611.5 -23.4348
5612.5 -104.956
5613.5 -65.6087
5614.5 -16.5652
5615.5 -33.3478
5616.5 19.1305
5617.5 -15.2174
5618.5 36.9565
5619.5 -9.1739
5620.5 -29.0435
5621.5 -27.0869
5622.5 -26.6522
5623.5 -27.2609
5624.5 -23.3043
5625.5 -23.2609
5626.5 -2.34781
5627.5 -43.3478
5628.5 -9.69564
5629.5 -36.7826
5630.5 -24.0435
5631.5 -33.7391
5632.5 1.91306
5633.5 -52.7391
5634.5 -61.2609
5635.5 -35.8261
5636.5 -56.3043
5637.5 -33.7826
5638.5 -31.1739
5639.5 -39.2174
5640.5 18.1304
5641.5 51.7826
5642.5 42.4348
5643.5 22.0435
5644.5 16.5218
5645.5 6.08697
5646.5 16.9565
5647.5 3.95653
5648.5 -25.7391
5649.5 -41.6522
5650.5 -2.39129
5651.5 -11.913
5652.5 23.2609
5653.5 -27.0869
5654.5 15.1739
5655.5 -3.47825
5656.5 15.7391
5657.5 -3.95651
5658.5 20.3478
5659.5 9.4348
5660.5 58.6522
5661.5 55.5218
5662.5 60.2174
5663.5 35.6957
5664.5 78.1304
5665.5 107.826
5666.5 107.087
5667.5 37.3044
5668.5 14.3478
5669.5 3.78262
5670.5 -39.0435
5671.5 -49.0869
5672.5 -5.65216
5673.5 2.52176
5674.5 26.9131
5675.5 117.913
5676.5 154.913
5677.5 193.217
5678.5 262.435
5679.5 209.348
5680.5 215.913
5681.5 164.261
5682.5 87.087
5683.5 40.4348
5684.5 3.69566
5685.5 -77.5652
5686.5 -50.2609
5687.5 -12.7391
5688.5 -71.3043
5689.5 -28.4782
5690.5 -28.5217
5691.5 -50.9565
5692.5 -52.6522
5693.5 -67.7826
5694.5 -89.2609
5695.5 -69.2174
5696.5 -66.3043
5697.5 -83.9565
5698.5 -59.6522
5699.5 -52.5217
5700.5 -46.5217
5701.5 -85.7391
5702.5 -18.0869
5703.5 0.347837
5704.5 20.5218
5705.5 14.2609
5706.5 5.91305
5707.5 -16.3478
5708.5 -7.99999
5709.5 3.56523
5710.5 -12.6956
5711.5 33.7826
5712.5 1.56523
5713.5 -6.69564
5714.5 -11.3913
5715.5 -30.1304
5716.5 -8.52172
5717.5 -35.9565
5718.5 -13
5719.5 -15.1739
5720.5 -22.5652
5721.5 2.91306
5722.5 32.4348
5723.5 -57.2609
5724.5 -11.7391
5725.5 -11.5652
5726.5 -20.6522
5727.5 6.60871
5728.5 -3.73912
5729.5 -11.5217
5730.5 -20.3913
5731.5 -19.3043
5732.5 -48.913
5733.5 -12.3913
5734.5 11.9565
5735.5 15.1305
5736.5 -7.73912
5737.5 -21.4348
5738.5 18.5652
5739.5 6.13045
5740.5 -7.26086
5741.5 13.087
5742.5 19.5218
5743.5 -19.3043
5744.5 -17.7826
5745.5 -4.69564
5746.5 -8.26086
5747.5 10.3913
5748.5 9.04349
5749.5 6.52175
5750.5 33.3913
5751.5 43.5218
5752.5 9.65219
5753.5 -33.4348
5754.5 -1.73912
5755.5 65.8261
5756.5 -5.08694
5757.5 -12.1739
5758.5 -17.5652
5759.5 -14.7826
5760.5 13.5217
5761.5 -1.91303
5762.5 14.3478
5763.5 -0.956511
5764.5 -18.2609
5765.5 -32.6956
5766.5 11.1304
5767.5 -41.7826
5768.5 -44.1304
5769.5 7.43479
5770.5 -65.6522
5771.5 -49
5772.5 -22.1304
5773.5 22.7391
5774.5 14.6087
5775.5 19.4783
5776.5 36.8261
5777.5 21.9565
5778.5 66.3044
5779.5 44.4348
5780.5 60.087
5781.5 97.1739
5782.5 27.4783
5783.5 15.1739
5784.5 36.8696
5785.5 13.1304
5786.5 20.8261
5787.5 17.8696
5788.5 10.4783
5789.5 2.8261
5790.5 -6.86955
5791.5 24.5218
5792.5 1.69566
5793.5 -9.52173
5794.5 -7.82608
5795.5 -39.2174
5796.5 -20.8696
5797.5 16.2609
5798.5 -30.1739
5799.5 -7.82608
5800.5 27.5217
5801.5 11.3478
5802.5 -24.3043
5803.5 -27.1304
5804.5 -16.4783
5805.5 -2.52173
5806.5 18.7826
5807.5 23.6522
5808.5 18.6522
5809.5 9.39131
5810.5 -11.1304
5811.5 14.087
5812.5 23.5652
5813.5 20.3044
5814.5 32.3913
5815.5 24.3913
5816.5 39.6087
5817.5 15.5652
5818.5 -11.1304
5819.5 -1.56521
5820.5 -22.6956
5821.5 27.5652
5822.5 0.173923
5823.5 24.1739
5824.5 36.7826
5825.5 3.34784
5826.5 6.8261
5827.5 37.7826
5828.5 26.5652
5829.5 12.4348
5830.5 -72.6522
5831.5 -14.4348
5832.5 -10.3913
5833.5 -28.3478
5834.5 -33.2174
5835.5 -22.4348
5836.5 -27.5652
5837.5 -4.47825
5838.5 -14.3913
5839.5 -11.5217
5840.5 -34.5217
5841.5 -34.4782
5842.5 -35.8261
5843.5 27.1305
5844.5 31.8696
5845.5 -45.9565
5846.5 12.2174
5847.5 6.26088
5848.5 -17.2609
5849.5 -8.04347
5850.5 -26.5652
5851.5 8.34784
5852.5 -14.9565
5853.5 18.4348
5854.5 23.4783
5855.5 17.6522
5856.5 -4.26086
5857.5 26.6522
5858.5 22.3044
5859.5 -21.6956
5860.5 33.2609
5861.5 -27.9565
5862.5 3.47827
5863.5 -21.1739
5864.5 5.95653
5865.5 -15.8261
5866.5 -14
5867.5 -19.3913
5868.5 -0.608687
5869.5 9.00001
5870.5 17.087
5871.5 30.7826
5872.5 -1.52173
5873.5 -5.7826
5874.5 -9.65217
5875.5 14.2609
5876.5 17.7826
5877.5 20.8696
5878.5 23.6957
5879.5 63.3913
5880.5 30.8261
5881.5 42.6087
5882.5 42.8261
5883.5 38.9131
5884.5 46.2609
5885.5 12.2174
5886.5 29.7391
5887.5 -4.1739
5888.5 -10.2609
5889.5 -23.8696
5890.5 -18.8261
5891.5 20.4783
5892.5 -41.7391
5893.5 -27.6956
5894.5 64.9131
5895.5 -18.4348
5896.5 -13.3478
5897.5 -32.0434
5898.5 -9.39125
5899.5 -79.7391
5900.5 -7.99992
5901.5 -12.4347
5902.5 2.47831
5903.5 43.0435
5904.5 -25.3913
5905.5 -20.6522
5906.5 31.5218
5907.5 40.0435
5908.5 13.9565
5909.5 10.7826
5910.5 36.8261
5911.5 -35.2609
5912.5 28.2174
5913.5 11.4348
5914.5 24.3044
5915.5 -3.91303
5916.5 27.5652
5917.5 20.8696
5918.5 21.7391
5919.5 18.6957
5920.5 5.00001
5921.5 8.43479
5922.5 11.3913
5923.5 -8.52173
5924.5 15.5217
5925.5 -20.6522
5926.5 -30.7391
5927.5 -23.9565
5928.5 -7.3913
5929.5 -11
5930.5 -61.6956
5931.5 -7.43477
5932.5 -6.26086
5933.5 2.34783
5934.5 -4.82608
5935.5 -9.1739
5936.5 -18.913
5937.5 -11.7391
5938.5 8.86957
5939.5 22.2609
5940.5 11.4348
5941.5 2.52175
5942.5 2.65218
5943.5 4.04349
5944.5 30.5217
5945.5 13.0435
5946.5 26.9565
5947.5 8.86957
5948.5 6.17392
5949.5 17.3478
5950.5 6.26088
5951.5 13.9565
5952.5 0.608703
5953.5 -4.82608
5954.5 26.1739
5955.5 4.47827
5956.5 -23.3478
5957.5 -1.34782
5958.5 -4.26086
5959.5 -2.13043
5960.5 -13.1304
5961.5 -19.6956
5962.5 -4.30434
5963.5 -15.6522
5964.5 -46.7826
5965.5 6.73914
5966.5 -3.73912
5967.5 14.5652
5968.5 -12.8695
5969.5 -1.52172
5970.5 75.9565
5971.5 37.8261
5972.5 76.087
5973.5 111.739
5974.5 130.435
5975.5 119.348
5976.5 92.5217
5977.5 93.9565
5978.5 66.0435
5979.5 72.7391
5980.5 74.8261
5981.5 30.6957
5982.5 0.260877
5983.5 2.78262
5984.5 -2.73912
5985.5 -36.5652
5986.5 -59.0435
5987.5 -50.7826
5988.5 -61.6956
5989.5 -89.913
5990.5 -24.6956
5991.5 -66.3913
5992.5 -26.2174
5993.5 -25.2174
5994.5 -28.6956
5995.5 -17.7826
5996.5 -6.04346
5997.5 32.4348
5998.5 5.86959
5999.5 -33.5652
6000.5 49.2609
6001.5 22.8261
6002.5 -44.3043
6003.5 -38.5652
6004.5 -19.5217
6005.5 35.7391
6006.5 8.78262
6007.5 -1.60869
6008.5 -15.7391
6009.5 8.95653
6010.5 -5.56521
6011.5 -29.6087
6012.5 11.2174
6013.5 30.6522
6014.5 -6.13043
6015.5 -32.7391
6016.5 -5.43477
6017.5 -1.26086
6018.5 -37.8696
6019.5 10.0435
6020.5 34.087
6021.5 -27.4348
6022.5 3.17392
6023.5 -52.5652
6024.5 -41.9565
6025.5 -38.5652
6026.5 -35.6522
6027.5 10.6087
6028.5 2.95653
6029.5 33.7826
6030.5 68.7391
6031.5 109.522
6032.5 137.261
6033.5 202.565
6034.5 212.609
6035.5 171.044
6036.5 69.7392
6037.5 78.9565
6038.5 78.8696
6039.5 53.7826
6040.5 6.13044
6041.5 26.7826
6042.5 31.7391
6043.5 -6.34782
6044.5 -23.9565
6045.5 -60.2609
6046.5 -34.5652
6047.5 -40.2609
6048.5 -44.913
6049.5 -41.8261
6050.5 -83.7826
6051.5 -51.7826
6052.5 -65.3043
6053.5 -51.2609
6054.5 -57.7391
6055.5 -49.0435
6056.5 -74.3913
6057.5 -40.1304
6058.5 -17.913
6059.5 -35.6087
6060.5 -22.4348
6061.5 -6.17391
6062.5 -16.6956
6063.5 -7.99999
6064.5 -4.13043
6065.5 10.6087
6066.5 6.17392
6067.5 21.3044
6068.5 30.0435
6069.5 29.5652
6070.5 -15.3043
6071.5 11.7391
6072.5 28.6522
6073.5 -5.21739
6074.5 -24.3043
6075.5 -19.1304
6076.5 21.0435
6077.5 13.7826
6078.5 -22.2174
6079.5 8.13044
6080.5 -13.913
6081.5 17.3913
6082.5 -0.260864
6083.5 17.3044
6084.5 7.6087
6085.5 -8.73912
6086.5 -14.6087
6087.5 -34.3478
6088.5 -29.4783
6089.5 -19.1304
6090.5 -15.7391
6091.5 -43.1304
6092.5 -22.7826
6093.5 -10.3043
6094.5 -9.56521
6095.5 29.9565
6096.5 48.7391
6097.5 88.2609
6098.5 146.087
6099.5 159.739
6100.5 89.6522
6101.5 148.957
6102.5 134.696
6103.5 69.6957
6104.5 27.1739
6105.5 46.7391
6106.5 14.1739
6107.5 -14.5652
6108.5 5.04349
6109.5 15.2174
6110.5 -54.3043
6111.5 -1.78259
6112.5 3.78262
6113.5 -0.782595
6114.5 -58.3913
6115.5 -60.8696
6116.5 -48.7826
6117.5 -26.3913
6118.5 14.2174
6119.5 -2.52173
6120.5 -24.913
6121.5 7.17393
6122.5 -3.99997
6123.5 18.5218
6124.5 2.17395
6125.5 0.260905
6126.5 26.3479
6127.5 -41.3043
6128.5 1.52175
6129.5 -22.4348
6130.5 -16.5217
6131.5 -3.7826
6132.5 14.8261
6133.5 -38.3043
6134.5 -7.47825
6135.5 0.304354
6136.5 -33.3913
6137.5 -30.7826
6138.5 -13.0435
6139.5 -26.6087
6140.5 10
6141.5 -5.30434
6142.5 -29.8261
6143.5 5.04348
6144.5 3.52175
6145.5 1.08696
6146.5 -17.3478
6147.5 -12.8696
6148.5 15.2609
6149.5 10.2609
6150.5 2.52175
6151.5 12.8261
6152.5 35
6153.5 44.6087
6154.5 34.4783
6155.5 69.2609
6156.5 34.8261
6157.5 45.5217
6158.5 32.6087
6159.5 2.69566
6160.5 -16.1304
6161.5 8.65218
6162.5 28.7391
6163.5 -24.913
6164.5 -3.34782
6165.5 -7.3913
6166.5 -11.4348
6167.5 -11.2174
6168.5 -15.087
6169.5 16.8696
6170.5 10.1739
6171.5 -13.3478
6172.5 1.30435
6173.5 -15.1739
6174.5 29.7391
6175.5 11.1739
6176.5 18.7826
6177.5 2.95653
6178.5 -18.087
6179.5 -4.04347
6180.5 13.5652
6181.5 4.56522
6182.5 15.2174
6183.5 21.7391
6184.5 1.2174
6185.5 15.4783
6186.5 3.73914
6187.5 -2.43477
6188.5 8.82609
6189.5 -14.5652
6190.5 2.78261
6191.5 -6.91304
6192.5 -14.1739
6193.5 2.47827
6194.5 8.65218
6195.5 -15.7391
6196.5 -21.087
6197.5 10.2174
6198.5 -34.2609
6199.5 -33.7391
6200.5 -18.3478
6201.5 -10.2174
6202.5 26.7826
6203.5 28.8696
6204.5 8.95653
6205.5 21.5217
6206.5 8.43479
6207.5 12.4348
6208.5 2.52174
6209.5 16.1304
6210.5 6.95653
6211.5 18.1739
6212.5 5.26087
6213.5 21.3044
6214.5 -13.6956
6215.5 7.26087
6216.5 4.17392
6217.5 -15.0435
6218.5 -41.3478
6219.5 -11.3913
6220.5 5.08696
6221.5 -16.5652
6222.5 -14.5217
6223.5 -0.565208
6224.5 36.7826
6225.5 -11.5652
6226.5 -18.6522
6227.5 -0.782599
6228.5 -28.4783
6229.5 -14.6522
6230.5 0.217398
6231.5 -3.65217
6232.5 20.1739
6233.5 -19.3043
6234.5 -17
6235.5 -3.21739
6236.5 1.56522
6237.5 -26.6956
6238.5 -6.34782
6239.5 -25.1304
6240.5 -28.4348
6241.5 -49.3478
6242.5 2.30435
6243.5 -9.86956
6244.5 2.43479
6245.5 10.1739
6246.5 32.6522
6247.5 39.2174
6248.5 35.3044
6249.5 63.087
6250.5 33.4348
6251.5 16.8696
6252.5 31.9565
6253.5 37
6254.5 19.6522
6255.5 25.3913
6256.5 52.6957
6257.5 -13
6258.5 7.78262
6259.5 27.8696
6260.5 41.7826
6261.5 33.0435
6262.5 1.08696
6263.5 -17.3478
6264.5 -40.1739
6265.5 -14.3478
6266.5 -3.47826
6267.5 -32.0435
6268.5 -13.3913
6269.5 -18.7391
6270.5 -6.21739
6271.5 22.8696
6272.5 -28.8261
6273.5 -13.2609
6274.5 2.52174
6275.5 -39.5217
6276.5 -5.7826
6277.5 -28.5217
6278.5 -18.8696
6279.5 21.2609
6280.5 -27.2174
6281.5 -27.2174
6282.5 -6.56521
6283.5 -21.913
6284.5 -33.9565
6285.5 9.65218
6286.5 15.5217
6287.5 21.6957
6288.5 28
6289.5 26.6957
6290.5 16.7391
6291.5 19.3478
6292.5 2.78261
6293.5 -7.86956
6294.5 4.39131
6295.5 -22.9565
6296.5 -7.04347
6297.5 1.26087
6298.5 -14
6299.5 27.5217
6300.5 16.2609
6301.5 8.2174
6302.5 14.8696
6303.5 0.173918
6304.5 11
6305.5 20.1304
6306.5 -4.56521
6307.5 15.6522
6308.5 4.30435
6309.5 19.3478
6310.5 7.86957
6311.5 -12.5652
6312.5 -6.52173
6313.5 -17
6314.5 -17.8696
6315.5 -24.4783
6316.5 -28.2174
6317.5 -14.4348
6318.5 -8.3913
6319.5 -28.1739
6320.5 3.30435
6321.5 54.1739
6322.5 29.2609
6323.5 29.2174
6324.5 72.6957
6325.5 75.3913
6326.5 50.1739
6327.5 54.5217
6328.5 46.4348
6329.5 30.4348
6330.5 5.69566
6331.5 39.7826
6332.5 16.087
6333.5 -18.2609
6334.5 -7.91304
6335.5 -21.3478
6336.5 -16.8696
6337.5 -12.2609
6338.5 -10.6522
6339.5 -18.8696
6340.5 -19.6522
6341.5 -10.5652
6342.5 -41.087
6343.5 -33.5217
6344.5 -13.3043
6345.5 -8.82608
6346.5 -16.3913
6347.5 7.6087
6348.5 4.47827
6349.5 -25.2609
6350.5 0.695658
6351.5 -2.69565
6352.5 -4.17391
6353.5 6.2174
6354.5 -3.17391
6355.5 1.26087
6356.5 -1.95652
6357.5 1.47827
6358.5 -8.21739
6359.5 4.2174
6360.5 24.913
6361.5 15
6362.5 -1.52173
6363.5 12.4348
6364.5 12.087
6365.5 -10.7826
6366.5 -13.7826
6367.5 5.39131
6368.5 -6.30434
6369.5 -25.1739
6370.5 2.04348
6371.5 6.65218
6372.5 -14.087
6373.5 -21.1739
6374.5 5.91305
6375.5 -7.52173
6376.5 -15.1739
6377.5 -7.56521
6378.5 -9.04347
6379.5 -3.47826
6380.5 9.69566
6381.5 -5.91304
6382.5 -19.5652
6383.5 1.13044
6384.5 -8.47826
6385.5 -6.7826
6386.5 -3.82608
6387.5 -13.5217
6388.5 10.7391
6389.5 -26.9565
6390.5 3.13044
6391.5 -4.3913
6392.5 -14.8696
6393.5 7.95653
6394.5 21.7826
6395.5 17
6396.5 16.9565
6397.5 15.3913
6398.5 43.6522
6399.5 22.913
6400.5 -1.47826
6401.5 6.17392
6402.5 11.4348
6403.5 -3.60869
6404.5 30.2174
6405.5 10.7391
6406.5 11.8261
6407.5 -4.47826
6408.5 -10.7391
6409.5 -12
6410.5 -3.21739
6411.5 -1.08695
6412.5 -2.56521
6413.5 -0.86956
6414.5 8.39131
6415.5 -19.2609
6416.5 -7.95652
6417.5 1.04348
6418.5 -14.8696
6419.5 -16.6956
6420.5 -34.913
6421.5 26.6087
6422.5 -3.3913
6423.5 -8.52173
6424.5 -2.17391
6425.5 4.86957
6426.5 15.6522
6427.5 -21.5652
6428.5 -5.04347
6429.5 -4.73913
6430.5 0.391309
6431.5 25.3913
6432.5 12.5217
6433.5 0.913048
6434.5 -8.13043
6435.5 6.86957
6436.5 20.4783
6437.5 -3.3913
6438.5 -8.08695
6439.5 5.30435
6440.5 -21.6087
6441.5 13.8696
6442.5 -3.7826
6443.5 8.04348
6444.5 6.34783
6445.5 -26.5652
6446.5 14.6522
6447.5 -23
6448.5 -10.1304
6449.5 27.6522
6450.5 -7.52173
6451.5 16.5217
6452.5 8.13044
6453.5 -1.52173
6454.5 22
6455.5 52.7826
6456.5 17.7826
6457.5 27.5652
6458.5 42.087
6459.5 30.1739
6460.5 19.8261
6461.5 46.6522
6462.5 17.8261
6463.5 49.087
6464.5 26.6957
6465.5 6.43479
6466.5 19.6522
6467.5 30.8261
6468.5 -5.30434
6469.5 -34.0435
6470.5 11.6087
6471.5 -28.0435
6472.5 -8.04347
6473.5 14.1304
6474.5 -2.7826
6475.5 -40.4783
6476.5 -23.5217
6477.5 -48.2174
6478.5 -7.13042
6479.5 -39.1304
6480.5 -45.8696
6481.5 -6.13042
6482.5 -16.6522
6483.5 4.65218
6484.5 7.47827
6485.5 36.4783
6486.5 30.3478
6487.5 25.6522
6488.5 35.2174
6489.5 71.6087
6490.5 29.7391
6491.5 19.1304
6492.5 12.3478
6493.5 12.4348
6494.5 8.69566
6495.5 -3.26087
6496.5 -3.30434
6497.5 -2.91304
6498.5 1.65218
6499.5 -4.65217
6500.5 -1.91304
6501.5 -29.5217
6502.5 -11.4348
6503.5 -7.04347
6504.5 -11.5217
6505.5 -18.2609
6506.5 0.521743
6507.5 -23.2174
6508.5 0.173917
6509.5 -7.17391
6510.5 -27.5217
6511.5 -8.26087
6512.5 -7.82608
6513.5 16.5652
6514.5 -12.7826
6515.5 17.6522
6516.5 -7.47826
6517.5 15.4348
6518.5 -3.60869
6519.5 2.30435
6520.5 6.26087
6521.5 -5.34782
6522.5 1.86957
6523.5 -0.260866
6524.5 18.7826
6525.5 15.4783
6526.5 12.8261
6527.5 -1.30434
6528.5 3.08696
6529.5 -2.91304
6530.5 9.47826
6531.5 15.2609
6532.5 -6.86956
6533.5 2.30435
6534.5 3.86957
6535.5 -2.47826
6536.5 2.26087
6537.5 11.2174
6538.5 3.82609
6539.5 -13.7826
6540.5 -6.56521
6541.5 30.1304
6542.5 13.8261
6543.5 -48.2609
6544.5 -47.913
6545.5 24.3044
6546.5 -26.913
6547.5 3.21741
6548.5 -3.82607
6549.5 8.13044
6550.5 -4.34782
6551.5 -22.913
6552.5 4.17392
6553.5 -29.4783
6554.5 11.4348
6555.5 6.95653
6556.5 7.91305
6557.5 -13.9565
6558.5 4.17392
6559.5 7.2174
6560.5 -9.60869
6561.5 42.3044
6562.5 -13.6087
6563.5 -30.5217
6564.5 -12.4348
6565.5 49.1304
6566.5 13.8261
6567.5 20.4783
6568.5 -11.2609
6569.5 -4.7826
6570.5 4.95653
6571.5 6
6572.5 18.2174
6573.5 7.17392
6574.5 0.0434819
6575.5 13.7391
6576.5 25.4348
6577.5 -3.04347
6578.5 5.13044
6579.5 6.39131
6580.5 -10.4348
6581.5 -3.91304
6582.5 4.34783
6583.5 16.4783
6584.5 8.04348
6585.5 6.78261
6586.5 -7.73913
6587.5 7.95653
6588.5 -2.7826
6589.5 11.1739
6590.5 -4.52174
6591.5 -2.08695
6592.5 3.34783
6593.5 11.8261
6594.5 11.3913
6595.5 -19.6087
6596.5 2.95653
6597.5 7.91305
6598.5 14.9565
6599.5 13.3913
6600.5 -13.1304
6601.5 1.95653
6602.5 -13.2609
6603.5 -3.47826
6604.5 -1.82608
6605.5 -14.6522
6606.5 -2.95652
6607.5 8.34783
6608.5 -2.86956
6609.5 -4.08695
6610.5 12.5217
6611.5 -6.52173
6612.5 14.6957
6613.5 2.6087
6614.5 -3.82608
6615.5 9.34783
6616.5 -9
6617.5 11.1739
6618.5 1.65218
6619.5 8.78261
6620.5 12.8696
6621.5 19.8261
6622.5 5.69566
6623.5 4.30435
6624.5 -0.869561
6625.5 -5.65217
6626.5 -2.95652
6627.5 15.6957
6628.5 -2.21739
6629.5 -14.6956
6630.5 4.47826
6631.5 -26.1739
6632.5 17.7391
6633.5 0.173917
6634.5 8.47826
6635.5 4
6636.5 24.7826
6637.5 13.7391
6638.5 13.3913
6639.5 3.34783
6640.5 -5.13043
6641.5 6.73913
6642.5 14.2174
6643.5 -10.6956
6644.5 13.087
6645.5 -5.7826
6646.5 8.86957
6647.5 6.78261
6648.5 -10.1739
6649.5 -5.73913
6650.5 -23.4348
6651.5 -4.82608
6652.5 13.4348
6653.5 5.47827
6654.5 -7.3913
6655.5 -5.13043
6656.5 4.6087
6657.5 4.08696
6658.5 -9.69565
6659.5 -1.91304
6660.5 7.34783
6661.5 2.56522
6662.5 7.34783
6663.5 -7
6664.5 10.6087
6665.5 -12.913
6666.5 -15.0435
6667.5 13.913
6668.5 4.39131
6669.5 6.78261
6670.5 7
6671.5 1.6087
6672.5 36.7826
6673.5 3.21739
6674.5 13.3044
6675.5 19.4348
6676.5 25.6957
6677.5 9.86957
6678.5 13.1739
6679.5 8.21739
6680.5 28.087
6681.5 2.82609
6682.5 -6.21739
6683.5 15.5217
6684.5 19.7391
6685.5 0.434786
6686.5 3.91305
6687.5 -0.217387
6688.5 -2.47826
6689.5 26.1739
6690.5 23.1304
6691.5 10.1739
6692.5 -9.91304
6693.5 8.86957
6694.5 23.3478
6695.5 7.91306
6696.5 24.8261
6697.5 -10.8261
6698.5 4.56523
6699.5 15.6087
6700.5 33.0435
6701.5 15.9565
6702.5 13.5652
6703.5 0.0869614
6704.5 -10.0435
6705.5 -10.7391
6706.5 -37.2609
6707.5 -34.3913
6708.5 -15.087
6709.5 0.434787
6710.5 2.17392
6711.5 -19.6956
6712.5 12.4783
6713.5 -0.565213
6714.5 -7.7826
6715.5 -15.2609
6716.5 -19.6956
6717.5 -14.9565
6718.5 -11.7391
6719.5 -27.9565
6720.5 16.4783
6721.5 -17.1739
6722.5 -0.521735
6723.5 -11.913
6724.5 -21.6956
6725.5 9.30435
6726.5 5.34783
6727.5 -5.26087
6728.5 -12.0435
6729.5 -11.6522
6730.5 -1.95652
6731.5 12.4348
6732.5 21.5217
6733.5 18.8261
6734.5 5.52174
6735.5 9.86957
6736.5 -2.56521
6737.5 -1.47826
6738.5 14.3913
6739.5 -15.3913
6740.5 -4.17391
6741.5 4.82609
6742.5 0.565221
6743.5 -9.34782
6744.5 -12.4783
6745.5 10.6957
6746.5 2
6747.5 -15.1739
6748.5 -21.5217
6749.5 -19.1739
6750.5 3.65218
6751.5 9.91305
6752.5 -27.1739
6753.5 -26.7826
6754.5 -11.5217
6755.5 -4.65217
6756.5 -35.087
6757.5 45.3913
6758.5 18.1739
6759.5 52.3478
6760.5 57.8261
6761.5 93.3044
6762.5 76.4783
6763.5 69.6087
6764.5 55.5652
6765.5 50.913
6766.5 38.8696
6767.5 23.2609
6768.5 37.8696
6769.5 19.1304
6770.5 0.391313
6771.5 -11
6772.5 -8.34782
6773.5 -16.1739
6774.5 -11.0435
6775.5 -7.21739
6776.5 -25.3913
6777.5 -62.4348
6778.5 -37.5217
6779.5 -22.2174
6780.5 -43.6087
6781.5 -51.6087
6782.5 -26.8696
6783.5 -46.1739
6784.5 -33.5217
6785.5 -23.3478
6786.5 -24
6787.5 -7.3913
6788.5 -20.7826
6789.5 -32.4348
6790.5 -30.9565
6791.5 -12.4348
6792.5 -5.95652
6793.5 -21.0435
6794.5 10.4783
6795.5 -15.913
6796.5 -6.65217
6797.5 8.73913
6798.5 25.9565
6799.5 -8.30434
6800.5 24.8696
6801.5 13.8696
6802.5 5.30435
6803.5 14.6522
6804.5 0.0434828
6805.5 -1.26087
6806.5 -6.86956
6807.5 3.91305
6808.5 -7.91304
6809.5 23.913
6810.5 12.6957
6811.5 55.7826
6812.5 61.1304
6813.5 82.1739
6814.5 108.435
6815.5 99.3478
6816.5 79.3478
6817.5 54.2174
6818.5 48.3913
6819.5 45.2174
6820.5 29.5217
6821.5 12.7826
6822.5 -7.43478
6823.5 1.78261
6824.5 -40.9565
6825.5 -12.3478
6826.5 0.391308
6827.5 -21.8261
6828.5 -20.4783
6829.5 -14.0435
6830.5 -41.3043
6831.5 -1.86956
6832.5 -22.0435
6833.5 -24.1739
6834.5 -11.3478
6835.5 -5.43478
6836.5 -26.6087
6837.5 -2.04347
6838.5 -21.3043
6839.5 -13.7391
6840.5 5.43479
6841.5 -28.1304
6842.5 -22.3913
6843.5 11.087
6844.5 1.43479
6845.5 -15.2174
6846.5 -9.56521
6847.5 -2.47826
6848.5 6.95653
6849.5 -7.52174
6850.5 4.30435
6851.5 -10.2609
6852.5 9.78261
6853.5 -1.86956
6854.5 -16.2174
6855.5 -22.2174
6856.5 -1.04347
6857.5 -20.4348
6858.5 8.56522
6859.5 1.65218
6860.5 -9.60869
6861.5 18.4783
6862.5 -9.43478
6863.5 17.6087
6864.5 -7.13043
6865.5 -9.52174
6866.5 20
6867.5 19
6868.5 35
6869.5 13.6087
6870.5 22
6871.5 39.2609
6872.5 10
6873.5 2.39131
6874.5 17.5217
6875.5 24.2609
6876.5 13.5217
6877.5 20.2609
6878.5 -21.2174
6879.5 -14.2609
6880.5 2.13044
6881.5 3
6882.5 10.3913
6883.5 -30.5652
6884.5 -9.60869
6885.5 -2.17391
6886.5 -14.3913
6887.5 1.47826
6888.5 8.26087
6889.5 -1.56521
6890.5 -3.3913
6891.5 -6.52174
6892.5 0.304351
6893.5 -3.30434
6894.5 -8.21739
6895.5 -17.3913
6896.5 -2.52174
6897.5 14.1739
6898.5 -2.73913
6899.5 -21.6956
6900.5 -0.608691
6901.5 -1.3913
6902.5 2.04348
6903.5 26.3044
6904.5 23.1739
6905.5 -3.3913
6906.5 33.7826
6907.5 12.3044
6908.5 37.1739
6909.5 40.1304
6910.5 15.087
6911.5 9.2174
6912.5 -0.347822
6913.5 9.34783
6914.5 -4.95652
6915.5 14.087
6916.5 -12.3043
6917.5 -6.47826
6918.5 -18
6919.5 -2.30434
6920.5 17.1739
6921.5 -13.2609
6922.5 -1.3913
6923.5 7.73913
6924.5 8.82609
6925.5 -24.2174
6926.5 -15.913
6927.5 -4.43478
6928.5 -6.56521
6929.5 -21.6522
6930.5 -9.73913
6931.5 -18.3913
6932.5 -25.4783
6933.5 12.9565
6934.5 4.2174
6935.5 3.17392
6936.5 -10.9565
6937.5 -8.26086
6938.5 -1.91304
6939.5 -6.60869
6940.5 -3.04347
6941.5 -9.17391
6942.5 -19.1304
6943.5 6.39131
6944.5 -2.3913
6945.5 -10.0435
6946.5 4.34783
6947.5 -8.86956
6948.5 8.86957
6949.5 -6.21739
6950.5 1.30435
6951.5 -22.5652
6952.5 -10.5217
6953.5 -3.13043
6954.5 8.13044
6955.5 2.13044
6956.5 -0.217388
6957.5 -25.5217
6958.5 -21.3913
6959.5 -4.69565
6960.5 -15.2174
6961.5 -6.78261
6962.5 7.43479
6963.5 -19.7826
6964.5 -1.95652
6965.5 25.8261
6966.5 21.1304
6967.5 25.4348
6968.5 66.1739
6969.5 72.087
6970.5 60.0435
6971.5 76.5652
6972.5 83.8696
6973.5 43.1739
6974.5 25.1739
6975.5 32.1304
6976.5 15.3478
6977.5 21.1304
6978.5 -9.82608
6979.5 -1.60869
6980.5 -9.65217
6981.5 9.65218
6982.5 -31.7826
6983.5 -23.5652
6984.5 -16.6956
6985.5 -27
6986.5 -27.9565
6987.5 -25.913
6988.5 -29.6087
6989.5 -38.3913
6990.5 -39.3043
6991.5 -11.9565
6992.5 -26.3043
6993.5 -15.5217
6994.5 -6.04348
6995.5 -12.8261
6996.5 0.0434811
6997.5 -8.86956
6998.5 -15.6956
6999.5 6.39131
7000.5 2.30435
7001.5 7.26087
7002.5 -19.7826
7003.5 10.913
7004.5 -12.087
7005.5 5.82609
7006.5 8.17392
7007.5 1.6087
7008.5 -9.3913
7009.5 14.9565
7010.5 -10.2609
7011.5 6.65218
7012.5 21.6087
7013.5 31.2609
7014.5 -8.3913
7015.5 0.956524
7016.5 3.34783
7017.5 -8.91304
7018.5 -7.60869
7019.5 6.04348
7020.5 -0.304345
7021.5 -2.13043
7022.5 13.7391
7023.5 -3.13043
7024.5 -9.73913
7025.5 -13.913
7026.5 2.91305
7027.5 -5.78261
7028.5 -5.52174
7029.5 16.2609
7030.5 12.913
7031.5 6.86957
7032.5 5.08696
7033.5 -1.21739
7034.5 7.78261
7035.5 -8.65217
7036.5 -13.8261
7037.5 -3.30434
7038.5 -7.13043
7039.5 -0.999997
7040.5 -0.521736
7041.5 7.47826
7042.5 -9.26087
7043.5 13.1304
7044.5 8
7045.5 13.0435
7046.5 -6.60869
7047.5 16.2174
7048.5 -6.52174
7049.5 -0.304345
7050.5 -7.30434
7051.5 -10.1739
7052.5 -2.60869
7053.5 -7.86956
7054.5 12
7055.5 -0.782606
7056.5 14.3478
7057.5 -19.1739
7058.5 -4
7059.5 -6.3913
7060.5 11.913
7061.5 -0.0869532
7062.5 -11
7063.5 -24.5652
7064.5 10.3478
7065.5 -2
7066.5 18.4348
7067.5 12.6522
7068.5 3.95652
7069.5 -0.0434754
7070.5 2.69566
7071.5 -5.43478
7072.5 3.82609
7073.5 2.39131
7074.5 -11.6956
7075.5 -1.78261
7076.5 1.95652
7077.5 3.65218
7078.5 3.65218
7079.5 5.43479
7080.5 -4.69565
7081.5 -12.2609
7082.5 -13.2609
7083.5 -2.08695
7084.5 -7.60869
7085.5 -10.5217
7086.5 -12.087
7087.5 21.3478
7088.5 -0.0434752
7089.5 -10.1739
7090.5 -15.0435
7091.5 -3.69565
7092.5 6.13044
7093.5 -22.913
7094.5 -5.26087
7095.5 15
7096.5 3.43479
7097.5 -2.65217
7098.5 -9.3913
7099.5 -2.56521
7100.5 0.782611
7101.5 -1.43478
7102.5 -6.60869
7103.5 -17.7391
7104.5 14.1304
7105.5 3.69565
7106.5 -21.0435
7107.5 7.08696
7108.5 -6.47826
7109.5 13.2174
7110.5 -0.217389
7111.5 -1.52174
7112.5 3.39131
7113.5 -5.60869
7114.5 31.087
7115.5 4.30435
7116.5 -23.087
7117.5 5.34783
7118.5 -7.65217
7119.5 -9.7826
7120.5 -6.30434
7121.5 3.04348
7122.5 4.82609
7123.5 12.4348
7124.5 -16.8696
7125.5 31.087
7126.5 24.1304
7127.5 26.8696
7128.5 12.913
7129.5 23.6957
7130.5 14.3913
7131.5 6.91305
7132.5 4.43479
7133.5 4.34783
7134.5 14.4348
7135.5 5.69566
7136.5 -0.130432
7137.5 -18.2609
7138.5 -16.3913
7139.5 11.4348
7140.5 12.5217
7141.5 17.3044
7142.5 -6.17391
7143.5 -11.6087
7144.5 -15.0435
7145.5 17.7391
7146.5 -23.087
7147.5 3.56522
7148.5 -10.1304
7149.5 -5.95652
7150.5 3.73913
7151.5 -32.913
7152.5 -24.3478
7153.5 -9.26087
7154.5 15.087
7155.5 -7.56521
7156.5 -1.43478
7157.5 10.2174
7158.5 -2.95652
7159.5 3.82609
7160.5 3.21739
7161.5 -2.86956
7162.5 -0.0434759
7163.5 2.52174
7164.5 10.913
7165.5 -8.78261
7166.5 18.0435
7167.5 6.95652
7168.5 -6.30435
7169.5 -4.30435
7170.5 -5.82608
7171.5 12.6087
7172.5 -2.86956
7173.5 -14.6522
7174.5 -15.7826
7175.5 0.478263
7176.5 1.91305
7177.5 -8.52174
7178.5 -11.8696
7179.5 4.21739
7180.5 5.56522
7181.5 5.17392
7182.5 21.7391
7183.5 15.1304
7184.5 6.86957
7185.5 27.2174
7186.5 12.6522
7187.5 2.6226e-06
7188.5 -4.86956
7189.5 6.30435
7190.5 33
7191.5 12.3913
7192.5 -19.6522
7193.5 -1.95652
7194.5 -6.69565
7195.5 30.8261
7196.5 17
7197.5 18.3913
7198.5 25.6087
7199.5 4.52174
7200.5 2.39131
7201.5 -4.26086
7202.5 20.913
7203.5 -5.60869
7204.5 26.2174
7205.5 16.7826
7206.5 53
7207.5 -31.2174
7208.5 5.65219
7209.5 61.6087
7210.5 -0.260859
7211.5 -3.52173
7212.5 17.8261
7213.5 18.0435
7214.5 -2.65217
7215.5 -4.26087
7216.5 29.0435
7217.5 1.47826
7218.5 7.65218
7219.5 -17.3913
7220.5 -14.1304
7221.5 11.7826
7222.5 -1.21739
7223.5 -13.5217
7224.5 2.13044
7225.5 -14.3478
7226.5 20
7227.5 -11.7391
7228.5 6.95652
7229.5 -6.60869
7230.5 -20.6957
7231.5 11.6957
7232.5 -9.69565
7233.5 -4.56522
7234.5 0.869567
7235.5 -23.1739
7236.5 -19.1304
7237.5 -12.5217
7238.5 -8.78261
7239.5 3.47826
7240.5 -1.13043
7241.5 -15.4783
7242.5 2.08696
7243.5 6.65218
7244.5 4.82609
7245.5 -3.95652
7246.5 -2.30435
7247.5 1.65218
7248.5 -0.69565
7249.5 6.69565
7250.5 -10.2609
7251.5 -13.7391
7252.5 7.82609
7253.5 12.087
7254.5 8.69566
7255.5 -11.9565
7256.5 2.52174
7257.5 -4.52173
7258.5 -27.7826
7259.5 5.08697
7260.5 1.60871
7261.5 -2.91303
7262.5 8.8261
7263.5 -0.739119
7264.5 -31
7265.5 -4.26086
7266.5 -13.4783
7267.5 -8
7268.5 -4.3913
7269.5 6.6087
7270.5 6.39131
7271.5 -8.65217
7272.5 -3.17391
7273.5 3.78261
7274.5 -3
7275.5 2.21739
7276.5 23.6957
7277.5 4.30435
7278.5 13.8261
7279.5 -7.34782
7280.5 -3.47826
7281.5 11.2609
7282.5 -16.1304
7283.5 -0.304345
7284.5 -25.3913
7285.5 -17.5217
7286.5 -10.8261
7287.5 -11.087
7288.5 -13
7289.5 -18.9565
7290.5 -10.6087
7291.5 -13.5652
7292.5 -9.56522
7293.5 -6.04348
7294.5 -14.0435
7295.5 0.434784
7296.5 -20.7826
7297.5 -9
7298.5 -16.6087
7299.5 -10.6957
7300.5 -13.8261
7301.5 -16.6087
7302.5 -17.3478
7303.5 -8.17391
7304.5 -13.4348
7305.5 -8.34782
7306.5 -13.9565
7307.5 11.0435
7308.5 9.56522
7309.5 -3.08695
7310.5 1.91305
7311.5 10.7391
7312.5 -3.30435
7313.5 -3.82608
7314.5 -16.0435
7315.5 -14.1739
7316.5 -26.6522
7317.5 -29.5217
7318.5 -8.08695
7319.5 -1.47826
7320.5 -7.34782
7321.5 10.4348
7322.5 44
7323.5 96.1739
7324.5 87.6087
7325.5 135.087
7326.5 131.087
7327.5 115.087
7328.5 96.4348
7329.5 106.217
7330.5 70.8261
7331.5 34.1739
7332.5 18.7391
7333.5 9.6087
7334.5 2.6087
7335.5 -28.3913
7336.5 -20.913
7337.5 -30.5217
7338.5 -31.3478
7339.5 -37.9565
7340.5 -33.3913
7341.5 -47.7826
7342.5 -43.1304
7343.5 -52.4348
7344.5 -32.6087
7345.5 -24
7346.5 -22.087
7347.5 -28.8261
7348.5 -35.1304
7349.5 -17.5217
7350.5 -25
7351.5 -15.6087
7352.5 -35.4783
7353.5 -9.17391
7354.5 -11.7826
7355.5 -4.04348
7356.5 -16.8696
7357.5 -8.69565
7358.5 -0.21739
7359.5 -0.0434767
7360.5 -7.21739
7361.5 -19.4348
7362.5 -17.0435
7363.5 -20.7391
7364.5 -5.30435
7365.5 -7.43478
7366.5 -6.65217
7367.5 -10.7826
7368.5 7.26087
7369.5 -6
7370.5 2.82609
7371.5 -8.08695
7372.5 -12.1304
7373.5 1.08696
7374.5 6.17391
7375.5 8.34783
7376.5 11.3478
7377.5 22.913
7378.5 23.8696
7379.5 17.3043
7380.5 20.8696
7381.5 15.2609
7382.5 28.2174
7383.5 42.1304
7384.5 35.4783
7385.5 8.08696
7386.5 10.2609
7387.5 14.4348
7388.5 -4.47826
7389.5 1.39131
7390.5 5.82609
7391.5 5.47826
7392.5 -7.73913
7393.5 -10.2609
7394.5 -5.52174
7395.5 -6.69565
7396.5 -0.826085
7397.5 -25.6522
7398.5 -18.2609
7399.5 -12.3478
7400.5 -12.6957
7401.5 -12.6087
7402.5 -2.04348
7403.5 -26.9565
7404.5 -9.04348
7405.5 -9.17391
7406.5 3.08696
7407.5 -9.73913
7408.5 -0.652172
7409.5 -2.17391
7410.5 -1.30435
7411.5 -2.43478
7412.5 2.52174
7413.5 15.4783
7414.5 6.95653
7415.5 -10.3043
7416.5 1.82609
7417.5 -9.82608
7418.5 -10.3913
7419.5 -28.6522
7420.5 22.2609
7421.5 -6.47826
7422.5 -2.21739
7423.5 -11
7424.5 1.13044
7425.5 -5.73913
7426.5 1.95652
7427.5 -0.0434768
7428.5 -5.73913
7429.5 7.26087
7430.5 7.43478
7431.5 6.65218
7432.5 -3.34782
7433.5 8.6087
7434.5 0.304349
7435.5 13.3478
7436.5 5.69565
7437.5 -5.56522
7438.5 1.17391
7439.5 -10.5217
7440.5 -3.82609
7441.5 10.8696
7442.5 -0.826086
7443.5 5.6087
7444.5 -2.56522
7445.5 7.30435
7446.5 10.913
7447.5 -3.08696
7448.5 -7.95652
7449.5 -1.34782
7450.5 -7.08696
7451.5 5.69565
7452.5 -16.7826
7453.5 5.73913
7454.5 2.95652
7455.5 6.56522
7456.5 -9.3913
7457.5 6.6087
7458.5 3
7459.5 -7
7460.5 6.17391
7461.5 12.087
7462.5 -2.17391
7463.5 4.39131
7464.5 -2
7465.5 -1.08696
7466.5 5.95652
7467.5 10.9565
7468.5 -3.3913
7469.5 -2.86956
7470.5 13.5652
7471.5 9.69565
7472.5 -1.95652
7473.5 2.78261
7474.5 -10
7475.5 4.13044
7476.5 2.04348
7477.5 -11.6087
7478.5 -10.8696
7479.5 7.6087
7480.5 3.04348
7481.5 -0.999999
7482.5 9.47826
7483.5 7
7484.5 -4.60869
7485.5 -3.13043
7486.5 8.08696
7487.5 -8.08696
7488.5 11.5217
7489.5 -1.13043
7490.5 8.95652
7491.5 1.13044
7492.5 3.78261
7493.5 -4.78261
7494.5 -2.26087
7495.5 -5.26087
7496.5 1.47826
7497.5 1.91304
7498.5 -5.86956
7499.5 -3.17391
7500.5 0.913045
7501.5 5.69565
7502.5 6.08696
7503.5 6.34783
7504.5 -3.73913
7505.5 6.95652
7506.5 -9.30435
7507.5 -1.26087
7508.5 3.43478
7509.5 -4.52174
7510.5 -7.82609
7511.5 0.0434798
7512.5 9.17391
7513.5 6.13044
7514.5 -7.82609
7515.5 -7.65217
7516.5 -3.69565
7517.5 2.04348
7518.5 4.73913
7519.5 -0.608694
7520.5 1.86957
7521.5 -7.82609
7522.5 -6.91304
7523.5 -2.86956
7524.5 -3.73913
7525.5 -5.13043
7526.5 2.21739
7527.5 -5.26087
7528.5 -3.60869
7529.5 3.13044
7530.5 0.52174
7531.5 4.95652
7532.5 2.17391
7533.5 -8.08696
7534.5 17.913
7535.5 1.04348
7536.5 -8.95652
7537.5 0.695653
7538.5 -3.43478
7539.5 0.52174
7540.5 -3.78261
7541.5 9.6087
7542.5 -3.91304
7543.5 4.73913
7544.5 -7.73913
7545.5 4.30435
7546.5 18
7547.5 5.65217
7548.5 0.52174
7549.5 -10.087
7550.5 1.82609
7551.5 -4.47826
7552.5 3.95652
7553.5 -6.26087
7554.5 -6.04348
7555.5 9.78261
7556.5 6.65218
7557.5 0.0434795
7558.5 -4.52174
7559.5 3.13044
7560.5 5.26087
7561.5 2.34783
7562.5 3.26087
7563.5 -7.65217
7564.5 1.43478
7565.5 2.52174
7566.5 4.43478
7567.5 -5.17391
7568.5 5.56522
7569.5 -8.82609
7570.5 -13.3043
7571.5 -1.95652
7572.5 -0.304345
7573.5 -2.30434
7574.5 -6.26087
7575.5 -5.73913
7576.5 -7.78261
7577.5 -2.43478
7578.5 -4.65217
7579.5 3.73913
7580.5 1
7581.5 -0.173912
7582.5 -6.91304
7583.5 5.21739
7584.5 1.43478
7585.5 -6.65217
7586.5 11.6522
7587.5 4.47826
7588.5 7.73913
7589.5 -2.08696
7590.5 -6.95652
7591.5 -5.21739
7592.5 -8.30435
7593.5 -3.30435
7594.5 0.347827
7595.5 -6
7596.5 -0.999999
7597.5 -4.47826
7598.5 -8.17391
7599.5 -9
7600.5 5.78261
7601.5 -0.913042
7602.5 -4.43478
7603.5 3.47826
7604.5 12.6957
7605.5 -10.7391
7606.5 1.47826
7607.5 -4.60869
7608.5 -2.13043
7609.5 8
7610.5 3.26087
7611.5 4.91304
7612.5 3.39131
7613.5 -0.869564
7614.5 -1.78261
7615.5 6.43478
7616.5 7.04348
7617.5 -2.3913
7618.5 0.913045
7619.5 -5.86956
7620.5 12.5652
7621.5 -3
7622.5 7.39131
7623.5 5.04348
7624.5 8.04348
7625.5 -0.565216
7626.5 2.21739
7627.5 -5.52174
7628.5 -6.82609
7629.5 7.43478
7630.5 -5.95652
7631.5 -12.0435
7632.5 -4.91304
7633.5 0.391306
7634.5 -5.43478
7635.5 -2.43478
7636.5 16.5217
7637.5 34.5652
7638.5 23.3043
7639.5 38.4783
7640.5 14.913
7641.5 27.1304
7642.5 24.6522
7643.5 27.6957
7644.5 14.8261
7645.5 10.1304
7646.5 -3.86956
7647.5 -0.869564
7648.5 -11.2609
7649.5 -2.86956
7650.5 -10.1739
7651.5 -2.95652
7652.5 -5.69565
7653.5 -14.1304
7654.5 -6.82609
7655.5 -14.5217
7656.5 -16.5217
7657.5 -18.3913
7658.5 -10.7391
7659.5 -14.5652
7660.5 -18.913
7661.5 -10.8261
7662.5 -7.69565
7663.5 -7.26087
7664.5 -3.30435
7665.5 -7.69565
7666.5 0.956523
7667.5 -4.34783
7668.5 -2.26087
7669.5 2.21739
7670.5 -3.43478
7671.5 -3.86956
7672.5 -3.30435
7673.5 -4.52174
7674.5 -2.13043
7675.5 -4.82609
7676.5 10.8696
7677.5 -0.173912
7678.5 1.47826
7679.5 -9.13043
7680.5 -4.21739
7681.5 4
7682.5 3.65217
7683.5 8.47826
7684.5 7.86957
7685.5 5
7686.5 0.913044
7687.5 2.43478
7688.5 -2.69565
7689.5 -2.43478
7690.5 -3.65217
7691.5 0.173914
7692.5 3.73913
7693.5 -7.52174
7694.5 5.6087
7695.5 -4.52174
7696.5 -0.73913
7697.5 -0.47826
7698.5 -6.04348
7699.5 -1.82609
7700.5 13.0435
7701.5 -6.52174
7702.5 1.86957
7703.5 -0.695651
7704.5 1.04348
7705.5 6.65217
7706.5 4
7707.5 -2.60869
7708.5 3.56522
7709.5 5.6087
7710.5 -7.69565
7711.5 7.82609
7712.5 0.78261
7713.5 0.304349
7714.5 -16.0435
7715.5 3.30435
7716.5 5.39131
7717.5 -2.26087
7718.5 -0.130434
7719.5 -3.56522
7720.5 3.47826
7721.5 1.08696
7722.5 -13.0435
7723.5 3.95652
7724.5 -3.30435
7725.5 11.8696
7726.5 -3.78261
7727.5 2.82609
7728.5 -3.65217
7729.5 10.7391
7730.5 0.52174
7731.5 4.82609
7732.5 4.91304
7733.5 3.17391
7734.5 2
7735.5 -0.47826
7736.5 -4.3913
7737.5 -2.52174
7738.5 -2.78261
7739.5 -6.52174
7740.5 -4.30435
7741.5 -3.21739
7742.5 1.26087
7743.5 -1.78261
7744.5 -7.08696
7745.5 -1.95652
7746.5 -0.434782
7747.5 -0.608695
7748.5 -2.21739
7749.5 2.73913
7750.5 1.17391
7751.5 -6.86956
7752.5 1.47826
7753.5 2.6087
7754.5 -3.56522
7755.5 -4.30435
7756.5 -1.95652
7757.5 3.6087
7758.5 -5
7759.5 -7.47826
7760.5 -5.91304
7761.5 -2.30435
7762.5 4.04348
7763.5 -4.04348
7764.5 16.3043
7765.5 -0.956519
7766.5 -1.56521
7767.5 0.173918
7768.5 -2.30434
7769.5 2.47827
7770.5 -12.6956
7771.5 -7.13042
7772.5 -20.3478
7773.5 -24.8696
7774.5 14.3478
7775.5 6.04349
7776.5 14.6522
7777.5 23.3044
7778.5 -2.04348
7779.5 -13.3913
7780.5 -1.91304
7781.5 -3.73913
7782.5 -1.21739
7783.5 7.43478
7784.5 -12.6087
7785.5 -3
7786.5 5.08696
7787.5 -17.8696
7788.5 -7.04348
7789.5 -0.739129
7790.5 -3.69565
7791.5 8.34783
7792.5 -4.3913
7793.5 6.21739
7794.5 -11.3478
7795.5 6.95652
7796.5 0.695653
7797.5 -3
7798.5 -3.26087
7799.5 0.652175
7800.5 4.21739
7801.5 -0.391304
7802.5 -2.21739
7803.5 -4.08696
7804.5 -10
7805.5 4.08696
7806.5 4.95652
7807.5 -6.17391
7808.5 0.869566
7809.5 -0.608695
7810.5 3.30435
7811.5 -7.78261
7812.5 -3.13043
7813.5 2.08696
7814.5 -4.34783
7815.5 5.78261
7816.5 1.21739
7817.5 -5.82609
7818.5 -8.26087
7819.5 13.2174
7820.5 -3.52174
7821.5 -1.30435
7822.5 6.82609
7823.5 6.91305
7824.5 -0.347824
7825.5 -3.78261
7826.5 -8.43478
7827.5 14.087
7828.5 8.69565
7829.5 1.78261
7830.5 -15.9565
7831.5 -17.087
7832.5 9
7833.5 -3.78261
7834.5 -1.47826
7835.5 9.6087
7836.5 7.08696
7837.5 10.5217
7838.5 -6.21739
7839.5 3.65217
7840.5 -2.69565
7841.5 -0.521738
7842.5 8.17391
7843.5 -0.826086
7844.5 -1.95652
7845.5 -10.8696
7846.5 0.782609
7847.5 -10.5652
7848.5 7.65217
7849.5 -1.52174
7850.5 -7.65217
7851.5 0.304348
7852.5 -1.34783
7853.5 -3.3913
7854.5 0.956522
7855.5 0.217392
7856.5 0.652175
7857.5 0.173914
7858.5 -0.521739
7859.5 -7.43478
7860.5 -7.04348
7861.5 -2.69565
7862.5 -3.30435
7863.5 -0.913043
7864.5 -1.91304
7865.5 7.30435
7866.5 3.78261
7867.5 0.652174
7868.5 -7.47826
7869.5 4.21739
7870.5 -9.26087
7871.5 5.47826
7872.5 -4.78261
7873.5 -2.34783
7874.5 -4.65217
7875.5 -8.21739
7876.5 -4.47826
7877.5 -8.21739
7878.5 -7.43478
7879.5 -3.08696
7880.5 -0.956521
7881.5 1.78261
7882.5 -1.73913
7883.5 0.0869571
7884.5 1
7885.5 7.52174
7886.5 12.1304
7887.5 7.34783
7888.5 5.3913
7889.5 8.34783
7890.5 17.2609
7891.5 0.130435
7892.5 3.47826
7893.5 2.3913
7894.5 -5.17391
7895.5 0.0434788
7896.5 9.34783
7897.5 -2.6087
7898.5 13.4348
7899.5 1.08696
7900.5 2.6087
7901.5 -3.08696
7902.5 2.43478
7903.5 -8.30435
7904.5 -4.21739
7905.5 -7.60869
7906.5 4
7907.5 3.26087
7908.5 -4.13043
7909.5 -5.91304
7910.5 6.08696
7911.5 -3.56522
7912.5 -7.43478
7913.5 -1.47826
7914.5 -9.69565
7915.5 -7.43478
7916.5 1.08696
7917.5 7.17391
7918.5 3.69565
7919.5 -0.869565
7920.5 0.0434788
7921.5 3.13044
7922.5 4.91738e-07
7923.5 1.73913
7924.5 4.13044
7925.5 0.478261
7926.5 -2.73913
7927.5 2.26087
7928.5 0.173913
7929.5 6.69565
7930.5 7.91304
7931.5 -0.434782
7932.5 -0.434782
7933.5 2.21739
7934.5 1.86957
7935.5 -4.21739
7936.5 9.13044
7937.5 -4.08696
7938.5 -5.47826
7939.5 -0.47826
7940.5 -5.21739
7941.5 7.95652
7942.5 -6.95652
7943.5 0.826088
7944.5 -4.86956
7945.5 -2.3913
7946.5 5.13044
7947.5 -8.86956
7948.5 -1.13043
7949.5 13.7826
7950.5 5.13044
7951.5 1.30435
7952.5 -5.30435
7953.5 4.78261
7954.5 -3.69565
7955.5 -5.6087
7956.5 -6.13043
7957.5 -4.30435
7958.5 -8.56522
7959.5 -0.956521
7960.5 -8.52174
7961.5 8
7962.5 -4.82609
7963.5 6.30435
7964.5 1.65217
7965.5 0.217392
7966.5 -8.91304
7967.5 4.34783
7968.5 -5.95652
7969.5 -3.43478
7970.5 2.78261
7971.5 0.304348
7972.5 8.43478
7973.5 -0.130434
7974.5 -1.78261
7975.5 5.69565
7976.5 -3.78261
7977.5 -3.86956
7978.5 -2.21739
7979.5 -0.304347
7980.5 -4.6087
7981.5 -4.30435
7982.5 -7.26087
7983.5 -1.43478
7984.5 -2.6087
7985.5 7.3913
7986.5 -2.30435
7987.5 -0.999999
7988.5 -0.391304
7989.5 3.3913
7990.5 1.47826
7991.5 -6.6087
7992.5 -5.65217
7993.5 7.52174
7994.5 -2.56522
7995.5 1.95652
7996.5 -1.34783
7997.5 -1.65217
7998.5 -0.652174
7999.5 -6.73913
8000.5 -4.04348
8001.5 -2.17391
8002.5 1.13044
8003.5 -0.0869562
8004.5 5
8005.5 5.08696
8006.5 3.47826
8007.5 1.82609
8008.5 -0.130434
8009.5 2.13044
8010.5 -1.56522
8011.5 2.43478
8012.5 7.3913
8013.5 4.78261
8014.5 -2.65217
8015.5 2.34783
8016.5 -4.34783
8017.5 -0.782608
8018.5 -1.91304
8019.5 -4.56522
8020.5 -6.6087
8021.5 3.30435
8022.5 7.52174
8023.5 8.56522
8024.5 -2.30435
8025.5 10.913
8026.5 -5.3913
8027.5 5.91304
8028.5 10.1304
8029.5 3.47826
8030.5 -3.17391
8031.5 0.173914
8032.5 1.34783
8033.5 -3.47826
8034.5 4.3913
8035.5 -7.04348
8036.5 -6.43478
8037.5 1.91304
8038.5 -0.47826
8039.5 0.391305
8040.5 5.21739
8041.5 7.04348
8042.5 3.91304
8043.5 6.95652
8044.5 7.52174
8045.5 -3.65217
8046.5 -6.91304
8047.5 -5.17391
8048.5 2.6087
8049.5 -4.08696
8050.5 2.30435
8051.5 1.56522
8052.5 -3.47826
8053.5 2.26087
8054.5 -0.608695
8055.5 0.565218
8056.5 -6.73913
8057.5 3.78261
8058.5 11.0435
8059.5 4.86957
8060.5 -4.17391
8061.5 -0.086956
8062.5 -3.30435
8063.5 -6.69565
8064.5 -1.04348
8065.5 -3.82609
8066.5 -0.304347
8067.5 -2.95652
8068.5 2
8069.5 -10.9565
8070.5 -7.60869
8071.5 -1.73913
8072.5 0.26087
8073.5 5.30435
8074.5 -13
8075.5 -4.04348
8076.5 5.6087
8077.5 -4.04348
8078.5 3.26087
8079.5 -12.4783
8080.5 10.5217
8081.5 25.8261
8082.5 3.91305
8083.5 -10.087
8084.5 18.3913
8085.5 -15.1739
8086.5 -16.9565
8087.5 2.21739
8088.5 2.82609
8089.5 -0.347824
8090.5 8
8091.5 1.34783
8092.5 7.47826
8093.5 3.86957
8094.5 5.34783
8095.5 2.08696
8096.5 -3.91304
8097.5 4.08696
8098.5 -3.30435
8099.5 2.3913
8100.5 -3.34783
8101.5 -7.43478
8102.5 -5.13043
8103.5 -2.82609
8104.5 0.173913
8105.5 -6.47826
8106.5 1.13044
8107.5 5
8108.5 -0.347826
8109.5 -5.17391
8110.5 -2.17391
8111.5 -2.69565
8112.5 -1.95652
8113.5 8
8114.5 -1.78261
8115.5 -4.26087
8116.5 -2.69565
8117.5 2
8118.5 -1.73913
8119.5 0.956522
8120.5 0.217392
8121.5 3.17391
8122.5 -1.47826
8123.5 3.43478
8124.5 -2.6087
8125.5 1.13044
8126.5 -1.95652
8127.5 2.30435
8128.5 9.86957
8129.5 4.56522
8130.5 1.73913
8131.5 3.91304
8132.5 5.73913
8133.5 7.82609
8134.5 2.91304
8135.5 5.17391
8136.5 12.913
8137.5 3.6087
8138.5 5.78261
8139.5 1
8140.5 -3.95652
8141.5 -3.13043
8142.5 -2.95652
8143.5 -6.69565
8144.5 -4.34783
8145.5 3.21739
8146.5 -4.47826
8147.5 -4.13043
8148.5 -0.260869
8149.5 1
8150.5 -3.6087
8151.5 -0.826087
8152.5 -0.73913
8153.5 3.69565
8154.5 -3
8155.5 -8.08696
8156.5 0.652174
8157.5 -5.95652
8158.5 0.0434787
8159.5 0.173913
8160.5 3.34783
8161.5 -3.6087
8162.5 6.04348
8163.5 -6.78261
8164.5 -4.30435
8165.5 0.391305
8166.5 -0.695652
8167.5 2.26087
8168.5 -4.52174
8169.5 2.26087
8170.5 2.6087
8171.5 3
8172.5 -0.869565
8173.5 -1.86956
8174.5 -1.43478
8175.5 -6.26087
8176.5 5.21739
8177.5 -0.260869
8178.5 -0.956521
8179.5 3.78261
8180.5 0.217392
8181.5 -1.86956
8182.5 -7.3913
8183.5 -3.69565
8184.5 4.08696
8185.5 -5.78261
8186.5 0.391305
8187.5 1.34783
8188.5 -0.565217
8189.5 3
8190.5 -1
8191.5 -2.73913
8192.5 0.347826
8193.5 2.56522
8194.5 -6.52174
8195.5 -0.217391
8196.5 0.913044
8197.5 -4.56522
8198.5 -4.04348
8199.5 1.91304
8200.5 1.73913
8201.5 3.43478
8202.5 -3.17391
8203.5 4.69565
8204.5 -5.26087
8205.5 8.47826
8206.5 3.30435
8207.5 -3.95652
8208.5 -1.65217
8209.5 -2.73913
8210.5 -5.43478
8211.5 1
8212.5 -0.73913
8213.5 -2.04348
8214.5 -3.08696
8215.5 0.652174
8216.5 3.91304
8217.5 0.826087
8218.5 -0.217391
8219.5 -5.65217
8220.5 4.91304
8221.5 -2.69565
8222.5 -4.13043
8223.5 -1
8224.5 -0.826087
8225.5 4.86957
8226.5 3.65217
8227.5 3.34783
8228.5 -1.08696
8229.5 4.78261
8230.5 -5
8231.5 8.34783
8232.5 2.86957
8233.5 -1
8234.5 0.565218
8235.5 -3.82609
8236.5 0.434783
8237.5 0.173913
8238.5 0.869566
8239.5 1.34783
8240.5 7.56522
8241.5 2.21739
8242.5 -3.21739
8243.5 2.86957
8244.5 -4.52174
8245.5 2.17391
8246.5 2.13044
8247.5 -5
8248.5 -1
8249.5 8.21739
8250.5 -1.26087
8251.5 5.95652
8252.5 1.17391
8253.5 -2
8254.5 0.565218
8255.5 1
8256.5 4.17391
8257.5 -0.695652
8258.5 2.65217
8259.5 -0.565217
8260.5 3.34783
8261.5 1
8262.5 -0.652174
8263.5 -2.04348
8264.5 2.78261
8265.5 -1.30435
8266.5 1.21739
8267.5 -3.78261
8268.5 -2
8269.5 -6.95652
8270.5 1.43478
8271.5 6.08696
8272.5 2
8273.5 3.73913
8274.5 4.43478
8275.5 -0.869565
8276.5 8
8277.5 2.34783
8278.5 -0.826087
8279.5 -0.130434
8280.5 1.26087
8281.5 -0.913043
8282.5 2
8283.5 1.52174
8284.5 -2.34783
8285.5 -0.043478
8286.5 1.65217
8287.5 -1.43478
8288.5 -1.78261
8289.5 -7.30435
8290.5 5.95652
8291.5 -0.73913
8292.5 -1.04348
8293.5 4.08696
8294.5 1.52174
8295.5 -0.565217
8296.5 1
8297.5 -2.73913
8298.5 3.17391
8299.5 -3.08696
8300.5 -4.13043
8301.5 -4.73913
8302.5 9.43478
8303.5 -0.347826
8304.5 -2.82609
8305.5 3.86957
8306.5 -2.13043
8307.5 -3.73913
8308.5 2.65217
8309.5 4.56522
8310.5 7.30435
8311.5 -1.30435
8312.5 2.3913
8313.5 3.04348
8314.5 0.173913
8315.5 -2
8316.5 -1.47826
8317.5 -1
8318.5 -5.56522
8319.5 -0.608695
8320.5 2.17391
8321.5 6.30435
8322.5 0.130435
8323.5 -3.73913
8324.5 1.30435
8325.5 3.27826e-07
8326.5 -2.3913
8327.5 -1.82609
8328.5 0.173913
8329.5 -2.95652
8330.5 6.52174
8331.5 -3.73913
8332.5 -4
8333.5 -7.13043
8334.5 -15.1304
8335.5 -4.21739
8336.5 -8.82609
8337.5 -0.521738
8338.5 11.6957
8339.5 -1.78261
8340.5 8.65217
8341.5 4.95652
8342.5 0.347826
8343.5 3.65217
8344.5 -0.913043
8345.5 3.08696
8346.5 -2
8347.5 2.78261
8348.5 0.217392
8349.5 1.43478
8350.5 1.47826
8351.5 6.56522
8352.5 -0.521739
8353.5 -6.17391
8354.5 -2.52174
8355.5 1.78261
8356.5 -0.173913
8357.5 -4.26087
8358.5 -6.3913
8359.5 -0.304347
8360.5 -7.08696
8361.5 -0.652174
8362.5 -4.65217
8363.5 -4.08696
8364.5 1.08696
8365.5 5.26087
8366.5 -0.260869
8367.5 -0.173913
8368.5 0.217392
8369.5 6.08696
8370.5 5.34783
8371.5 -0.260869
8372.5 -3
8373.5 2.34783
8374.5 1.52174
8375.5 3.27826e-07
8376.5 1.3913
8377.5 5.21739
8378.5 0.826087
8379.5 2.73913
8380.5 1.21739
8381.5 2.78261
8382.5 -2
8383.5 3.30435
8384.5 -0.782608
8385.5 2.95652
8386.5 -0.130434
8387.5 -2.21739
8388.5 -3
8389.5 -3.17391
8390.5 -6.21739
8391.5 -1.08696
8392.5 -4.13043
8393.5 -0.260869
8394.5 -1.6087
8395.5 -2.17391
8396.5 -1.08696
8397.5 7.69565
8398.5 8.47826
8399.5 16.1739
8400.5 20.9565
8401.5 17.6087
8402.5 17.0435
8403.5 14.8261
8404.5 9.13044
8405.5 4.82609
8406.5 12.9565
8407.5 1.86957
8408.5 -0.217391
8409.5 -6
8410.5 -2.08696
8411.5 -9.73913
8412.5 -13.2174
8413.5 -2.82609
8414.5 -5.34783
8415.5 1.13044
8416.5 -5.30435
8417.5 -4.52174
8418.5 -2.82609
8419.5 -9.78261
8420.5 -5.65217
8421.5 -7.82609
8422.5 0.347826
8423.5 -2.26087
8424.5 -2.95652
8425.5 1.82609
8426.5 0.304348
8427.5 1.26087
8428.5 -1.04348
8429.5 -3.47826
8430.5 1.52174
8431.5 1.26087
8432.5 3.26087
8433.5 -0.173913
8434.5 4.26087
8435.5 5.52174
8436.5 -3.47826
8437.5 2.04348
8438.5 2.82609
8439.5 -0.608695
8440.5 1.30435
8441.5 1.56522
8442.5 -0.173913
8443.5 1.30435
8444.5 2.13043
8445.5 -2.95652
8446.5 -1.65217
8447.5 -4.47826
8448.5 2.43478
8449.5 -2.47826
8450.5 -1.6087
8451.5 0.0434785
8452.5 5.26087
8453.5 -2.04348
8454.5 5.6087
8455.5 -0.73913
8456.5 -1.3913
8457.5 -2.3913
8458.5 5.91304
8459.5 -5.34783
8460.5 8.86957
8461.5 4.34783
8462.5 3.82609
8463.5 5.69565
8464.5 4.73913
8465.5 1.95652
8466.5 3.04348
8467.5 0.434783
8468.5 -2.52174
8469.5 2.73913
8470.5 -4.21739
8471.5 0.782609
8472.5 -6.34783
8473.5 5
8474.5 -0.608695
8475.5 2.13044
8476.5 -5.17391
8477.5 6.13043
8478.5 -3.08696
8479.5 3.6087
8480.5 1.08696
8481.5 0.0869568
8482.5 2.3913
8483.5 -4.13043
8484.5 6.65217
8485.5 -3.30435
8486.5 8.26087
8487.5 -1.17391
8488.5 8.6087
8489.5 -5
8490.5 -2.52174
8491.5 1.13044
8492.5 -3.86956
8493.5 -3.78261
8494.5 -3.13043
8495.5 -2.82609
8496.5 -2.13043
8497.5 -5.26087
8498.5 -2.08696
8499.5 0.652174
8500.5 -1.52174
8501.5 -2.21739
8502.5 -0.043478
8503.5 -0.913043
8504.5 -3.91304
8505.5 0.608696
8506.5 0.304348
8507.5 -5.82609
8508.5 -7.26087
8509.5 -2.21739
8510.5 0.608696
8511.5 -5
8512.5 -1.26087
8513.5 -3.78261
8514.5 2.04348
8515.5 -4.08696
8516.5 -5.13043
8517.5 -2.73913
8518.5 3.65217
8519.5 -2.08696
8520.5 -1.52174
8521.5 3.26087
8522.5 -2.17391
8523.5 0.173913
8524.5 -2.3913
8525.5 -1.26087
8526.5 -2
8527.5 4.43478
8528.5 -0.304348
8529.5 -2.3913
8530.5 3.13043
8531.5 1.47826
8532.5 -3.82609
8533.5 1.13043
8534.5 3.47826
8535.5 0.173913
8536.5 -0.869565
8537.5 -3.69565
8538.5 -0.173913
8539.5 -4.52174
8540.5 -3.04348
8541.5 -0.347826
8542.5 1.04348
8543.5 -3.56522
8544.5 1.3913
8545.5 -2.86957
8546.5 -2.3913
8547.5 4.82609
8548.5 6.73913
8549.5 4.6087
8550.5 0.869566
8551.5 2.47826
8552.5 6.21739
8553.5 4.43478
8554.5 4.69565
8555.5 5.69565
8556.5 0.130435
8557.5 3.26087
8558.5 7.86957
8559.5 3.3913
8560.5 -3.21739
8561.5 -1.73913
8562.5 -2.08696
8563.5 1.73913
8564.5 -4.52174
8565.5 -2.17391
8566.5 3.95652
8567.5 -3.04348
8568.5 -1.52174
8569.5 -3.26087
8570.5 -1.47826
8571.5 2.34783
8572.5 -1.82609
8573.5 0.0869568
8574.5 -2.04348
8575.5 -2.95652
8576.5 0.478261
8577.5 -4.17391
8578.5 0.173913
8579.5 1.04348
8580.5 -0.043478
8581.5 -4.47826
8582.5 -0.347826
8583.5 -1.08696
8584.5 0.913044
8585.5 -2.26087
8586.5 5.34783
8587.5 -2.13043
8588.5 -3.26087
8589.5 1.63913e-07
8590.5 4.56522
8591.5 3.73913
8592.5 -1.56522
8593.5 0.565218
8594.5 -1.04348
8595.5 0.26087
8596.5 -2.65217
8597.5 0.347826
8598.5 -2.6087
8599.5 1.56522
8600.5 -0.478261
8601.5 2.78261
8602.5 -1.86957
8603.5 0.130435
8604.5 1.78261
8605.5 -1.56522
8606.5 2.78261
8607.5 5
8608.5 -0.869565
8609.5 -0.869565
8610.5 0.130435
8611.5 1.78261
8612.5 1.63913e-07
8613.5 0.782609
8614.5 -6.3913
8615.5 -4.52174
8616.5 5
8617.5 -3.95652
8618.5 -2.08696
8619.5 -3.30435
8620.5 2.43478
8621.5 3.21739
8622.5 3.21739
8623.5 -3.91304
8624.5 3.30435
8625.5 -0.652174
8626.5 1.78261
8627.5 0.782609
8628.5 -0.173913
8629.5 1.34783
8630.5 3.6087
8631.5 -0.434782
8632.5 -1.65217
8633.5 6.52174
8634.5 2.86957
8635.5 -0.782609
8636.5 5.69565
8637.5 4.13043
8638.5 1.13043
8639.5 0.913044
8640.5 5
8641.5 4.43478
8642.5 -1.86957
8643.5 -0.73913
8644.5 -1.21739
8645.5 0.217391
8646.5 -1.65217
8647.5 1.34783
8648.5 -5.6087
8649.5 -4.08696
8650.5 2.34783
8651.5 1.43478
8652.5 0.130435
8653.5 1.17391
8654.5 -2.3913
8655.5 -0.304348
8656.5 -0.869565
8657.5 4.56522
8658.5 -0.521739
8659.5 -1.78261
8660.5 -0.304348
8661.5 1.34783
8662.5 0.782609
8663.5 4.34783
8664.5 -1.78261
8665.5 -4.43478
8666.5 -1.47826
8667.5 5.34783
8668.5 -2.17391
8669.5 -5.04348
8670.5 4.04348
8671.5 0.130435
8672.5 -3.52174
8673.5 -3.73913
8674.5 3.78261
8675.5 3.13043
8676.5 -2.08696
8677.5 -0.521739
8678.5 -1.43478
8679.5 4.21739
8680.5 -3.52174
8681.5 -3.21739
8682.5 0.347826
8683.5 -2.78261
8684.5 -1.43478
8685.5 0.521739
8686.5 -0.565217
8687.5 1.43478
8688.5 -1.52174
8689.5 3.13043
8690.5 2.21739
8691.5 -0.869565
8692.5 0.695652
8693.5 1.34783
8694.5 7.21739
8695.5 -0.826087
8696.5 -2.56522
8697.5 0.782609
8698.5 -4.65217
8699.5 0.478261
8700.5 -1
8701.5 -0.347826
8702.5 7.65217
8703.5 2
8704.5 -1.34783
8705.5 -1.65217
8706.5 4.52174
8707.5 0.695652
8708.5 2.52174
8709.5 0.434783
8710.5 -3.21739
8711.5 1.73913
8712.5 -3.30435
8713.5 -0.565217
8714.5 0.130435
8715.5 1.56522
8716.5 1.86957
8717.5 -2.08696
8718.5 -2.69565
8719.5 -0.782609
8720.5 1
8721.5 -0.347826
8722.5 -2.78261
8723.5 1.73913
8724.5 -1.3913
8725.5 1.08696
8726.5 5.21739
8727.5 -1.86957
8728.5 -4.95652
8729.5 0.130435
8730.5 -2.65217
8731.5 -1.34783
8732.5 0.869566
8733.5 -1.08696
8734.5 -1.04348
8735.5 -1.86957
8736.5 1.91304
8737.5 -0.173913
8738.5 -2.86957
8739.5 2
8740.5 -0.695652
8741.5 -1.91304
8742.5 2.43478
8743.5 0.652174
8744.5 -0.347826
8745.5 -1.56522
8746.5 -5.21739
8747.5 -1.65217
8748.5 1.63913e-07
8749.5 -0.217391
8750.5 -0.347826
8751.5 0.826087
8752.5 -0.565217
8753.5 1.91304
8754.5 4.08696
8755.5 -1.86957
8756.5 1.52174
8757.5 -1.56522
8758.5 3.73913
8759.5 1.65217
8760.5 -1.08696
8761.5 -1.13043
8762.5 1.95652
8763.5 -3.13043
8764.5 -3.73913
8765.5 -0.565217
8766.5 -2.04348
8767.5 -3.86957
8768.5 3.56522
8769.5 -1.26087
8770.5 -3.21739
8771.5 -1.21739
8772.5 -1.21739
8773.5 1.73913
8774.5 -2.56522
8775.5 2.21739
8776.5 -1.91304
8777.5 -2.34783
8778.5 -0.913043
8779.5 -2.86957
8780.5 -2.65217
8781.5 -0.608696
8782.5 1.30435
8783.5 -1.08696
8784.5 1.63913e-07
8785.5 3.04348
8786.5 -4.6087
8787.5 1.91304
8788.5 -1.30435
8789.5 4.56522
8790.5 0.695652
8791.5 0.565218
8792.5 -2.86957
8793.5 -2.69565
8794.5 -2.43478
8795.5 0.391304
8796.5 -2.78261
8797.5 5.17391
8798.5 4.43478
8799.5 -2.43478
8800.5 -3.21739
8801.5 2.73913
8802.5 1
8803.5 -0.260869
8804.5 -2
8805.5 -0.434782
8806.5 -0.695652
8807.5 0.521739
8808.5 1.30435
8809.5 -3.21739
8810.5 -1.56522
8811.5 1
8812.5 0.869565
8813.5 0.608696
8814.5 0.652174
8815.5 -2.78261
8816.5 -0.347826
8817.5 -0.869565
8818.5 -2.86957
8819.5 -1.34783
8820.5 -1.21739
8821.5 2.08696
8822.5 -4.73913
8823.5 -0.782609
8824.5 0.826087
8825.5 -1
8826.5 4.95652
8827.5 -1.34783
8828.5 0.391304
8829.5 -1.91304
8830.5 -2.04348
8831.5 0.869565
8832.5 -0.565217
8833.5 1.43478
8834.5 -2.78261
8835.5 -5.30435
8836.5 -0.565217
8837.5 -3.47826
8838.5 -0.869565
8839.5 3.65217
8840.5 1.69565
8841.5 -0.0434778
8842.5 -5.69565
8843.5 0.565218
8844.5 0.130435
8845.5 -4.30435
8846.5 2.34783
8847.5 4.6087
8848.5 -3.69565
8849.5 -1.3913
8850.5 -2.08696
8851.5 2.47826
8852.5 -1.04348
8853.5 3.34783
8854.5 6.47826
8855.5 -3.30435
8856.5 1.78261
8857.5 3.08696
8858.5 -1.69565
8859.5 3
8860.5 1.30435
8861.5 0.0869567
8862.5 -4.43478
8863.5 -2.21739
8864.5 -1.82609
8865.5 -0.913043
8866.5 -3
8867.5 -0.782609
8868.5 0.347826
8869.5 0.217391
8870.5 -2.65217
8871.5 -5
8872.5 -3.43478
8873.5 -1.43478
8874.5 0.608696
8875.5 -0.391304
8876.5 0.304348
8877.5 -0.0434782
8878.5 -2.78261
8879.5 -0.782609
8880.5 -1.91304
8881.5 -0.0434782
8882.5 1.52174
8883.5 0.0869567
8884.5 3.52174
8885.5 -1.69565
8886.5 2.08696
8887.5 -3.78261
8888.5 -2.56522
8889.5 -0.130435
8890.5 -1.34783
8891.5 -2.26087
8892.5 -0.826087
8893.5 -2.34783
8894.5 -2.13043
8895.5 -0.782609
8896.5 1.17391
8897.5 0.304348
8898.5 -0.434782
8899.5 1.52174
8900.5 0.826087
8901.5 0.391304
8902.5 1.52174
8903.5 4.65217
8904.5 -0.478261
8905.5 -1.91304
8906.5 -1.69565
8907.5 -3.21739
8908.5 -0.913043
8909.5 -3.47826
8910.5 -1.26087
8911.5 3.04348
8912.5 0.739131
8913.5 -0.826087
8914.5 -1.91304
8915.5 0.956522
8916.5 -1.6087
8917.5 -0.260869
8918.5 2.21739
8919.5 0.173913
8920.5 -0.826087
8921.5 0.0869567
8922.5 0.173913
8923.5 -0.478261
8924.5 -0.478261
8925.5 4.08696
8926.5 1.3913
8927.5 0.304348
8928.5 -0.608696
8929.5 3.26087
8930.5 1.08696
8931.5 1.30435
8932.5 4.04348
8933.5 -1.26087
8934.5 1.52174
8935.5 0.826087
8936.5 -0.695652
8937.5 -0.260869
8938.5 -1.04348
8939.5 2.82609
8940.5 -2.13043
8941.5 -0.478261
8942.5 0.434783
8943.5 -3.26087
8944.5 5.73913
8945.5 0.173913
8946.5 2.95652
8947.5 4.52174
8948.5 -1
8949.5 0.826087
8950.5 2.6087
8951.5 0.347826
8952.5 0.652174
8953.5 -0.652174
8954.5 1.63913e-07
8955.5 -0.478261
8956.5 3.30435
8957.5 -0.826087
8958.5 -1.04348
8959.5 1.04348
8960.5 -0.260869
8961.5 -2.26087
8962.5 -1.17391
8963.5 4.17391
8964.5 -2.91304
8965.5 -1.26087
8966.5 -0.565217
8967.5 -4
8968.5 0.956522
8969.5 -0.217391
8970.5 -2.78261
8971.5 2.73913
8972.5 -4.30435
8973.5 -3.86957
8974.5 2.3913
8975.5 -0.913043
8976.5 -0.347826
8977.5 1.73913
8978.5 -3.04348
8979.5 -0.0434782
8980.5 0.521739
8981.5 -0.478261
8982.5 0.173913
8983.5 0.956522
8984.5 -0.0434782
8985.5 -1.47826
8986.5 -0.913043
8987.5 -1.47826
8988.5 4.95652
8989.5 1.17391
8990.5 1.17391
8991.5 0.956522
8992.5 0.652174
8993.5 -1.69565
8994.5 1.73913
8995.5 -1.34783
8996.5 -1.04348
8997.5 0.652174
8998.5 -1.21739
8999.5 -1.78261
9000.5 0.0869567
9001.5 0.956522
9002.5 0.956522
9003.5 -2.65217
9004.5 3.3913
9005.5 1.6087
9006.5 -3.34783
9007.5 0.217391
9008.5 -2.04348
9009.5 1.08696
9010.5 2.04348
9011.5 1.78261
9012.5 -0.347826
9013.5 4.73913
9014.5 1.08696
9015.5 -4
9016.5 1.95652
9017.5 -2.47826
9018.5 3.30435
9019.5 1.26087
9020.5 -0.347826
9021.5 -0.913043
9022.5 -0.0434782
9023.5 -2.47826
9024.5 0.26087
9025.5 -0.608696
9026.5 -0.826087
9027.5 -0.913043
9028.5 -3.43478
9029.5 -1.3913
9030.5 -0.478261
9031.5 -0.173913
9032.5 -0.695652
9033.5 -2.78261
9034.5 -1.56522
9035.5 -0.478261
9036.5 -0.478261
9037.5 -1.91304
9038.5 -1.82609
9039.5 0.826087
9040.5 -0.695652
9041.5 -0.260869
9042.5 -0.826087
9043.5 0.304348
9044.5 -0.956522
9045.5 4.95652
9046.5 -2.47826
9047.5 0.695652
9048.5 -1.13043
9049.5 -1.91304
9050.5 0.304348
9051.5 -0.826087
9052.5 0.391304
9053.5 0.0434783
9054.5 -0.956522
9055.5 0.391304
9056.5 1.30435
9057.5 -0.73913
9058.5 -2.04348
9059.5 -0.260869
9060.5 -1.52174
9061.5 0.173913
9062.5 -0.608696
9063.5 1.04348
9064.5 -2.69565
9065.5 -0.521739
9066.5 -2.47826
9067.5 2.47826
9068.5 -0.956522
9069.5 2.26087
9070.5 -2.6087
9071.5 -0.391304
9072.5 -2.3913
9073.5 0.173913
9074.5 -1.82609
9075.5 -0.173913
9076.5 -0.608696
9077.5 -1.26087
9078.5 0.173913
9079.5 0.26087
9080.5 1.95652
9081.5 2.95652
9082.5 -1.3913
9083.5 -0.173913
9084.5 0.739131
9085.5 -1.04348
9086.5 -0.565217
9087.5 -0.173913
9088.5 0.0869567
9089.5 -0.913043
9090.5 0.391304
9091.5 -4.56522
9092.5 -3.56522
9093.5 -2.04348
9094.5 -2.91304
9095.5 0.739131
9096.5 0.608696
9097.5 0.478261
9098.5 3.47826
9099.5 0.608696
9100.5 0.826087
9101.5 -2.26087
9102.5 0.26087
9103.5 1.17391
9104.5 -0.73913
9105.5 1.6087
9106.5 -2.56522
9107.5 -1.82609
9108.5 2.52174
9109.5 2.95652
9110.5 -2.91304
9111.5 -2.56522
9112.5 2.17391
9113.5 2.47826
9114.5 -1.82609
9115.5 -0.173913
9116.5 3.17391
9117.5 -0.608696
9118.5 1.3913
9119.5 0.0869567
9120.5 0.608696
9121.5 -0.391304
9122.5 1.17391
9123.5 -1.91304
9124.5 -2.04348
9125.5 -0.956522
9126.5 2.52174
9127.5 -0.956522
9128.5 -2.82609
9129.5 1.82609
9130.5 0.391304
9131.5 1.3913
9132.5 -2.82609
9133.5 -1.04348
9134.5 1.95652
9135.5 -0.913043
9136.5 1.6087
9137.5 0.826087
9138.5 3.6087
9139.5 -0.391304
9140.5 -3.34783
9141.5 -2.34783
9142.5 -1.52174
9143.5 -0.913043
9144.5 -2.04348
9145.5 -0.347826
9146.5 -0.391304
9147.5 1.52174
9148.5 -0.956522
9149.5 3.30435
9150.5 3.17391
9151.5 -0.0434782
9152.5 -3.91304
9153.5 1.95652
9154.5 -2.26087
9155.5 4.26087
9156.5 3.82609
9157.5 -0.956522
9158.5 2.04348
9159.5 3.95652
9160.5 -0.260869
9161.5 -0.826087
9162.5 2.82609
9163.5 -0.826087
9164.5 2.47826
9165.5 1.26087
9166.5 0.26087
9167.5 -2.26087
9168.5 1.26087
9169.5 -1.82609
9170.5 -0.130435
9171.5 -2.6087
9172.5 -0.0434782
9173.5 -1.26087
9174.5 3.26087
9175.5 0.478261
9176.5 1.17391
9177.5 0.26087
9178.5 -0.260869
9179.5 2.26087
9180.5 4.6087
9181.5 -2.82609
9182.5 0.478261
9183.5 2.26087
9184.5 -2.04348
9185.5 -2.3913
9186.5 -0.956522
9187.5 -0.73913
9188.5 3.04348
9189.5 -2.6087
9190.5 -0.391304
9191.5 0.478261
9192.5 -0.652174
9193.5 -1.26087
9194.5 -2.04348
9195.5 -1.69565
9196.5 -0.260869
9197.5 0.0869567
9198.5 1.47826
9199.5 0.304348
9200.5 1.26087
9201.5 0.956522
9202.5 3.43478
9203.5 -0.913043
9204.5 1.04348
9205.5 -2.04348
9206.5 -2.91304
9207.5 -0.782609
9208.5 -0.130435
9209.5 -0.260869
9210.5 -1.04348
9211.5 -0.826087
9212.5 -1.82609
9213.5 -1.3913
9214.5 -1.17391
9215.5 1.91304
9216.5 3.26087
9217.5 -0.521739
9218.5 -0.173913
9219.5 -0.0869565
9220.5 2.69565
9221.5 0.608696
9222.5 1.34783
9223.5 0.26087
9224.5 0.739131
9225.5 1.6087
9226.5 1.04348
9227.5 -1.69565
9228.5 -1.26087
9229.5 -2.04348
9230.5 -0.391304
9231.5 -2.47826
9232.5 2.69565
9233.5 -1.47826
9234.5 1.47826
9235.5 -2.3913
9236.5 1.04348
9237.5 -0.0434782
9238.5 1.82609
9239.5 4.3913
9240.5 4.82609
9241.5 0.695652
9242.5 0.391304
9243.5 5.69565
9244.5 -0.826087
9245.5 1.3913
9246.5 -2.26087
9247.5 0.391304
9248.5 -0.260869
9249.5 -0.391304
9250.5 -1.95652
9251.5 -1.04348
9252.5 0.0434783
9253.5 -0.478261
9254.5 1.73913
9255.5 -0.391304
9256.5 1.17391
9257.5 1.04348
9258.5 0.26087
9259.5 -0.478261
9260.5 3.82609
9261.5 1.69565
9262.5 -0.173913
9263.5 2.69565
9264.5 -0.173913
9265.5 -1.47826
9266.5 0.826087
9267.5 -0.73913
9268.5 -1.47826
9269.5 -0.173913
9270.5 -2.17391
9271.5 -2.17391
9272.5 -0.956522
9273.5 -1.17391
9274.5 0.478261
9275.5 -1.3913
9276.5 -2.04348
9277.5 -0.173913
9278.5 -1.73913
9279.5 0.26087
9280.5 1.26087
9281.5 0.695652
9282.5 -2.47826
9283.5 -0.347826
9284.5 -2.17391
9285.5 -0.173913
9286.5 -1.17391
9287.5 0.826087
9288.5 1.69565
9289.5 -0.0869565
9290.5 -0.173913
9291.5 -2.3913
9292.5 -3.26087
9293.5 -0.434783
9294.5 1.17391
9295.5 -0.391304
9296.5 1.26087
9297.5 -1.04348
9298.5 1.26087
9299.5 -1.04348
9300.5 2.69565
9301.5 0.173913
9302.5 0.0434783
9303.5 -1.04348
9304.5 0.0434783
9305.5 3.82609
9306.5 1.04348
9307.5 -0.608696
9308.5 -0.304348
9309.5 -1.17391
9310.5 -0.0434782
9311.5 -0.956522
9312.5 0.26087
9313.5 -1.04348
9314.5 -1.3913
9315.5 -0.0434782
9316.5 -0.173913
9317.5 -0.173913
9318.5 -0.521739
9319.5 -0.73913
9320.5 -1.52174
9321.5 2.04348
9322.5 0.26087
9323.5 2.6087
9324.5 -0.608696
9325.5 -1.3913
9326.5 -2.6087
9327.5 -1.69565
9328.5 2.04348
9329.5 -1.26087
9330.5 -1.95652
9331.5 1.26087
9332.5 0.0869567
9333.5 -0.956522
9334.5 -0.608696
9335.5 1.69565
9336.5 -2.26087
9337.5 -1.78261
9338.5 -2.3913
9339.5 -0.173913
9340.5 -0.826087
9341.5 -1.17391
9342.5 0.0434783
9343.5 -1.26087
9344.5 1.04348
9345.5 -3.26087
9346.5 -2.6087
9347.5 0.0434783
9348.5 0.695652
9349.5 1.04348
9350.5 0.173913
9351.5 -0.0869565
9352.5 4.26087
9353.5 -2.3913
9354.5 0.695652
9355.5 0.695652
9356.5 -0.304348
9357.5 -2.6087
9358.5 0.478261
9359.5 -0.956522
9360.5 -0.391304
9361.5 -2.69565
9362.5 3.26087
9363.5 -1.52174
9364.5 -0.304348
9365.5 -0.304348
9366.5 0.826087
9367.5 1.04348
9368.5 -0.304348
9369.5 0.695652
9370.5 -0.391304
9371.5 -0.73913
9372.5 2.26087
9373.5 2.47826
9374.5 -0.391304
9375.5 -0.73913
9376.5 -0.826087
9377.5 2.34783
9378.5 0.26087
9379.5 -0.0869565
9380.5 -0.521739
9381.5 -0.173913
9382.5 -0.956522
9383.5 0.478261
9384.5 0.695652
9385.5 0.478261
9386.5 -0.173913
9387.5 -2.3913
9388.5 -0.521739
9389.5 -1.17391
9390.5 0.478261
9391.5 1.04348
9392.5 2.04348
9393.5 1.34783
9394.5 -2.26087
9395.5 -2.17391
9396.5 0.913044
9397.5 1.04348
9398.5 0.347826
9399.5 0.913044
9400.5 -2.17391
9401.5 -2.04348
9402.5 1.91304
9403.5 -0.391304
9404.5 1.47826
9405.5 -2.82609
9406.5 -1.52174
9407.5 0.913044
9408.5 -0.73913
9409.5 -0.391304
9410.5 0.347826
9411.5 -0.869565
9412.5 -0.0869565
9413.5 -1.17391
9414.5 0.347826
9415.5 0.347826
9416.5 -0.826087
9417.5 -0.521739
9418.5 -1.30435
9419.5 -0.0869565
9420.5 -1.08696
9421.5 -1.08696
9422.5 0.26087
9423.5 2.34783
9424.5 -0.956522
9425.5 0.913044
9426.5 -1.08696
9427.5 0.478261
9428.5 1.69565
9429.5 0.26087
9430.5 -1.52174
9431.5 0.782609
9432.5 -1.30435
9433.5 -0.0869565
9434.5 3.91304
9435.5 -1.95652
9436.5 -1.30435
9437.5 1.56522
9438.5 0.0434783
9439.5 2.13043
9440.5 -0.0869565
9441.5 -1.73913
9442.5 -0.434783
9443.5 0.130435
9444.5 1.13043
9445.5 -0.73913
9446.5 -1.08696
9447.5 -0.0869565
9448.5 0.130435
9449.5 -1.73913
9450.5 -1.17391
9451.5 0.478261
9452.5 2.04348
9453.5 -2.82609
9454.5 -1.17391
9455.5 3.08696
9456.5 3.73913
9457.5 -0.130435
9458.5 1.13043
9459.5 -4.43478
9460.5 4.43478
9461.5 2.04348
9462.5 -1.86957
9463.5 -0.565217
9464.5 -0.565217
9465.5 3.3913
9466.5 -1.56522
9467.5 1.52174
9468.5 -2.69565
9469.5 -1.95652
9470.5 1.26087
9471.5 0.608696
9472.5 -0.521739
9473.5 -0.304348
9474.5 -1.3913
9475.5 -1.82609
9476.5 -0.521739
9477.5 1.04348
9478.5 -0.521739
9479.5 -1.6087
9480.5 -0.73913
9481.5 -1.3913
9482.5 0.130435
9483.5 -0.608696
9484.5 -0.869565
9485.5 0.130435
9486.5 0.347826
9487.5 0.478261
9488.5 -1.08696
9489.5 0.130435
9490.5 1.91304
9491.5 -1.73913
9492.5 -0.73913
9493.5 -0.304348
9494.5 -2.17391
9495.5 -2.3913
9496.5 -0.0869565
9497.5 -0.304348
9498.5 -0.869565
9499.5 -1.52174
9500.5 -0.0869565
9501.5 0.130435
9502.5 -0.956522
9503.5 0.695652
9504.5 -2.91304
9505.5 0.130435
9506.5 -0.521739
9507.5 0.347826
9508.5 -1.08696
9509.5 2.34783
9510.5 -0.956522
9511.5 -0.304348
9512.5 0.478261
9513.5 -0.608696
9514.5 -0.173913
9515.5 -1.95652
9516.5 0.478261
9517.5 0.478261
9518.5 -1.08696
9519.5 -0.521739
9520.5 2.26087
9521.5 2.47826
9522.5 0.26087
9523.5 2.47826
9524.5 3.04348
9525.5 0.26087
9526.5 0.913044
9527.5 -0.304348
9528.5 3.69565
9529.5 2
9530.5 -1.08696
9531.5 2.34783
9532.5 -1.73913
9533.5 0.0434783
9534.5 0.913044
9535.5 0.913044
9536.5 -1.17391
9537.5 -0.73913
9538.5 -2.82609
9539.5 0.608696
9540.5 -0.304348
9541.5 -2.17391
9542.5 -1.3913
9543.5 0.913044
9544.5 -1.82609
9545.5 -1.17391
9546.5 -0.521739
9547.5 -1.3913
9548.5 -1.17391
9549.5 1.13043
9550.5 -0.521739
9551.5 1.13043
9552.5 -2.3913
9553.5 -0.608696
9554.5 -1.95652
9555.5 -1.73913
9556.5 -1.52174
9557.5 0.347826
9558.5 -0.304348
9559.5 -1.08696
9560.5 -0.0869565
9561.5 -0.434783
9562.5 -1.08696
9563.5 -0.0869565
9564.5 0
9565.5 -0.869565
9566.5 3.78261
9567.5 -1.73913
9568.5 1.47826
9569.5 0.478261
9570.5 0.565217
9571.5 -0.869565
9572.5 -0.434783
9573.5 1.91304
9574.5 -1.52174
9575.5 2.47826
9576.5 -0.0869565
9577.5 -0.434783
9578.5 0.565217
9579.5 1.78261
9580.5 -1.08696
9581.5 0.782609
9582.5 0.347826
9583.5 0.782609
9584.5 -0.521739
9585.5 -1.30435
9586.5 2.13043
9587.5 -0.434783
9588.5 0.130435
9589.5 1.78261
9590.5 -0.434783
9591.5 1.34783
9592.5 -0.869565
9593.5 -1.52174
9594.5 2.34783
9595.5 1.34783
9596.5 1.69565
9597.5 -0.304348
9598.5 -1.52174
9599.5 -0.304348
9600.5 2.56522
9601.5 -0.0869565
9602.5 -0.304348
9603.5 1.91304
9604.5 -0.956522
9605.5 2.78261
9606.5 -0.434783
9607.5 0.130435
9608.5 -0.0869565
9609.5 -0.434783
9610.5 0.913044
9611.5 0.782609
9612.5 -0.652174
9613.5 -0.956522
9614.5 0.347826
9615.5 -0.434783
9616.5 0.130435
9617.5 -0.0869565
9618.5 1.13043
9619.5 -0.434783
9620.5 -0.217391
9621.5 -0.304348
9622.5 -1.08696
9623.5 -1.08696
9624.5 -1.30435
9625.5 0.782609
9626.5 0.130435
9627.5 -0.869565
9628.5 0.130435
9629.5 -1.08696
9630.5 -0.434783
9631.5 0.782609
9632.5 -0.869565
9633.5 -0.434783
9634.5 0.347826
9635.5 -0.869565
9636.5 -0.434783
9637.5 -0.434783
9638.5 -0.434783
9639.5 -0.434783
9640.5 0.782609
9641.5 -0.652174
9642.5 0
9643.5 -0.0869565
9644.5 -0.304348
9645.5 0.347826
9646.5 0.130435
9647.5 -0.869565
9648.5 -0.652174
9649.5 -0.0869565
9650.5 -1.52174
9651.5 0.347826
9652.5 -0.869565
9653.5 -0.0869565
9654.5 -1.73913
9655.5 -0.652174
9656.5 -0.652174
9657.5 -0.217391
9658.5 -0.869565
9659.5 -0.217391
9660.5 -0.521739
9661.5 -0.652174
9662.5 0.565217
9663.5 -0.869565
9664.5 0.347826
9665.5 0.130435
9666.5 -1.08696
9667.5 1.78261
9668.5 0.347826
9669.5 0.695652
9670.5 -0.652174
9671.5 0.565217
9672.5 -0.869565
9673.5 0.347826
9674.5 -0.434783
9675.5 -0.0869565
9676.5 0.130435
9677.5 -1.08696
9678.5 -0.304348
9679.5 -1.08696
9680.5 -0.0869565
9681.5 0.782609
9682.5 -0.217391
9683.5 1
9684.5 -0.652174
9685.5 -0.217391
9686.5 0.130435
9687.5 -1.30435
9688.5 0.565217
9689.5 -0.217391
9690.5 -0.217391
9691.5 0.347826
9692.5 0.565217
9693.5 -0.434783
9694.5 1.13043
9695.5 0.565217
9696.5 -1.30435
9697.5 -1.08696
9698.5 -0.434783
9699.5 -1.30435
9700.5 -0.869565
9701.5 -1.08696
9702.5 -0.652174
9703.5 -0.652174
9704.5 0.347826
9705.5 -0.434783
9706.5 0.565217
9707.5 -0.217391
9708.5 -0.434783
9709.5 1.26087
9710.5 0.130435
9711.5 1.13043
9712.5 -1.30435
9713.5 1.56522
9714.5 -0.217391
9715.5 -0.869565
9716.5 -0.217391
9717.5 0.347826
9718.5 -0.73913
9719.5 -0.652174
9720.5 -0.434783
9721.5 -0.869565
9722.5 0.130435
9723.5 -0.434783
9724.5 0.565217
9725.5 -0.652174
9726.5 -0.217391
9727.5 -0.217391
9728.5 1.34783
9729.5 -0.0869565
9730.5 0.130435
9731.5 -0.434783
9732.5 0
9733.5 0.130435
9734.5 -0.217391
9735.5 0.782609
9736.5 -0.217391
9737.5 0.782609
9738.5 -0.434783
9739.5 0.347826
9740.5 -0.869565
9741.5 0.913044
9742.5 0.130435
9743.5 0.913044
9744.5 -0.304348
9745.5 -0.0869565
9746.5 -0.652174
9747.5 0.782609
9748.5 0.565217
9749.5 1
9750.5 -0.217391
9751.5 0.130435
9752.5 -0.217391
9753.5 -0.217391
9754.5 0
9755.5 0
9756.5 -0.434783
9757.5 -0.434783
9758.5 0.782609
9759.5 -0.217391
9760.5 -0.217391
9761.5 -0.869565
9762.5 -0.0869565
9763.5 1.34783
9764.5 1.34783
9765.5 -0.434783
9766.5 -0.652174
9767.5 -1.17391
9768.5 -1.30435
9769.5 0.347826
9770.5 -0.217391
9771.5 1.78261
9772.5 -0.217391
9773.5 0.347826
9774.5 -0.434783
9775.5 0
9776.5 -0.652174
9777.5 0.130435
9778.5 -0.652174
9779.5 0.565217
9780.5 0.565217
9781.5 -0.217391
9782.5 1
9783.5 1
9784.5 -0.304348
9785.5 -1.30435
9786.5 -0.304348
9787.5 -0.434783
9788.5 -0.217391
9789.5 0
9790.5 0.565217
9791.5 -0.0869565
9792.5 -0.434783
9793.5 -0.652174
9794.5 -0.217391
9795.5 -0.217391
9796.5 -0.434783
9797.5 0.782609
9798.5 -0.652174
9799.5 0.782609
9800.5 0.347826
9801.5 0
9802.5 0
9803.5 -0.652174
9804.5 -0.652174
9805.5 -0.434783
9806.5 -0.434783
9807.5 -1.30435
9808.5 -0.304348
9809.5 -0.434783
9810.5 -1.08696
9811.5 3
9812.5 0.782609
9813.5 0
9814.5 0.347826
9815.5 0
9816.5 0.782609
9817.5 0.347826
9818.5 -0.869565
9819.5 -0.652174
9820.5 0.782609
9821.5 -0.652174
9822.5 -0.652174
9823.5 -0.434783
9824.5 0
9825.5 -0.217391
9826.5 -1.30435
9827.5 -0.434783
9828.5 2
9829.5 -0.434783
9830.5 -0.869565
9831.5 0.782609
9832.5 -0.434783
9833.5 -0.217391
9834.5 0.565217
9835.5 -0.652174
9836.5 -0.434783
9837.5 0
9838.5 -0.652174
9839.5 -0.217391
9840.5 0.565217
9841.5 0.782609
9842.5 0.782609
9843.5 -0.0869565
9844.5 0.347826
9845.5 -0.217391
9846.5 -0.869565
9847.5 -0.652174
9848.5 0
9849.5 -0.217391
9850.5 -0.217391
9851.5 -0.217391
9852.5 0.565217
9853.5 0.347826
9854.5 1
9855.5 0
9856.5 -1.08696
9857.5 -1.08696
9858.5 0.565217
9859.5 2
9860.5 -0.217391
9861.5 0
9862.5 1
9863.5 -0.217391
9864.5 0
9865.5 2
9866.5 0.130435
9867.5 -0.434783
9868.5 -0.521739
9869.5 -0.217391
9870.5 1
9871.5 0
9872.5 0
9873.5 0.782609
9874.5 -0.217391
9875.5 0.782609
9876.5 0
9877.5 0.782609
9878.5 -0.434783
9879.5 -0.217391
9880.5 0.782609
9881.5 -0.434783
9882.5 -0.434783
9883.5 0
9884.5 0.782609
9885.5 0.565217
9886.5 -0.217391
9887.5 -0.434783
9888.5 -0.217391
9889.5 -0.217391
9890.5 1
9891.5 -0.217391
9892.5 0
9893.5 -0.652174
9894.5 -0.434783
9895.5 -0.217391
9896.5 0
9897.5 -0.217391
9898.5 0
9899.5 -0.869565
9900.5 -0.434783
9901.5 0
9902.5 1
9903.5 -0.434783
9904.5 -0.217391
9905.5 0
9906.5 -0.434783
9907.5 1.56522
9908.5 -0.869565
9909.5 -0.217391
9910.5 -0.217391
9911.5 -0.434783
9912.5 0
9913.5 -0.217391
9914.5 -0.434783
9915.5 -0.217391
9916.5 0.565217
9917.5 -0.217391
9918.5 1
9919.5 -0.434783
9920.5 -0.217391
9921.5 -0.652174
9922.5 1.78261
9923.5 -0.652174
9924.5 -0.434783
9925.5 -0.217391
9926.5 -0.217391
9927.5 1
9928.5 -0.217391
9929.5 1
9930.5 0
9931.5 -0.434783
9932.5 -0.217391
9933.5 1
9934.5 -0.434783
9935.5 -0.217391
9936.5 -0.652174
9937.5 -0.434783
9938.5 -0.217391
9939.5 0
9940.5 -0.217391
9941.5 0
9942.5 0
9943.5 -0.217391
9944.5 -0.217391
9945.5 0
9946.5 -0.217391
9947.5 -0.217391
9948.5 -0.434783
9949.5 -0.217391
9950.5 4
9951.5 -0.652174
9952.5 -0.434783
9953.5 0
9954.5 -0.217391
9955.5 0
9956.5 -0.434783
9957.5 -0.652174
9958.5 -0.434783
9959.5 0.782609
9960.5 -0.434783
9961.5 -0.434783
9962.5 -0.434783
9963.5 -1.08696
9964.5 0.347826
9965.5 -0.521739
9966.5 -1.08696
9967.5 -2.17391
9968.5 -2.17391
9969.5 0.695652
9970.5 -0.304348
9971.5 -1.17391
9972.5 -2.17391
9973.5 -0.521739
9974.5 -0.652174
9975.5 1.56522
9976.5 -0.217391
9977.5 -0.434783
9978.5 -0.869565
9979.5 -0.652174
9980.5 0.565217
9981.5 1.56522
9982.5 -0.434783
9983.5 0
9984.5 -0.217391
9985.5 1.78261
9986.5 -0.217391
9987.5 0.347826
9988.5 0
9989.5 -0.434783
9990.5 -0.217391
9991.5 0
9992.5 0
9993.5 0
9994.5 -0.652174
9995.5 0
9996.5 0
9997.5 0
9998.5 -0.217391
9999.5 -0.217391
10000.5 0
10001.5 0
10002.5 1
10003.5 0
10004.5 1
10005.5 -0.434783
10006.5 -0.217391
10007.5 -0.217391
10008.5 -0.217391
10009.5 0
10010.5 -0.217391
10011.5 0
10012.5 -0.217391
10013.5 -0.652174
10014.5 -0.217391
10015.5 0
10016.5 -0.217391
10017.5 -0.434783
10018.5 0
10019.5 -0.434783
10020.5 -0.217391
10021.5 -0.217391
10022.5 -0.217391
10023.5 -0.217391
10024.5 0.130435
10025.5 0
10026.5 1
10027.5 -0.217391
10028.5 -0.217391
10029.5 0
10030.5 -0.217391
10031.5 0
10032.5 -0.217391
10033.5 -0.217391
10034.5 0
10035.5 0.782609
10036.5 0
10037.5 0
10038.5 0
10039.5 0
10040.5 -0.217391
10041.5 -0.434783
10042.5 -0.652174
10043.5 0
10044.5 0
10045.5 0
10046.5 0
10047.5 0
10048.5 1
10049.5 0
10050.5 -0.217391
10051.5 0
10052.5 -0.434783
10053.5 0
10054.5 0
10055.5 -0.217391
10056.5 0
10057.5 0
10058.5 0
10059.5 0
10060.5 0
10061.5 0
10062.5 0
10063.5 -0.217391
10064.5 -0.217391
10065.5 0
10066.5 1.78261
10067.5 -0.217391
10068.5 -0.217391
10069.5 -0.217391
10070.5 -0.217391
10071.5 -0.217391
10072.5 0
10073.5 1
10074.5 0
10075.5 0
10076.5 0
10077.5 -0.217391
10078.5 -0.652174
10079.5 0
10080.5 1
10081.5 -0.217391
10082.5 -0.217391
10083.5 0
10084.5 -0.217391
10085.5 0.782609
10086.5 -0.217391
10087.5 -0.217391
10088.5 -0.652174
10089.5 1
10090.5 -0.434783
10091.5 0
10092.5 -0.434783
10093.5 -0.652174
10094.5 0
10095.5 1
10096.5 1
10097.5 0
10098.5 -0.652174
10099.5 -0.434783
10100.5 0
10101.5 0
10102.5 -0.217391
10103.5 0
10104.5 -0.434783
10105.5 0
10106.5 0
10107.5 0
10108.5 -0.217391
10109.5 0
10110.5 0
10111.5 -0.652174
10112.5 -0.434783
10113.5 0
10114.5 -0.217391
10115.5 0
10116.5 0.565217
10117.5 0
10118.5 0
10119.5 -0.217391
10120.5 0
10121.5 0
10122.5 1
10123.5 0
10124.5 0
10125.5 0
10126.5 0
10127.5 0.782609
10128.5 -0.217391
10129.5 -0.434783
10130.5 0
10131.5 0
10132.5 0.782609
10133.5 -0.217391
10134.5 0
10135.5 0
10136.5 -0.217391
10137.5 1
10138.5 0
10139.5 -0.652174
10140.5 0
10141.5 0
10142.5 -0.434783
10143.5 0
10144.5 -0.434783
10145.5 -0.217391
10146.5 0
10147.5 0
10148.5 0
10149.5 0
10150.5 0
10151.5 0
10152.5 0
10153.5 -0.217391
10154.5 -0.217391
10155.5 -0.434783
10156.5 0
10157.5 0
10158.5 1
10159.5 0.782609
10160.5 0
10161.5 -0.217391
10162.5 -0.217391
10163.5 -0.434783
10164.5 -0.217391
10165.5 -0.217391
10166.5 -0.217391
10167.5 0
10168.5 1
10169.5 -0.217391
10170.5 0
10171.5 -0.217391
10172.5 -0.434783
10173.5 -0.652174
10174.5 0
10175.5 0
10176.5 0
10177.5 0
10178.5 0
10179.5 -0.217391
10180.5 0
10181.5 -0.434783
10182.5 0
10183.5 -0.434783
10184.5 0
10185.5 -0.217391
10186.5 0
10187.5 0
10188.5 1
10189.5 -0.217391
10190.5 1
10191.5 0
10192.5 -0.434783
10193.5 0
10194.5 -0.217391
10195.5 -0.217391
10196.5 0
10197.5 0
10198.5 0.782609
10199.5 0
10200.5 1
10201.5 -0.652174
10202.5 -0.217391
10203.5 -0.652174
10204.5 -0.217391
10205.5 0.782609
10206.5 0
10207.5 1
10208.5 -0.652174
10209.5 -0.217391
10210.5 0
10211.5 1
10212.5 0
10213.5 0
10214.5 0
10215.5 0.782609
10216.5 0
10217.5 0
10218.5 0.347826
10219.5 0
10220.5 1
10221.5 0
10222.5 0
10223.5 0
10224.5 0
10225.5 0
10226.5 0
10227.5 0
10228.5 1
10229.5 0
10230.5 0
10231.5 0
10232.5 0
10233.5 0
10234.5 -0.434783
10235.5 0.565217
10236.5 0
10237.5 -0.217391
10238.5 0
10239.5 0
10240.5 -0.217391
10241.5 -0.217391
10242.5 0
10243.5 -0.217391
10244.5 0.782609
10245.5 0
10246.5 0
10247.5 1
10248.5 -0.217391
10249.5 0
10250.5 0
10251.5 -0.434783
10252.5 0
10253.5 0
10254.5 -0.217391
10255.5 1
10256.5 0
10257.5 -0.434783
10258.5 -0.217391
10259.5 0
10260.5 -0.434783
10261.5 1
10262.5 -0.434783
10263.5 -0.217391
10264.5 -0.217391
10265.5 0
10266.5 0
10267.5 -0.434783
10268.5 0
10269.5 0
10270.5 0
10271.5 -0.217391
10272.5 0
10273.5 0
10274.5 -0.217391
10275.5 -0.434783
10276.5 -0.217391
10277.5 0
10278.5 0
10279.5 -0.217391
10280.5 0
10281.5 0
10282.5 1
10283.5 0
10284.5 0
10285.5 -0.217391
10286.5 0.782609
10287.5 -0.217391
10288.5 0.565217
10289.5 -0.217391
10290.5 0
10291.5 0
10292.5 0
10293.5 0
10294.5 0
10295.5 -0.434783
10296.5 0
10297.5 0
10298.5 0.565217
10299.5 0
10300.5 0
10301.5 -0.217391
10302.5 0
10303.5 -0.217391
10304.5 0
10305.5 -0.434783
10306.5 -0.217391
10307.5 0
10308.5 -0.217391
10309.5 -0.217391
10310.5 0
10311.5 0
10312.5 0.347826
10313.5 0
10314.5 0.782609
10315.5 0
10316.5 0
10317.5 0
10318.5 0.782609
10319.5 -0.434783
10320.5 -0.217391
10321.5 0
10322.5 0.782609
10323.5 0
10324.5 0
10325.5 0.347826
10326.5 0
10327.5 0
10328.5 0
10329.5 0
10330.5 0
10331.5 -0.434783
10332.5 -0.434783
10333.5 0
10334.5 -0.217391
10335.5 -0.217391
10336.5 0
10337.5 0
10338.5 -0.217391
10339.5 0
10340.5 -0.434783
10341.5 0
10342.5 -0.434783
10343.5 0
10344.5 0
10345.5 0
10346.5 0
10347.5 1
10348.5 0
10349.5 0
10350.5 0
10351.5 -0.217391
10352.5 0
10353.5 0
10354.5 -0.434783
10355.5 0
10356.5 1
10357.5 -0.652174
10358.5 -0.217391
10359.5 -0.217391
10360.5 0
10361.5 -0.217391
10362.5 0
10363.5 0
10364.5 0
10365.5 0
10366.5 0
10367.5 -0.217391
10368.5 -0.217391
10369.5 -0.434783
10370.5 0
10371.5 0
10372.5 -0.217391
10373.5 0
10374.5 0
10375.5 1
10376.5 0.782609
10377.5 -0.217391
10378.5 -0.217391
10379.5 1
10380.5 -0.217391
10381.5 0.782609
10382.5 -0.217391
10383.5 -0.217391
10384.5 0
10385.5 -0.217391
10386.5 0
10387.5 0
10388.5 0
10389.5 -0.217391
10390.5 0
10391.5 -0.217391
10392.5 0
10393.5 -0.217391
10394.5 0
10395.5 0
10396.5 -0.434783
10397.5 0
10398.5 0
10399.5 0
10400.5 -0.217391
10401.5 0
10402.5 -0.217391
10403.5 0.782609
10404.5 -0.217391
10405.5 0
10406.5 0
10407.5 0
10408.5 -0.217391
10409.5 0
10410.5 -0.217391
10411.5 0
10412.5 -0.217391
10413.5 0
10414.5 1.78261
10415.5 0
10416.5 0
10417.5 0
10418.5 0
10419.5 1
10420.5 0
10421.5 -0.217391
10422.5 -0.434783
10423.5 -0.217391
10424.5 0
10425.5 0
10426.5 0
10427.5 0
10428.5 0
10429.5 0
10430.5 0
10431.5 0
10432.5 0
10433.5 1
10434.5 0
10435.5 0
10436.5 0
10437.5 0
10438.5 0
10439.5 0
10440.5 0.782609
10441.5 0
10442.5 0
10443.5 -0.217391
10444.5 0
10445.5 -0.217391
10446.5 1
10447.5 0
10448.5 0
10449.5 0
10450.5 -0.217391
10451.5 0
10452.5 0
10453.5 0
10454.5 -0.217391
10455.5 0
10456.5 0
10457.5 0
10458.5 0
10459.5 0
10460.5 -0.217391
10461.5 -0.217391
10462.5 -0.434783
10463.5 0
10464.5 0
10465.5 0
10466.5 0
10467.5 0
10468.5 -0.434783
10469.5 0
10470.5 0
10471.5 0
10472.5 1
10473.5 -0.217391
10474.5 0
10475.5 0
10476.5 -0.217391
10477.5 0
10478.5 0
10479.5 0
10480.5 0
10481.5 -0.217391
10482.5 1
10483.5 0
10484.5 0
10485.5 0
10486.5 0
10487.5 0
10488.5 0
10489.5 0
10490.5 -0.217391
10491.5 0
10492.5 -0.434783
10493.5 0
10494.5 -0.217391
10495.5 -0.217391
10496.5 0
10497.5 0
10498.5 0
10499.5 0
10500.5 0
10501.5 -0.217391
10502.5 0
10503.5 0.782609
10504.5 0
10505.5 1
10506.5 0
10507.5 0
10508.5 -0.217391
10509.5 -0.217391
10510.5 0
10511.5 0
10512.5 0
10513.5 0
10514.5 0
10515.5 -0.217391
10516.5 0
10517.5 0
10518.5 0.782609
10519.5 -0.217391
10520.5 0
10521.5 0
10522.5 0
10523.5 0
10524.5 -0.217391
10525.5 0
10526.5 0
10527.5 0
10528.5 0
10529.5 -0.434783
10530.5 0
10531.5 0
10532.5 -0.217391
10533.5 -0.217391
10534.5 -0.217391
10535.5 0
10536.5 -0.217391
10537.5 0
10538.5 0
10539.5 -0.217391
10540.5 0
10541.5 0
10542.5 -0.217391
10543.5 -0.217391
10544.5 0
10545.5 0
10546.5 0
10547.5 0
10548.5 0
10549.5 0
10550.5 0
10551.5 0
10552.5 0
10553.5 -0.217391
10554.5 -0.217391
10555.5 -0.217391
10556.5 0
10557.5 -0.217391
10558.5 -0.217391
10559.5 0
10560.5 0
10561.5 0
10562.5 0
10563.5 0
10564.5 0
10565.5 0
10566.5 -0.217391
10567.5 -0.217391
10568.5 0
10569.5 0
10570.5 0
10571.5 0
10572.5 0
10573.5 -0.652174
10574.5 0
10575.5 0
10576.5 0
10577.5 0
10578.5 0
10579.5 -0.217391
10580.5 0
10581.5 0
10582.5 -0.217391
10583.5 0
10584.5 0
10585.5 0
10586.5 0
10587.5 0
10588.5 -0.217391
10589.5 0
10590.5 0
10591.5 0
10592.5 0
10593.5 1
10594.5 0
10595.5 0
10596.5 0
10597.5 0
10598.5 0
10599.5 0
10600.5 0
10601.5 0
10602.5 1
10603.5 -0.217391
10604.5 0
10605.5 0
10606.5 0
10607.5 0
10608.5 -0.217391
10609.5 -0.217391
10610.5 -0.217391
10611.5 0
10612.5 0
10613.5 0
10614.5 0
10615.5 0
10616.5 -0.217391
10617.5 0
10618.5 1
10619.5 0
10620.5 -0.652174
10621.5 0
10622.5 0
10623.5 -0.434783
10624.5 0
10625.5 0
10626.5 0.782609
10627.5 0
10628.5 0
10629.5 0
10630.5 0
10631.5 -0.217391
10632.5 0.782609
10633.5 -0.217391
10634.5 -0.217391
10635.5 0
10636.5 -0.217391
10637.5 1
10638.5 -0.217391
10639.5 0
10640.5 -0.434783
10641.5 -0.217391
10642.5 0
10643.5 -0.652174
10644.5 0
10645.5 0
10646.5 0
10647.5 1
10648.5 1
10649.5 0
10650.5 0
10651.5 0
10652.5 0
10653.5 0
10654.5 0
10655.5 0
10656.5 -0.217391
10657.5 0
10658.5 -0.217391
10659.5 1
10660.5 0
10661.5 -0.217391
10662.5 0
10663.5 -0.434783
10664.5 0
10665.5 0
10666.5 0
10667.5 -0.217391
10668.5 -0.217391
10669.5 0
10670.5 -0.434783
10671.5 0
10672.5 0
10673.5 0
10674.5 0
10675.5 -0.217391
10676.5 0
10677.5 -0.217391
10678.5 -0.434783
10679.5 0
10680.5 0
10681.5 -0.217391
10682.5 -0.217391
10683.5 0
10684.5 0
10685.5 -0.434783
10686.5 0
10687.5 0
10688.5 0
10689.5 0
10690.5 -0.217391
10691.5 0
10692.5 0
10693.5 0
10694.5 -0.217391
10695.5 0
10696.5 0
10697.5 0
10698.5 -0.217391
10699.5 0
10700.5 0
10701.5 0
10702.5 -0.217391
10703.5 -0.217391
10704.5 0
10705.5 0
10706.5 0
10707.5 0
10708.5 0
10709.5 0
10710.5 0
10711.5 0
10712.5 0
10713.5 0
10714.5 0
10715.5 0
10716.5 0
10717.5 -0.217391
10718.5 0
10719.5 0
10720.5 0
10721.5 0
10722.5 -0.217391
10723.5 0
10724.5 -0.434783
10725.5 0
10726.5 0
10727.5 -0.217391
10728.5 -0.217391
10729.5 -0.217391
10730.5 -0.217391
10731.5 0
10732.5 0
10733.5 0
10734.5 1
10735.5 0
10736.5 0
10737.5 0
10738.5 0
10739.5 1
10740.5 0
10741.5 0
10742.5 0.782609
10743.5 0
10744.5 0
10745.5 0
10746.5 0
10747.5 0
10748.5 -0.217391
10749.5 0
10750.5 0.782609
10751.5 1
10752.5 0
10753.5 0
10754.5 0
10755.5 -0.217391
10756.5 -0.217391
10757.5 -0.217391
10758.5 0
10759.5 0
10760.5 -0.217391
10761.5 -0.217391
10762.5 -0.217391
10763.5 0
10764.5 0
10765.5 1
10766.5 0
10767.5 0
10768.5 0
10769.5 0
10770.5 0
10771.5 0
10772.5 -0.217391
10773.5 0
10774.5 -0.217391
10775.5 0
10776.5 -0.217391
10777.5 0
10778.5 0
10779.5 0
10780.5 0
10781.5 0
10782.5 0
10783.5 0
10784.5 0
10785.5 0
10786.5 1
10787.5 0
10788.5 0
10789.5 0
10790.5 0
10791.5 0
10792.5 0
10793.5 0
10794.5 1
10795.5 0
10796.5 0
10797.5 0
10798.5 0
10799.5 0
10800.5 -0.217391
10801.5 0
10802.5 0
10803.5 0
10804.5 0
10805.5 0
10806.5 0.782609
10807.5 0
10808.5 -0.217391
10809.5 0
10810.5 0
10811.5 1
10812.5 0
10813.5 0
10814.5 0
10815.5 0
10816.5 0
10817.5 0
10818.5 1
10819.5 -0.217391
10820.5 0
10821.5 0
10822.5 0
10823.5 -0.217391
10824.5 0
10825.5 -0.217391
10826.5 -0.217391
10827.5 0
10828.5 0
10829.5 0
10830.5 0
10831.5 0
10832.5 0
10833.5 0
10834.5 0
10835.5 -0.217391
10836.5 0
10837.5 0
10838.5 -0.217391
10839.5 0
10840.5 0
10841.5 0
10842.5 0
10843.5 0
10844.5 0
10845.5 0
10846.5 -0.434783
10847.5 -0.217391
10848.5 -0.217391
10849.5 0
10850.5 0
10851.5 0
10852.5 0
10853.5 -0.217391
10854.5 0
10855.5 1
10856.5 0
10857.5 0
10858.5 0
10859.5 0
10860.5 0
10861.5 1
10862.5 0
10863.5 0
10864.5 0
10865.5 0
10866.5 0
10867.5 0
10868.5 0
10869.5 -0.217391
10870.5 0
10871.5 0
10872.5 0
10873.5 0
10874.5 0
10875.5 0
10876.5 0
10877.5 0
10878.5 -0.217391
10879.5 0
10880.5 -0.217391
10881.5 0
10882.5 0
10883.5 0
10884.5 0
10885.5 0
10886.5 0
10887.5 -0.217391
10888.5 0
10889.5 0
10890.5 0
10891.5 0
10892.5 0
10893.5 0
10894.5 1
10895.5 0
10896.5 0
10897.5 0
10898.5 -0.217391
10899.5 0
10900.5 0
10901.5 0
10902.5 -0.217391
10903.5 0
10904.5 -0.217391
10905.5 0
10906.5 0
10907.5 0
10908.5 -0.217391
10909.5 -0.217391
10910.5 -0.217391
10911.5 0
10912.5 0
10913.5 0
10914.5 1
10915.5 -0.217391
10916.5 0
10917.5 0
10918.5 0
10919.5 -0.217391
10920.5 0
10921.5 0
10922.5 0
10923.5 0
10924.5 0
10925.5 0
10926.5 0
10927.5 0
10928.5 0
10929.5 0
10930.5 0
10931.5 0
10932.5 0
10933.5 0
10934.5 0
10935.5 0
10936.5 0
10937.5 1
10938.5 0
10939.5 0
10940.5 -0.217391
10941.5 0
10942.5 0
10943.5 -0.217391
10944.5 0
10945.5 0
10946.5 0
10947.5 0
10948.5 -0.217391
10949.5 0
10950.5 0
10951.5 0
10952.5 0
10953.5 0
10954.5 0
10955.5 0
10956.5 0
10957.5 0
10958.5 0
10959.5 0
10960.5 0
10961.5 0
10962.5 0
10963.5 0
10964.5 -0.434783
10965.5 -0.217391
10966.5 -0.217391
10967.5 0
10968.5 0
10969.5 0
10970.5 0
10971.5 -0.217391
10972.5 0
10973.5 0
10974.5 0
10975.5 0
10976.5 0
10977.5 0
10978.5 0
10979.5 0
10980.5 0
10981.5 0
10982.5 -0.217391
10983.5 -0.217391
10984.5 0
10985.5 -0.217391
10986.5 0
10987.5 0
10988.5 0
10989.5 -0.217391
10990.5 0
10991.5 0
10992.5 0
10993.5 0
10994.5 0
10995.5 0
10996.5 -0.217391
10997.5 0
10998.5 0
10999.5 -0.217391
11000.5 0
11001.5 0
11002.5 0
11003.5 0
11004.5 -0.217391
11005.5 0
11006.5 -0.217391
11007.5 0
11008.5 0
11009.5 0
11010.5 -0.434783
11011.5 -0.217391
11012.5 0
11013.5 0
11014.5 0
11015.5 -0.217391
11016.5 1
11017.5 0
11018.5 -0.217391
11019.5 0
11020.5 0
11021.5 0
11022.5 0
11023.5 0
11024.5 0
11025.5 0
11026.5 -0.217391
11027.5 0
11028.5 0
11029.5 0
11030.5 0
11031.5 0
11032.5 0
11033.5 -0.217391
11034.5 0
11035.5 0
11036.5 0
11037.5 -0.434783
11038.5 0
11039.5 0
11040.5 -0.217391
11041.5 0
11042.5 0
11043.5 0
11044.5 0
11045.5 0
11046.5 0
11047.5 0
11048.5 0
11049.5 0
11050.5 0
11051.5 0
11052.5 0
11053.5 0
11054.5 0
11055.5 0
11056.5 0
11057.5 0
11058.5 0
11059.5 0
11060.5 0
11061.5 0
11062.5 0
11063.5 0
11064.5 -0.217391
11065.5 0
11066.5 0
11067.5 0
11068.5 0
11069.5 0
11070.5 -0.217391
11071.5 0
11072.5 -0.217391
11073.5 -0.217391
11074.5 0
11075.5 0
11076.5 -0.217391
11077.5 0
11078.5 0
11079.5 -0.217391
11080.5 0
11081.5 0
11082.5 0
11083.5 0
11084.5 0
11085.5 1
11086.5 0
11087.5 0
11088.5 0
11089.5 0
11090.5 0
11091.5 0
11092.5 0
11093.5 0
11094.5 -0.217391
11095.5 0
11096.5 0
11097.5 0
11098.5 0
11099.5 0
11100.5 0
11101.5 0
11102.5 0
11103.5 0
11104.5 0
11105.5 -0.217391
11106.5 0
11107.5 -0.217391
11108.5 0
11109.5 0
11110.5 0
11111.5 0
11112.5 0
11113.5 0
11114.5 0
11115.5 0
11116.5 0
11117.5 0
11118.5 0
11119.5 0
11120.5 0
11121.5 0
11122.5 0
11123.5 0
11124.5 0
11125.5 0
11126.5 0
11127.5 -0.217391
11128.5 0
11129.5 0
11130.5 0
11131.5 0
11132.5 0
11133.5 0
11134.5 0
11135.5 0
11136.5 0
11137.5 0
11138.5 -0.217391
11139.5 0
11140.5 -0.217391
11141.5 0
11142.5 0
11143.5 0
11144.5 0
11145.5 0
11146.5 0
11147.5 -0.217391
11148.5 -0.217391
11149.5 0
11150.5 0
11151.5 0
11152.5 -0.217391
11153.5 0
11154.5 0
11155.5 0
11156.5 0
11157.5 0
11158.5 0
11159.5 0
11160.5 -0.217391
11161.5 -0.217391
11162.5 0
11163.5 0
11164.5 -0.217391
11165.5 0
11166.5 0
11167.5 -0.217391
11168.5 0
11169.5 0
11170.5 0
11171.5 0
11172.5 1
11173.5 0
11174.5 0
11175.5 0
11176.5 0
11177.5 0
11178.5 0
11179.5 0
11180.5 0
11181.5 0.782609
11182.5 0
11183.5 0
11184.5 0
11185.5 0
11186.5 0
11187.5 -0.217391
11188.5 0
11189.5 0
11190.5 0
11191.5 0
11192.5 0
11193.5 0
11194.5 0
11195.5 -0.217391
11196.5 -0.217391
11197.5 0
11198.5 0
11199.5 0
11200.5 0
11201.5 0
11202.5 -0.217391
11203.5 0
11204.5 0
11205.5 0
11206.5 0
11207.5 0
11208.5 0
11209.5 0
11210.5 0
11211.5 0
11212.5 0
11213.5 0
11214.5 1
11215.5 0
11216.5 -0.217391
11217.5 0
11218.5 0
11219.5 0
11220.5 0
11221.5 1
11222.5 0
11223.5 0
11224.5 1
11225.5 0
11226.5 -0.217391
11227.5 -0.217391
11228.5 0
11229.5 -0.217391
11230.5 0
11231.5 0
11232.5 0
11233.5 -0.217391
11234.5 0
11235.5 0
11236.5 0
11237.5 0
11238.5 0
11239.5 0
11240.5 0
11241.5 0
11242.5 0
11243.5 1
11244.5 0
11245.5 0
11246.5 0
11247.5 0
11248.5 0
11249.5 0
11250.5 -0.217391
11251.5 0
11252.5 0
11253.5 -0.217391
11254.5 0.565217
11255.5 -0.217391
11256.5 0
11257.5 0
11258.5 0
11259.5 0
11260.5 0
11261.5 0
11262.5 0
11263.5 0
11264.5 0
11265.5 0
11266.5 0
11267.5 0
11268.5 0
11269.5 0
11270.5 -0.217391
11271.5 0
11272.5 0
11273.5 -0.217391
11274.5 0
11275.5 0
11276.5 0
11277.5 0
11278.5 0
11279.5 -0.217391
11280.5 -0.217391
11281.5 0
11282.5 0
11283.5 0
11284.5 0
11285.5 0
11286.5 0
11287.5 0
11288.5 0
11289.5 0
11290.5 0
11291.5 0
11292.5 0
11293.5 0
11294.5 0
11295.5 0
11296.5 0
11297.5 0
11298.5 0
11299.5 0
11300.5 0
11301.5 0
11302.5 0
11303.5 0
11304.5 -0.217391
11305.5 0
11306.5 0
11307.5 0
11308.5 0
11309.5 0
11310.5 0
11311.5 0
11312.5 0
11313.5 0
11314.5 0
11315.5 0
11316.5 0
11317.5 0
11318.5 0
11319.5 0
11320.5 0
11321.5 0
11322.5 0
11323.5 0
11324.5 0
11325.5 0
11326.5 0
11327.5 0
11328.5 0
11329.5 0
11330.5 0
11331.5 0.782609
11332.5 0
11333.5 -0.217391
11334.5 0
11335.5 1
11336.5 0
11337.5 0
11338.5 0
11339.5 -0.217391
11340.5 0
11341.5 0
11342.5 0
11343.5 0
11344.5 0
11345.5 0
11346.5 0
11347.5 0
11348.5 0.782609
11349.5 0
11350.5 0
11351.5 0
11352.5 0
11353.5 0
11354.5 0
11355.5 0
11356.5 0
11357.5 -0.217391
11358.5 0
11359.5 0
11360.5 0
11361.5 0
11362.5 0
11363.5 0
11364.5 0
11365.5 0
11366.5 0
11367.5 -0.217391
11368.5 0
11369.5 0
11370.5 0
11371.5 -0.217391
11372.5 0
11373.5 0
11374.5 0
11375.5 0
11376.5 0
11377.5 0
11378.5 0
11379.5 0
11380.5 0
11381.5 0
11382.5 0
11383.5 -0.217391
11384.5 0
11385.5 0
11386.5 0
11387.5 0
11388.5 -0.217391
11389.5 0
11390.5 -0.217391
11391.5 0
11392.5 0
11393.5 0
11394.5 0
11395.5 -0.217391
11396.5 0
11397.5 0
11398.5 0
11399.5 0
11400.5 0
11401.5 -0.217391
11402.5 -0.217391
11403.5 0
11404.5 0
11405.5 0
11406.5 0
11407.5 0
11408.5 -0.217391
11409.5 0
11410.5 -0.652174
11411.5 0
11412.5 0
11413.5 0
11414.5 0
11415.5 0
11416.5 0
11417.5 0
11418.5 0
11419.5 0
11420.5 -0.217391
11421.5 0.782609
11422.5 0
11423.5 0
11424.5 0
11425.5 0
11426.5 0
11427.5 0
11428.5 0
11429.5 -0.217391
11430.5 0
11431.5 0
11432.5 -0.434783
11433.5 0
11434.5 -0.217391
11435.5 0
11436.5 1
11437.5 -0.217391
11438.5 0
11439.5 0
11440.5 0
11441.5 0
11442.5 0
11443.5 0
11444.5 -0.217391
11445.5 0
11446.5 0
11447.5 0
11448.5 0
11449.5 0
11450.5 -0.217391
11451.5 0
11452.5 0
11453.5 0
11454.5 0
11455.5 -0.217391
11456.5 0
11457.5 0
11458.5 -0.217391
11459.5 0
11460.5 0
11461.5 -0.217391
11462.5 1
11463.5 0
11464.5 -0.217391
11465.5 0
11466.5 0
11467.5 0
11468.5 0
11469.5 0
11470.5 0
11471.5 -0.217391
11472.5 -0.217391
11473.5 0
11474.5 0
11475.5 0
11476.5 0
11477.5 0
11478.5 0
11479.5 0
11480.5 0
11481.5 0
11482.5 0
11483.5 0
11484.5 0
11485.5 0
11486.5 0
11487.5 0
11488.5 0
11489.5 0
11490.5 0
11491.5 0
11492.5 0
11493.5 0
11494.5 0
11495.5 0
11496.5 0
11497.5 0
11498.5 0
11499.5 -0.217391
11500.5 0
11501.5 -0.217391
11502.5 0
11503.5 0
11504.5 -0.217391
11505.5 0
11506.5 0
11507.5 0
11508.5 0
11509.5 0
11510.5 0
11511.5 0
11512.5 -0.217391
11513.5 0
11514.5 0
11515.5 -0.217391
11516.5 0
11517.5 0
11518.5 0
11519.5 0
11520.5 0
11521.5 0
11522.5 0
11523.5 -0.217391
11524.5 0
11525.5 -0.217391
11526.5 0
11527.5 0
11528.5 0
11529.5 0
11530.5 1
11531.5 0
11532.5 0
11533.5 0
11534.5 0
11535.5 0
11536.5 0
11537.5 0
11538.5 0
11539.5 0
11540.5 -0.217391
11541.5 0
11542.5 0
11543.5 0
11544.5 0
11545.5 0
11546.5 -0.217391
11547.5 -0.217391
11548.5 0
11549.5 0
11550.5 0
11551.5 0
11552.5 -0.217391
11553.5 -0.217391
11554.5 0
11555.5 0
11556.5 0
11557.5 0
11558.5 0
11559.5 0
11560.5 0
11561.5 0
11562.5 0
11563.5 0
11564.5 0
11565.5 0
11566.5 0
11567.5 0
11568.5 0
11569.5 -0.217391
11570.5 0
11571.5 0
11572.5 0
11573.5 0
11574.5 0
11575.5 -0.217391
11576.5 0
11577.5 0
11578.5 0
11579.5 0
11580.5 0
11581.5 0
11582.5 0
11583.5 0
11584.5 0
11585.5 1
11586.5 0
11587.5 0
11588.5 -0.217391
11589.5 0
11590.5 0
11591.5 0
11592.5 0
11593.5 0
11594.5 0
11595.5 0
11596.5 1
11597.5 0
11598.5 0
11599.5 0
11600.5 0
11601.5 0
11602.5 0
11603.5 0
11604.5 0
11605.5 0
11606.5 -0.217391
11607.5 0
11608.5 0
11609.5 0
11610.5 -0.217391
11611.5 0
11612.5 -0.217391
11613.5 1
11614.5 0
11615.5 0
11616.5 0
11617.5 0
11618.5 0
11619.5 0
11620.5 0
11621.5 1
11622.5 0
11623.5 0
11624.5 0
11625.5 0
11626.5 0
11627.5 0
11628.5 0
11629.5 0
11630.5 0
11631.5 0
11632.5 0
11633.5 0
11634.5 0
11635.5 0
11636.5 0
11637.5 0
11638.5 0
11639.5 0
11640.5 0
11641.5 0
11642.5 1
11643.5 0
11644.5 0
11645.5 -0.217391
11646.5 0
11647.5 0
11648.5 0
11649.5 -0.217391
11650.5 -0.217391
11651.5 -0.217391
11652.5 0
11653.5 0
11654.5 0
11655.5 0
11656.5 0
11657.5 0
11658.5 0
11659.5 0
11660.5 -0.217391
11661.5 0
11662.5 0
11663.5 0.782609
11664.5 0
11665.5 0
11666.5 0
11667.5 0
11668.5 0
11669.5 0
11670.5 0
11671.5 1
11672.5 0
11673.5 0
11674.5 -0.217391
11675.5 -0.434783
11676.5 0
11677.5 0
11678.5 0.782609
11679.5 0
11680.5 0
11681.5 0
11682.5 0
11683.5 0
11684.5 0
11685.5 0
11686.5 -0.217391
11687.5 0
11688.5 0
11689.5 0
11690.5 0
11691.5 0
11692.5 0
11693.5 0
11694.5 0
11695.5 0
11696.5 0
11697.5 0
11698.5 0
11699.5 0
11700.5 0
11701.5 0
11702.5 0
11703.5 0
11704.5 0
11705.5 0
11706.5 0
11707.5 0
11708.5 0
11709.5 -0.217391
11710.5 0
11711.5 0
11712.5 0
11713.5 0
11714.5 0
11715.5 -0.217391
11716.5 1
11717.5 -0.217391
11718.5 0
11719.5 0
11720.5 0
11721.5 0
11722.5 0
11723.5 0
11724.5 0
11725.5 0
11726.5 1
11727.5 0
11728.5 0
11729.5 0
11730.5 0
11731.5 0
11732.5 0
11733.5 0
11734.5 0
11735.5 0
11736.5 0
11737.5 -0.217391
11738.5 0
11739.5 0.782609
11740.5 0
11741.5 0
11742.5 0
11743.5 0
11744.5 0
11745.5 0
11746.5 0
11747.5 0
11748.5 -0.217391
11749.5 0
11750.5 -0.217391
11751.5 0
11752.5 -0.217391
11753.5 0
11754.5 0
11755.5 -0.217391
11756.5 0
11757.5 0
11758.5 0
11759.5 0
11760.5 -0.217391
11761.5 0
11762.5 -0.434783
11763.5 0
11764.5 0
11765.5 0
11766.5 0
11767.5 0
11768.5 0
11769.5 0
11770.5 0
11771.5 0
11772.5 0
11773.5 0
11774.5 0
11775.5 0
11776.5 0
11777.5 0
11778.5 0
11779.5 0
11780.5 0
11781.5 0
11782.5 0
11783.5 0
11784.5 0
11785.5 -0.217391
11786.5 0
11787.5 0
11788.5 0
11789.5 -0.217391
11790.5 0
11791.5 0
11792.5 0
11793.5 0
11794.5 -0.217391
11795.5 0
11796.5 0
11797.5 0
11798.5 -0.217391
11799.5 0
11800.5 0
11801.5 1
11802.5 0
11803.5 0
11804.5 0
11805.5 0
11806.5 0
11807.5 0
11808.5 0
11809.5 0
11810.5 0
11811.5 0
11812.5 0
11813.5 0
11814.5 -0.217391
11815.5 0
11816.5 0
11817.5 0
11818.5 0
11819.5 1
11820.5 0
11821.5 0
11822.5 0
11823.5 0
11824.5 -0.217391
11825.5 0
11826.5 0
11827.5 0
11828.5 0
11829.5 -0.217391
11830.5 -0.217391
11831.5 0
11832.5 0
11833.5 0
11834.5 0
11835.5 0
11836.5 0
11837.5 0
11838.5 0
11839.5 0
11840.5 0
11841.5 0
11842.5 0
11843.5 0
11844.5 0
11845.5 0
11846.5 -0.217391
11847.5 0
11848.5 0
11849.5 -0.217391
11850.5 0
11851.5 0
11852.5 0
11853.5 0
11854.5 0
11855.5 0
11856.5 0
11857.5 0
11858.5 0
11859.5 0
11860.5 0
11861.5 0
11862.5 0
11863.5 0
11864.5 0
11865.5 0
11866.5 0
11867.5 0
11868.5 0
11869.5 0
11870.5 0
11871.5 -0.217391
11872.5 0
11873.5 0
11874.5 0
11875.5 -0.217391
11876.5 0
11877.5 0
11878.5 0
11879.5 0
11880.5 0
11881.5 0
11882.5 0
11883.5 0
11884.5 0
11885.5 -0.217391
11886.5 -0.217391
11887.5 0
11888.5 0
11889.5 0
11890.5 0
11891.5 0
11892.5 0
11893.5 0
11894.5 0.782609
11895.5 0
11896.5 0
11897.5 0
11898.5 0
11899.5 0
11900.5 0
11901.5 0
11902.5 0
11903.5 0
11904.5 0
11905.5 0
11906.5 0
11907.5 0
11908.5 0
11909.5 0
11910.5 -0.217391
11911.5 1
11912.5 -0.217391
11913.5 0
11914.5 0
11915.5 0
11916.5 0
11917.5 0
11918.5 0
11919.5 0
11920.5 0
11921.5 0
11922.5 -0.434783
11923.5 0
11924.5 0
11925.5 0
11926.5 0
11927.5 0
11928.5 0
11929.5 0
11930.5 0
11931.5 0
11932.5 0
11933.5 0
11934.5 0
11935.5 0
11936.5 0
11937.5 0
11938.5 0
11939.5 -0.217391
11940.5 0
11941.5 0
11942.5 0
11943.5 0
11944.5 0
11945.5 -0.217391
11946.5 0
11947.5 0
11948.5 0
11949.5 0
11950.5 0
11951.5 0
11952.5 0
11953.5 0
11954.5 0
11955.5 -0.434783
11956.5 0
11957.5 0
11958.5 0
11959.5 0
11960.5 -0.217391
11961.5 0
11962.5 0
11963.5 0
11964.5 0
11965.5 0
11966.5 0
11967.5 0
11968.5 0
11969.5 0
11970.5 0
11971.5 0
11972.5 0
11973.5 -0.217391
11974.5 0
11975.5 0
11976.5 0
11977.5 0
11978.5 0
11979.5 0
11980.5 0
11981.5 0
11982.5 0
11983.5 0
11984.5 0
11985.5 0
11986.5 0
11987.5 0
11988.5 0
11989.5 0
11990.5 -0.434783
11991.5 0
11992.5 0
11993.5 0
11994.5 0
11995.5 0
11996.5 0
11997.5 0
11998.5 0
11999.5 0
