# EGG_ProjY_E5841.5(6.5)_B5806.5(3.5)_B5852.5(3.5)
# X axis : Energy (keV) [Y axis]
# Y axis : Counts/1 keV
# N Bins : 12000
# X Min : 0
# X Max : 12000
# X value at the center of the bins
0.5 0
1.5 0
2.5 0
3.5 0
4.5 0
5.5 15
6.5 23.7857
7.5 59.2857
8.5 2.64286
9.5 5.92857
10.5 35.3571
11.5 31.2857
12.5 22.7143
13.5 27.7143
14.5 20.7857
15.5 46.3571
16.5 93.7143
17.5 43.8572
18.5 22.5714
19.5 93.5
20.5 72.2143
21.5 120.214
22.5 81.0714
23.5 181.643
24.5 149.571
25.5 180.643
26.5 206.143
27.5 272
28.5 271
29.5 361.571
30.5 363.929
31.5 332.929
32.5 337.286
33.5 430
34.5 391.714
35.5 395.786
36.5 489.643
37.5 380.643
38.5 375
39.5 406.714
40.5 341.857
41.5 430.429
42.5 473.5
43.5 397.5
44.5 352.571
45.5 353.143
46.5 432.929
47.5 461.143
48.5 507.571
49.5 450.357
50.5 527.286
51.5 434.786
52.5 511.857
53.5 444.929
54.5 525.643
55.5 505.214
56.5 612.286
57.5 678.786
58.5 667.357
59.5 829.286
60.5 696.357
61.5 540.5
62.5 488.286
63.5 524.714
64.5 546.286
65.5 622.786
66.5 615.5
67.5 734.071
68.5 598.571
69.5 677.643
70.5 565.429
71.5 527.286
72.5 432.286
73.5 748.857
74.5 882.286
75.5 1026.57
76.5 1044.36
77.5 1230.57
78.5 712.286
79.5 521.071
80.5 478.143
81.5 618.143
82.5 497
83.5 546.429
84.5 495.786
85.5 612
86.5 870.929
87.5 673.5
88.5 548.071
89.5 613.357
90.5 458.643
91.5 462
92.5 416.786
93.5 383.357
94.5 434.929
95.5 424.857
96.5 453.5
97.5 554
98.5 450.429
99.5 499.929
100.5 469.786
101.5 469.214
102.5 530.214
103.5 500.786
104.5 510.643
105.5 450
106.5 633.071
107.5 495.429
108.5 582.286
109.5 509.571
110.5 445.429
111.5 475.5
112.5 664.714
113.5 505.5
114.5 536.357
115.5 525.929
116.5 650.929
117.5 614.857
118.5 739.714
119.5 696.786
120.5 702
121.5 812.643
122.5 824.857
123.5 878.357
124.5 1023.57
125.5 872.143
126.5 814.929
127.5 877.643
128.5 822.786
129.5 880.714
130.5 889.286
131.5 818.357
132.5 911.857
133.5 842.214
134.5 756.071
135.5 681.143
136.5 888.5
137.5 681.857
138.5 730.714
139.5 695.071
140.5 745.5
141.5 636.286
142.5 552.714
143.5 605.929
144.5 569.286
145.5 404.286
146.5 486.5
147.5 439.143
148.5 719.5
149.5 667.143
150.5 738.429
151.5 843.071
152.5 926.429
153.5 918.5
154.5 954.5
155.5 919.286
156.5 979.286
157.5 926.929
158.5 930.357
159.5 975
160.5 879.929
161.5 807.214
162.5 857.786
163.5 928.929
164.5 803.071
165.5 749.929
166.5 657.429
167.5 758.643
168.5 760.857
169.5 783.857
170.5 852.071
171.5 680.714
172.5 794.5
173.5 791.286
174.5 761
175.5 756.5
176.5 592.357
177.5 543.143
178.5 471.643
179.5 273.357
180.5 433.643
181.5 450.857
182.5 622
183.5 527
184.5 755
185.5 894.571
186.5 893.143
187.5 1040.43
188.5 1049.86
189.5 1045.14
190.5 1188.71
191.5 1007.43
192.5 941.429
193.5 1058.71
194.5 975.571
195.5 936.857
196.5 1036.79
197.5 1089.36
198.5 1078.43
199.5 905.643
200.5 947.357
201.5 883
202.5 860.929
203.5 880.857
204.5 857.071
205.5 808.786
206.5 773.429
207.5 859.643
208.5 914.143
209.5 960
210.5 911.643
211.5 891.786
212.5 971.143
213.5 1018
214.5 972.857
215.5 905.786
216.5 996.643
217.5 882.143
218.5 924.571
219.5 832.071
220.5 845.214
221.5 735.429
222.5 677.5
223.5 696.786
224.5 612.286
225.5 682.714
226.5 622.429
227.5 468.571
228.5 526.714
229.5 655.857
230.5 661.143
231.5 656.357
232.5 745.857
233.5 731.929
234.5 770.5
235.5 739.071
236.5 629.5
237.5 931.571
238.5 865.429
239.5 827.214
240.5 892.429
241.5 812.714
242.5 849.357
243.5 922.857
244.5 780.571
245.5 804.643
246.5 833.857
247.5 930.5
248.5 717.571
249.5 725
250.5 675.286
251.5 788
252.5 646.214
253.5 488.643
254.5 732.929
255.5 634
256.5 607.143
257.5 647.214
258.5 759.929
259.5 750.857
260.5 840.214
261.5 801.357
262.5 846.357
263.5 857.643
264.5 945.5
265.5 871.071
266.5 868.286
267.5 772.357
268.5 687
269.5 691.857
270.5 732.143
271.5 619.429
272.5 684.429
273.5 896.643
274.5 828.071
275.5 984.357
276.5 1019.36
277.5 1047.86
278.5 1207.29
279.5 1178.93
280.5 1156.93
281.5 1244.93
282.5 1152.14
283.5 1119.43
284.5 1082.79
285.5 1110.64
286.5 1047.14
287.5 933.643
288.5 922.857
289.5 759.286
290.5 665.071
291.5 692.714
292.5 596.5
293.5 652
294.5 679.286
295.5 554.714
296.5 423.214
297.5 535.714
298.5 541.071
299.5 550.929
300.5 654.714
301.5 463.143
302.5 435.357
303.5 498.357
304.5 497.214
305.5 393.286
306.5 565
307.5 509.071
308.5 552.143
309.5 518.571
310.5 534.286
311.5 448.929
312.5 359.857
313.5 342.786
314.5 181.214
315.5 194.5
316.5 192.643
317.5 192.071
318.5 362.286
319.5 241.5
320.5 411.5
321.5 375.786
322.5 495.429
323.5 558.571
324.5 471.929
325.5 511.286
326.5 536.929
327.5 579.286
328.5 532.5
329.5 537.429
330.5 510.929
331.5 532
332.5 576.143
333.5 610.714
334.5 634.429
335.5 587.5
336.5 506.714
337.5 605.714
338.5 493.286
339.5 532.786
340.5 503.143
341.5 545.857
342.5 547.571
343.5 557.071
344.5 576.714
345.5 477.714
346.5 637.929
347.5 572
348.5 530.429
349.5 500.071
350.5 486.214
351.5 630.071
352.5 503.214
353.5 598.714
354.5 548.571
355.5 595.714
356.5 561.429
357.5 600.071
358.5 646.643
359.5 560.643
360.5 564.214
361.5 580.071
362.5 419.071
363.5 513.643
364.5 578.357
365.5 493.571
366.5 495.571
367.5 544.214
368.5 588.643
369.5 488.857
370.5 394.5
371.5 497.643
372.5 514.071
373.5 444.5
374.5 506.929
375.5 602
376.5 577.786
377.5 581
378.5 638.429
379.5 591.5
380.5 600.5
381.5 711.5
382.5 639.643
383.5 640.214
384.5 591.929
385.5 592.214
386.5 619.5
387.5 567.786
388.5 583.786
389.5 510.071
390.5 537.857
391.5 526.071
392.5 479.357
393.5 492.214
394.5 486.429
395.5 521
396.5 526.929
397.5 510.857
398.5 497.571
399.5 568.714
400.5 558.357
401.5 690.071
402.5 1477.43
403.5 3628.5
404.5 3999.79
405.5 1616.57
406.5 640.643
407.5 483.286
408.5 435.143
409.5 543.357
410.5 503.071
411.5 439.571
412.5 473.643
413.5 495.357
414.5 488.571
415.5 494.5
416.5 446.5
417.5 512.214
418.5 465.071
419.5 434.643
420.5 589.643
421.5 445.571
422.5 513.857
423.5 418.571
424.5 427.571
425.5 465
426.5 486.5
427.5 480.357
428.5 494.643
429.5 396.286
430.5 487.071
431.5 477.429
432.5 481
433.5 479.5
434.5 380.357
435.5 427.214
436.5 438.714
437.5 461
438.5 404.643
439.5 487.071
440.5 480.429
441.5 443.714
442.5 412.929
443.5 363.929
444.5 382.143
445.5 425.929
446.5 425.286
447.5 417.357
448.5 331.143
449.5 425.357
450.5 382.214
451.5 304
452.5 417.571
453.5 424.929
454.5 334.357
455.5 431.071
456.5 449.071
457.5 370.929
458.5 403.643
459.5 351.786
460.5 347.071
461.5 484.929
462.5 425.786
463.5 460.714
464.5 452.286
465.5 528
466.5 408.786
467.5 371.929
468.5 373
469.5 388.714
470.5 392.429
471.5 429
472.5 438.214
473.5 418.857
474.5 520.214
475.5 500.857
476.5 465.214
477.5 519.929
478.5 473.714
479.5 475.429
480.5 519.357
481.5 529
482.5 577.5
483.5 508.071
484.5 585.143
485.5 469.571
486.5 506.143
487.5 455.286
488.5 435.5
489.5 472.857
490.5 454.214
491.5 513
492.5 417.643
493.5 416.357
494.5 470.643
495.5 371.929
496.5 386.429
497.5 450.429
498.5 375.357
499.5 307.643
500.5 322.786
501.5 317.429
502.5 358.5
503.5 464.643
504.5 425.857
505.5 444.143
506.5 619.286
507.5 775.357
508.5 1004.79
509.5 1352.43
510.5 2082.64
511.5 1998.07
512.5 1408.43
513.5 694.714
514.5 510.857
515.5 329.5
516.5 369.929
517.5 439.286
518.5 374.071
519.5 412.571
520.5 292.429
521.5 442
522.5 367.071
523.5 336.643
524.5 402.929
525.5 280.643
526.5 382.786
527.5 415.429
528.5 390.071
529.5 338.786
530.5 414.429
531.5 362.643
532.5 445
533.5 341.786
534.5 365.143
535.5 353.5
536.5 345.857
537.5 390.643
538.5 349.214
539.5 386.643
540.5 391.571
541.5 347
542.5 389.857
543.5 355.571
544.5 336.643
545.5 391.357
546.5 329
547.5 435.357
548.5 414.214
549.5 403.714
550.5 391.5
551.5 386.357
552.5 372.214
553.5 325.929
554.5 405.857
555.5 436.429
556.5 399.286
557.5 401.357
558.5 483.071
559.5 317.357
560.5 352.429
561.5 325.786
562.5 376.786
563.5 357.286
564.5 363.071
565.5 352
566.5 364.571
567.5 314.071
568.5 329.643
569.5 351.214
570.5 403.857
571.5 382.429
572.5 453.214
573.5 527.5
574.5 394
575.5 469.929
576.5 440.286
577.5 402.429
578.5 418.214
579.5 435.286
580.5 448.857
581.5 437.643
582.5 314
583.5 473.071
584.5 417.357
585.5 351.857
586.5 359.643
587.5 403.357
588.5 347.5
589.5 388.714
590.5 379.357
591.5 344.286
592.5 403
593.5 412
594.5 348.571
595.5 358.143
596.5 393.786
597.5 355.429
598.5 395.214
599.5 395.857
600.5 378.357
601.5 411.857
602.5 401.786
603.5 404.786
604.5 363.571
605.5 328.571
606.5 389.214
607.5 283.286
608.5 426.643
609.5 257.929
610.5 302.786
611.5 315.643
612.5 294.786
613.5 363.143
614.5 381.929
615.5 300.643
616.5 347.571
617.5 360.5
618.5 328.214
619.5 314.571
620.5 307.143
621.5 343
622.5 291
623.5 281.786
624.5 289.071
625.5 319.357
626.5 327.143
627.5 501.357
628.5 631.571
629.5 502.857
630.5 453.214
631.5 430.5
632.5 450.5
633.5 387.286
634.5 489.5
635.5 523
636.5 819.071
637.5 1120.71
638.5 884.929
639.5 524.714
640.5 432.643
641.5 393.786
642.5 376.5
643.5 346.714
644.5 381.929
645.5 371.071
646.5 374.786
647.5 376.071
648.5 408.357
649.5 409.929
650.5 676.5
651.5 704.857
652.5 499.214
653.5 389.143
654.5 344.571
655.5 356.857
656.5 306.357
657.5 325.786
658.5 382.143
659.5 324
660.5 383.214
661.5 338.143
662.5 395.929
663.5 379.143
664.5 315.786
665.5 330.429
666.5 356.357
667.5 347.357
668.5 424.643
669.5 350.714
670.5 273.429
671.5 283.429
672.5 328
673.5 313.143
674.5 247.143
675.5 372
676.5 381.071
677.5 290.357
678.5 379.357
679.5 368.286
680.5 369.286
681.5 346.929
682.5 341.071
683.5 344.286
684.5 340.571
685.5 329.643
686.5 381.143
687.5 256.643
688.5 309
689.5 388.071
690.5 321.5
691.5 251.714
692.5 316.929
693.5 352
694.5 347.714
695.5 389.071
696.5 391.214
697.5 353.357
698.5 429
699.5 411.786
700.5 472.214
701.5 413.857
702.5 501.714
703.5 686
704.5 866.429
705.5 657.143
706.5 470
707.5 449.286
708.5 347.071
709.5 406
710.5 374.714
711.5 340.786
712.5 339.357
713.5 337.143
714.5 415.857
715.5 333.214
716.5 431.143
717.5 349.857
718.5 350.643
719.5 362.714
720.5 372.214
721.5 347.071
722.5 395
723.5 351.5
724.5 405.429
725.5 466.286
726.5 443.429
727.5 339.357
728.5 363.357
729.5 350.357
730.5 345.071
731.5 349
732.5 364.214
733.5 346.857
734.5 256
735.5 316
736.5 368.143
737.5 324.571
738.5 334.214
739.5 339.286
740.5 317.429
741.5 358.929
742.5 352.286
743.5 355.786
744.5 294
745.5 311.071
746.5 267.643
747.5 365.286
748.5 272.071
749.5 382.571
750.5 369.286
751.5 369.786
752.5 358
753.5 324.071
754.5 410.714
755.5 401.786
756.5 315.714
757.5 412.5
758.5 417.5
759.5 495.571
760.5 865.357
761.5 882.929
762.5 643.786
763.5 466.143
764.5 492.643
765.5 355
766.5 373.071
767.5 413.571
768.5 388
769.5 314.714
770.5 310.429
771.5 365.786
772.5 378.357
773.5 325.857
774.5 459.929
775.5 367.643
776.5 402.143
777.5 355.5
778.5 394.857
779.5 433.286
780.5 398.429
781.5 383.786
782.5 407.857
783.5 394.214
784.5 348.571
785.5 378.143
786.5 311.571
787.5 448.571
788.5 296.5
789.5 383.286
790.5 323.286
791.5 394.643
792.5 316.071
793.5 354.5
794.5 376.071
795.5 426.571
796.5 416.071
797.5 413.857
798.5 433.357
799.5 431.286
800.5 312.714
801.5 455.714
802.5 345.786
803.5 424.286
804.5 489.286
805.5 613.071
806.5 868.143
807.5 788.857
808.5 554.571
809.5 445.143
810.5 397.5
811.5 347.643
812.5 373.357
813.5 319.929
814.5 391.857
815.5 398.929
816.5 409.714
817.5 396.143
818.5 376.286
819.5 393.857
820.5 336.643
821.5 377.857
822.5 324.714
823.5 380.857
824.5 381.214
825.5 362.5
826.5 427.643
827.5 422.786
828.5 418.857
829.5 415.214
830.5 437.143
831.5 442.357
832.5 386.643
833.5 438.071
834.5 383.429
835.5 410.071
836.5 444.5
837.5 348.214
838.5 423
839.5 368.857
840.5 432.286
841.5 408
842.5 424.071
843.5 435.214
844.5 376.5
845.5 449.5
846.5 389.786
847.5 436.143
848.5 461.286
849.5 455.643
850.5 434.857
851.5 400.857
852.5 499
853.5 415.714
854.5 441
855.5 443.786
856.5 425.214
857.5 397.071
858.5 428.5
859.5 423.214
860.5 438.786
861.5 470.571
862.5 471.357
863.5 400.143
864.5 461.571
865.5 439.286
866.5 412.429
867.5 514.214
868.5 649.786
869.5 678.786
870.5 618.786
871.5 477.929
872.5 503.429
873.5 496.429
874.5 524.643
875.5 453.786
876.5 697.5
877.5 904.214
878.5 993.714
879.5 650.643
880.5 612.643
881.5 525.143
882.5 507.286
883.5 463.929
884.5 498.286
885.5 495
886.5 524.929
887.5 488.071
888.5 444.857
889.5 518.286
890.5 475.929
891.5 576.571
892.5 551
893.5 551.143
894.5 601.857
895.5 627.571
896.5 468.643
897.5 504.929
898.5 498.643
899.5 546.143
900.5 503.429
901.5 630.214
902.5 531.857
903.5 525.786
904.5 534.429
905.5 608.214
906.5 531.071
907.5 614
908.5 587.5
909.5 527.357
910.5 628.929
911.5 572.357
912.5 642.071
913.5 518.214
914.5 537.786
915.5 547.429
916.5 516.857
917.5 497.214
918.5 478.357
919.5 526.071
920.5 481.643
921.5 498.214
922.5 522.5
923.5 561.214
924.5 549.071
925.5 471.786
926.5 566.429
927.5 478.571
928.5 503.643
929.5 574.5
930.5 496.786
931.5 450.786
932.5 465.571
933.5 487.357
934.5 567.929
935.5 559.571
936.5 549.357
937.5 546.143
938.5 527.286
939.5 571.929
940.5 571.5
941.5 498.286
942.5 573.857
943.5 530.714
944.5 529.571
945.5 526.857
946.5 475.286
947.5 565.143
948.5 473
949.5 502.571
950.5 390.714
951.5 437.286
952.5 419.286
953.5 429.5
954.5 378.857
955.5 357.214
956.5 419.214
957.5 454.5
958.5 395.429
959.5 439.786
960.5 393.857
961.5 394.143
962.5 390
963.5 415.214
964.5 370.214
965.5 404
966.5 413.429
967.5 451.857
968.5 408.429
969.5 393.357
970.5 347.357
971.5 367.071
972.5 405.5
973.5 379.214
974.5 350.571
975.5 358.357
976.5 332.286
977.5 357.429
978.5 370.929
979.5 348.286
980.5 318.571
981.5 363.857
982.5 288.5
983.5 300.214
984.5 349.071
985.5 338.929
986.5 343.071
987.5 353.071
988.5 325.643
989.5 299.214
990.5 309.643
991.5 353.357
992.5 382.929
993.5 342
994.5 285.714
995.5 324.357
996.5 313.5
997.5 359.357
998.5 409.429
999.5 542.071
1000.5 1062.21
1001.5 1756.64
1002.5 1606.5
1003.5 834.357
1004.5 405.714
1005.5 274.929
1006.5 325.429
1007.5 288.429
1008.5 278.857
1009.5 269.643
1010.5 281.714
1011.5 354.143
1012.5 320.143
1013.5 273.929
1014.5 286.214
1015.5 339.429
1016.5 322.929
1017.5 345.429
1018.5 328.143
1019.5 373.429
1020.5 247.5
1021.5 306.143
1022.5 326.786
1023.5 513
1024.5 745.643
1025.5 595.286
1026.5 406.071
1027.5 255.5
1028.5 297.429
1029.5 217.214
1030.5 235.857
1031.5 234.429
1032.5 258.5
1033.5 264.071
1034.5 303
1035.5 245.571
1036.5 284.786
1037.5 249
1038.5 223.071
1039.5 240.857
1040.5 233.5
1041.5 188.357
1042.5 233.643
1043.5 246.643
1044.5 219.714
1045.5 209.429
1046.5 270.143
1047.5 199.643
1048.5 200.571
1049.5 230
1050.5 214.357
1051.5 176.714
1052.5 244.286
1053.5 194.286
1054.5 225.643
1055.5 197.929
1056.5 241.786
1057.5 204.5
1058.5 220.571
1059.5 222.857
1060.5 191.714
1061.5 205.643
1062.5 213.929
1063.5 231.429
1064.5 198.643
1065.5 212.714
1066.5 259.214
1067.5 180.929
1068.5 206.643
1069.5 189.214
1070.5 184.857
1071.5 279.571
1072.5 484.286
1073.5 980.571
1074.5 1031.79
1075.5 589.214
1076.5 299.571
1077.5 217.429
1078.5 196.286
1079.5 162.5
1080.5 136.714
1081.5 152
1082.5 187.571
1083.5 190.643
1084.5 174.786
1085.5 192.143
1086.5 185
1087.5 193.786
1088.5 206.357
1089.5 189.286
1090.5 223.714
1091.5 369.643
1092.5 688.5
1093.5 855.571
1094.5 486.5
1095.5 83.7857
1096.5 89.5
1097.5 123
1098.5 145.786
1099.5 223.143
1100.5 297.214
1101.5 308.643
1102.5 203.357
1103.5 186.214
1104.5 173.714
1105.5 186.071
1106.5 210.071
1107.5 178.214
1108.5 196.429
1109.5 228.214
1110.5 188
1111.5 184.5
1112.5 197.071
1113.5 229.571
1114.5 225
1115.5 219.5
1116.5 202
1117.5 162.071
1118.5 204.143
1119.5 229.071
1120.5 231.786
1121.5 294
1122.5 656.929
1123.5 2109.43
1124.5 6923.93
1125.5 16357.9
1126.5 18464.1
1127.5 8266.07
1128.5 1994.93
1129.5 535.571
1130.5 237.786
1131.5 160.286
1132.5 162.643
1133.5 150.357
1134.5 124.143
1135.5 155.929
1136.5 162.214
1137.5 161.643
1138.5 142.071
1139.5 198
1140.5 125.5
1141.5 110.5
1142.5 155.571
1143.5 179.857
1144.5 190
1145.5 139.143
1146.5 162.714
1147.5 184.786
1148.5 160.143
1149.5 173.857
1150.5 198.429
1151.5 225.214
1152.5 301.214
1153.5 956.429
1154.5 2938.79
1155.5 10626.5
1156.5 23451.5
1157.5 23766.9
1158.5 10159.4
1159.5 2247.29
1160.5 407.643
1161.5 192.857
1162.5 110.786
1163.5 122.071
1164.5 158.143
1165.5 107.714
1166.5 86
1167.5 52.9286
1168.5 61.7143
1169.5 70.4286
1170.5 61.9286
1171.5 86.2857
1172.5 69.3571
1173.5 58.1429
1174.5 105.786
1175.5 76.9286
1176.5 92.0714
1177.5 94.5714
1178.5 73.6429
1179.5 82.8571
1180.5 75.5714
1181.5 40.5
1182.5 74.7143
1183.5 110.714
1184.5 52.0714
1185.5 86.9286
1186.5 74.5714
1187.5 69.9286
1188.5 83.2143
1189.5 75.8571
1190.5 82.2857
1191.5 71.3571
1192.5 81.2857
1193.5 93.7143
1194.5 163.429
1195.5 400.857
1196.5 655.5
1197.5 539.857
1198.5 247.429
1199.5 126.143
1200.5 81.8571
1201.5 93.2857
1202.5 72.2143
1203.5 70.1429
1204.5 90.5
1205.5 105.143
1206.5 61.1429
1207.5 81.1429
1208.5 60.6429
1209.5 87
1210.5 71.9286
1211.5 97.5
1212.5 57.0714
1213.5 63.2143
1214.5 77.3571
1215.5 98.7857
1216.5 93.2143
1217.5 80.8571
1218.5 116.857
1219.5 98.9286
1220.5 97.3571
1221.5 47.2857
1222.5 37.9286
1223.5 89.0714
1224.5 88.2143
1225.5 128.429
1226.5 43.3571
1227.5 111.357
1228.5 98.9286
1229.5 74.3571
1230.5 67.3571
1231.5 62.1429
1232.5 113.571
1233.5 79.7143
1234.5 55.0714
1235.5 90.7143
1236.5 72.7857
1237.5 69.4286
1238.5 85.9286
1239.5 81.2857
1240.5 94.5714
1241.5 93.2143
1242.5 98.3571
1243.5 44.7143
1244.5 73.8571
1245.5 66.2857
1246.5 52.2143
1247.5 79.2857
1248.5 72.7143
1249.5 83.9286
1250.5 96
1251.5 65.8571
1252.5 55.0714
1253.5 81.5714
1254.5 72.2143
1255.5 77.7143
1256.5 97.8571
1257.5 61
1258.5 70.8571
1259.5 42.5
1260.5 64.6429
1261.5 87.2143
1262.5 95.6429
1263.5 66.5714
1264.5 72.7857
1265.5 101
1266.5 78
1267.5 38.5714
1268.5 105.357
1269.5 74.2143
1270.5 83
1271.5 63.9286
1272.5 76.2143
1273.5 103.429
1274.5 113.571
1275.5 75.3571
1276.5 140.143
1277.5 135.786
1278.5 113.857
1279.5 105
1280.5 77.6429
1281.5 108.143
1282.5 83.6429
1283.5 89.7143
1284.5 94.2143
1285.5 69.1429
1286.5 63.2857
1287.5 88.2143
1288.5 109.929
1289.5 98.8571
1290.5 92.6429
1291.5 88.4286
1292.5 109.5
1293.5 71.2143
1294.5 49.8571
1295.5 78.7143
1296.5 78.3571
1297.5 54.9286
1298.5 95.7143
1299.5 79.3571
1300.5 67.5714
1301.5 62.5714
1302.5 89.4286
1303.5 113.643
1304.5 36.7857
1305.5 90.5714
1306.5 61.7143
1307.5 67.9286
1308.5 69.0714
1309.5 110.214
1310.5 94.3571
1311.5 78.4286
1312.5 93.6429
1313.5 65.2143
1314.5 86.0714
1315.5 91.3571
1316.5 63.7857
1317.5 85.3571
1318.5 72.5714
1319.5 68.8571
1320.5 97.4286
1321.5 70.7857
1322.5 91.0714
1323.5 41.4286
1324.5 55.2857
1325.5 85.1429
1326.5 107.714
1327.5 63.7857
1328.5 92.1429
1329.5 82.5
1330.5 80.7143
1331.5 56.6429
1332.5 70.5714
1333.5 90.9286
1334.5 113.5
1335.5 71.2857
1336.5 62.8571
1337.5 74.4286
1338.5 74.2857
1339.5 84
1340.5 71.5714
1341.5 106.143
1342.5 78.1429
1343.5 100.714
1344.5 97.2143
1345.5 82.9286
1346.5 93.3571
1347.5 70.8571
1348.5 51.4286
1349.5 96.7857
1350.5 76.8571
1351.5 61.8571
1352.5 62.5
1353.5 94
1354.5 88.3571
1355.5 95.4286
1356.5 108.929
1357.5 107.071
1358.5 33.2143
1359.5 83.1429
1360.5 84.6429
1361.5 105
1362.5 116.571
1363.5 136.714
1364.5 379.429
1365.5 742.286
1366.5 838.071
1367.5 431.571
1368.5 180
1369.5 108.571
1370.5 93
1371.5 72.5714
1372.5 128.429
1373.5 169.929
1374.5 259
1375.5 255.643
1376.5 214.5
1377.5 116.643
1378.5 83.5
1379.5 85.6429
1380.5 59.0714
1381.5 70.1429
1382.5 52
1383.5 86.6429
1384.5 83.6429
1385.5 60.0714
1386.5 73.4286
1387.5 48.5
1388.5 77.0714
1389.5 77.5
1390.5 33.3571
1391.5 67.2143
1392.5 69.9286
1393.5 67.2857
1394.5 82
1395.5 87
1396.5 45.7143
1397.5 63.5714
1398.5 87.7143
1399.5 65.1429
1400.5 72.4286
1401.5 59.6429
1402.5 72.9286
1403.5 39.7857
1404.5 95.8571
1405.5 63.3571
1406.5 74.6429
1407.5 -18.8571
1408.5 -46.5714
1409.5 13.5714
1410.5 62.0714
1411.5 77.7857
1412.5 51.1429
1413.5 69.2143
1414.5 53.8571
1415.5 68.0714
1416.5 54
1417.5 117.5
1418.5 78.8571
1419.5 81
1420.5 65.3571
1421.5 83.3571
1422.5 77.5714
1423.5 107.286
1424.5 94.4286
1425.5 126.214
1426.5 296.357
1427.5 615.714
1428.5 949.357
1429.5 781.929
1430.5 297.571
1431.5 100.071
1432.5 64.5
1433.5 54.1429
1434.5 64.6429
1435.5 59.2857
1436.5 61.5714
1437.5 105
1438.5 81.2857
1439.5 59.5714
1440.5 48.9286
1441.5 50.0714
1442.5 61.1429
1443.5 57.5
1444.5 68.3571
1445.5 48.2143
1446.5 61.2143
1447.5 45.2143
1448.5 72.7857
1449.5 59.3571
1450.5 68.9286
1451.5 47.0714
1452.5 60.4286
1453.5 78.6429
1454.5 84.9286
1455.5 77.2857
1456.5 59.2857
1457.5 67.3571
1458.5 63.9286
1459.5 47
1460.5 23.5714
1461.5 40.1429
1462.5 55.0714
1463.5 56.2857
1464.5 49.2857
1465.5 46.8571
1466.5 61.5714
1467.5 54.8571
1468.5 30.5714
1469.5 58.0714
1470.5 52.8571
1471.5 37.7143
1472.5 30.7857
1473.5 42
1474.5 72.5714
1475.5 45.5
1476.5 89.6429
1477.5 84.2143
1478.5 48.0714
1479.5 78.8571
1480.5 63.9286
1481.5 70.2857
1482.5 76.5
1483.5 60.8571
1484.5 62.4286
1485.5 67
1486.5 54.8571
1487.5 46.5714
1488.5 64.7857
1489.5 66.1429
1490.5 47.2857
1491.5 65.7143
1492.5 51
1493.5 69.2857
1494.5 42
1495.5 65.1429
1496.5 64.3571
1497.5 105.714
1498.5 299.643
1499.5 402.571
1500.5 305.357
1501.5 166.143
1502.5 74.8571
1503.5 50.7143
1504.5 67.5
1505.5 45.6429
1506.5 48.9286
1507.5 74
1508.5 91.5714
1509.5 73.9286
1510.5 58.6429
1511.5 45.9286
1512.5 76
1513.5 60.4286
1514.5 73.0714
1515.5 45
1516.5 74.7857
1517.5 81.3571
1518.5 87.4286
1519.5 120.786
1520.5 190.357
1521.5 154.929
1522.5 84.2143
1523.5 63.2857
1524.5 55.3571
1525.5 75.5
1526.5 51.4286
1527.5 63
1528.5 43.5
1529.5 48.7857
1530.5 48.8571
1531.5 61.7857
1532.5 36.4286
1533.5 58.5714
1534.5 52.3571
1535.5 76.6429
1536.5 53.6429
1537.5 80.3571
1538.5 103.5
1539.5 68.5
1540.5 89
1541.5 81.3571
1542.5 72.5
1543.5 47.0714
1544.5 54.3571
1545.5 60.9286
1546.5 35
1547.5 63
1548.5 40.5
1549.5 38.0714
1550.5 63.6429
1551.5 61.3571
1552.5 50
1553.5 38.6429
1554.5 47.0714
1555.5 49.9286
1556.5 27.0714
1557.5 13.9286
1558.5 65.0714
1559.5 33.5714
1560.5 37.7143
1561.5 39.9286
1562.5 37.2857
1563.5 49.2857
1564.5 44.5
1565.5 32.6429
1566.5 78.1429
1567.5 65.1429
1568.5 70.7857
1569.5 36.5714
1570.5 60.5
1571.5 83.5
1572.5 82.3571
1573.5 172.071
1574.5 480.5
1575.5 1254.64
1576.5 2210.29
1577.5 1887.36
1578.5 845.5
1579.5 242.143
1580.5 107.286
1581.5 71.7857
1582.5 54
1583.5 68.5
1584.5 43.7143
1585.5 61.8571
1586.5 104.857
1587.5 92.8571
1588.5 121
1589.5 111
1590.5 75.2857
1591.5 42
1592.5 68.0714
1593.5 54.9286
1594.5 70.5
1595.5 37.5714
1596.5 66.6429
1597.5 42.9286
1598.5 55.7143
1599.5 37.5714
1600.5 46.0714
1601.5 41.3571
1602.5 41.2857
1603.5 15.5
1604.5 25.9286
1605.5 32.5714
1606.5 14.3571
1607.5 42.1429
1608.5 53.9286
1609.5 41.8571
1610.5 2.07143
1611.5 69.5
1612.5 55.9286
1613.5 70
1614.5 45.1429
1615.5 62.4286
1616.5 69.9286
1617.5 80.8571
1618.5 74.7857
1619.5 151.714
1620.5 203.429
1621.5 137.214
1622.5 117.857
1623.5 72.0714
1624.5 139.071
1625.5 106.286
1626.5 15
1627.5 63.7143
1628.5 63
1629.5 51.2143
1630.5 64
1631.5 41.7857
1632.5 117.357
1633.5 157.929
1634.5 203.214
1635.5 229.786
1636.5 143.429
1637.5 99.7143
1638.5 110.286
1639.5 142.929
1640.5 85.0714
1641.5 93.7857
1642.5 46.7857
1643.5 55.8571
1644.5 61.0714
1645.5 52.2143
1646.5 102.143
1647.5 65
1648.5 68.8572
1649.5 33.9286
1650.5 52.5
1651.5 61.6429
1652.5 57.7143
1653.5 65
1654.5 43.5
1655.5 43.2857
1656.5 33.5
1657.5 43.7857
1658.5 27.1429
1659.5 47.7857
1660.5 41.3571
1661.5 38.4286
1662.5 51.8571
1663.5 34.7857
1664.5 47.7857
1665.5 89.4286
1666.5 67.6429
1667.5 47.6429
1668.5 47.1429
1669.5 65.7143
1670.5 50.4286
1671.5 58.3571
1672.5 48.3571
1673.5 51.8571
1674.5 56.5
1675.5 58.7143
1676.5 66.1429
1677.5 29.2857
1678.5 37.7857
1679.5 42.4286
1680.5 66.8571
1681.5 66.8571
1682.5 76.9286
1683.5 71.6429
1684.5 56.2143
1685.5 40.0714
1686.5 36.1429
1687.5 62.5714
1688.5 45.2143
1689.5 57.6429
1690.5 69.7857
1691.5 76
1692.5 44.0714
1693.5 87.3571
1694.5 53.6429
1695.5 59.3571
1696.5 37.7143
1697.5 42.3571
1698.5 50.8571
1699.5 37.6429
1700.5 51.4286
1701.5 27.7143
1702.5 46.7143
1703.5 63.2143
1704.5 58
1705.5 52.1429
1706.5 29.3571
1707.5 58.3571
1708.5 28.5714
1709.5 61.2143
1710.5 66.6429
1711.5 80.5
1712.5 67.3571
1713.5 82.4286
1714.5 54.6429
1715.5 43.9286
1716.5 33.5714
1717.5 39.7857
1718.5 32.2143
1719.5 41.2857
1720.5 37.2143
1721.5 55.0714
1722.5 45.3571
1723.5 46.5714
1724.5 30.7857
1725.5 54.9286
1726.5 57.8571
1727.5 65.5714
1728.5 60.5
1729.5 69.5
1730.5 49.7143
1731.5 60.8571
1732.5 75.1429
1733.5 82.2143
1734.5 39.6429
1735.5 72.5714
1736.5 52.5714
1737.5 79.5714
1738.5 64.7857
1739.5 33.7857
1740.5 46.7857
1741.5 66.2857
1742.5 71.2857
1743.5 56.3571
1744.5 41.2143
1745.5 64.8571
1746.5 61.3571
1747.5 52.6429
1748.5 41.7143
1749.5 40.1429
1750.5 56.5
1751.5 71.2857
1752.5 66.8571
1753.5 60.2143
1754.5 50
1755.5 51.6429
1756.5 59.8571
1757.5 39.9286
1758.5 57.4286
1759.5 57.5714
1760.5 53.5
1761.5 40.8571
1762.5 34.3571
1763.5 52.8571
1764.5 29.0714
1765.5 40.1429
1766.5 55
1767.5 43.2143
1768.5 51.9286
1769.5 44.2143
1770.5 60
1771.5 56.5
1772.5 32.0714
1773.5 40
1774.5 66
1775.5 28.0714
1776.5 56.7857
1777.5 62.3571
1778.5 91.9286
1779.5 58.1429
1780.5 43.3571
1781.5 47.5714
1782.5 50
1783.5 44.2143
1784.5 47.5
1785.5 64.9286
1786.5 41.8571
1787.5 62.2857
1788.5 44.2857
1789.5 57.6429
1790.5 72.7857
1791.5 39.7857
1792.5 44.6429
1793.5 54.2143
1794.5 47.5
1795.5 49.0714
1796.5 55.0714
1797.5 51.1429
1798.5 47.8571
1799.5 55.3571
1800.5 57
1801.5 77.0714
1802.5 63.2143
1803.5 65
1804.5 51.2143
1805.5 49.1429
1806.5 97
1807.5 128.786
1808.5 145.286
1809.5 159.214
1810.5 113.929
1811.5 71.6429
1812.5 64.4286
1813.5 28.5
1814.5 48.0714
1815.5 64.5714
1816.5 63.1429
1817.5 50.4286
1818.5 47.7143
1819.5 42
1820.5 65.0714
1821.5 49.4286
1822.5 42.0714
1823.5 43.5714
1824.5 31.2143
1825.5 55.6429
1826.5 39.8571
1827.5 51.1429
1828.5 52.2143
1829.5 16.6429
1830.5 47.9286
1831.5 35.6429
1832.5 56.0714
1833.5 47.2143
1834.5 59.1429
1835.5 44.8571
1836.5 54.9286
1837.5 30.7143
1838.5 63.2857
1839.5 48.0714
1840.5 20.2857
1841.5 47.3571
1842.5 45.3571
1843.5 22.7143
1844.5 68.7143
1845.5 48.5
1846.5 42.1429
1847.5 28.8571
1848.5 24.7857
1849.5 54.5714
1850.5 42.0714
1851.5 51.3571
1852.5 69.5
1853.5 50.3571
1854.5 41.9286
1855.5 39.7143
1856.5 56.3571
1857.5 66.1429
1858.5 34.7143
1859.5 46.6429
1860.5 37.8571
1861.5 69.4286
1862.5 44.8571
1863.5 36.7857
1864.5 51.2143
1865.5 52.5
1866.5 56.7143
1867.5 55.2143
1868.5 29.5714
1869.5 32.6429
1870.5 43.3571
1871.5 -46.1428
1872.5 4.78573
1873.5 -8.85713
1874.5 30.5714
1875.5 43.0714
1876.5 16.0714
1877.5 53.7857
1878.5 39.7857
1879.5 41.1429
1880.5 64.5
1881.5 71.4286
1882.5 85.4286
1883.5 54.7143
1884.5 123.286
1885.5 165.143
1886.5 335.857
1887.5 261.429
1888.5 180.571
1889.5 45.8571
1890.5 49.5
1891.5 45.2143
1892.5 73.7143
1893.5 42.1429
1894.5 57.0714
1895.5 48.2143
1896.5 49.5
1897.5 47.2857
1898.5 47.8571
1899.5 36.3571
1900.5 45.4286
1901.5 51.4286
1902.5 58.2857
1903.5 59.5
1904.5 39.4286
1905.5 62.7143
1906.5 27.1429
1907.5 66.3571
1908.5 56.7857
1909.5 55.9286
1910.5 51.8571
1911.5 94.2143
1912.5 100.929
1913.5 67.5
1914.5 50.5714
1915.5 46.5
1916.5 42.7143
1917.5 21.5
1918.5 76.3571
1919.5 41.8571
1920.5 28.2143
1921.5 52.7143
1922.5 28.2857
1923.5 24.4286
1924.5 37.0714
1925.5 59
1926.5 50.1429
1927.5 74.0714
1928.5 143.214
1929.5 272.143
1930.5 624.357
1931.5 692.857
1932.5 431.643
1933.5 147.786
1934.5 51.3571
1935.5 22.7143
1936.5 30.3571
1937.5 36.5714
1938.5 32.7143
1939.5 47.2143
1940.5 37.2143
1941.5 68.9286
1942.5 46.5714
1943.5 12.1429
1944.5 65.9286
1945.5 32.2857
1946.5 55.2857
1947.5 34.9286
1948.5 18.1429
1949.5 70.5
1950.5 3.00001
1951.5 25.4286
1952.5 64.3571
1953.5 23.9286
1954.5 47.0714
1955.5 13.8571
1956.5 36.7857
1957.5 30.3571
1958.5 10.6429
1959.5 7.71429
1960.5 44.0714
1961.5 34.7143
1962.5 48.7143
1963.5 31.5
1964.5 38.1429
1965.5 21.8571
1966.5 23.1429
1967.5 10.4286
1968.5 22.8571
1969.5 45.0714
1970.5 35
1971.5 39.5
1972.5 36.2143
1973.5 16.3571
1974.5 43.7857
1975.5 44.2143
1976.5 41.5
1977.5 44.0714
1978.5 58.2143
1979.5 79.8571
1980.5 108.429
1981.5 128.143
1982.5 175.214
1983.5 233.5
1984.5 134.5
1985.5 90.9286
1986.5 84.6429
1987.5 131.857
1988.5 163.071
1989.5 146.214
1990.5 104.643
1991.5 92.2143
1992.5 108.357
1993.5 267.571
1994.5 523.143
1995.5 523.286
1996.5 358.786
1997.5 132.714
1998.5 77.3571
1999.5 68.5714
2000.5 78.8571
2001.5 100.286
2002.5 227
2003.5 314.5
2004.5 241.786
2005.5 111.929
2006.5 95.1429
2007.5 71.4286
2008.5 116.929
2009.5 171.286
2010.5 129.357
2011.5 73.5714
2012.5 41.3571
2013.5 47.2143
2014.5 70.6429
2015.5 53.3571
2016.5 43
2017.5 40.2143
2018.5 15.4286
2019.5 29.7143
2020.5 2.57143
2021.5 37.4286
2022.5 33.1429
2023.5 36.4286
2024.5 19.2143
2025.5 25.3571
2026.5 14.2857
2027.5 29.1429
2028.5 28.6429
2029.5 29.3571
2030.5 26.7857
2031.5 34.2143
2032.5 35.8571
2033.5 38.2857
2034.5 36.7143
2035.5 35.4286
2036.5 43.8571
2037.5 43.3571
2038.5 44.9286
2039.5 16.2857
2040.5 47.9286
2041.5 59.4286
2042.5 49
2043.5 34.4286
2044.5 42.1429
2045.5 53.2857
2046.5 21.7857
2047.5 17.8571
2048.5 61.3571
2049.5 24.2857
2050.5 43.7857
2051.5 36.5
2052.5 32.3571
2053.5 41.7857
2054.5 50.3571
2055.5 39.2857
2056.5 41.5
2057.5 40.5714
2058.5 39.2143
2059.5 41.2143
2060.5 63.8571
2061.5 31
2062.5 34.2857
2063.5 29
2064.5 18.5714
2065.5 24.5
2066.5 46.0714
2067.5 48
2068.5 54.6429
2069.5 43.1429
2070.5 26.2857
2071.5 32.9286
2072.5 56.7857
2073.5 38.7143
2074.5 42.4286
2075.5 60
2076.5 30.0714
2077.5 55.2857
2078.5 47.8571
2079.5 55.4286
2080.5 52.5714
2081.5 30.6429
2082.5 14.7857
2083.5 47.9286
2084.5 36.2143
2085.5 24.8571
2086.5 58.4286
2087.5 40.2857
2088.5 44.4286
2089.5 32.1429
2090.5 41.5
2091.5 42.4286
2092.5 38.9286
2093.5 36.2143
2094.5 24.9286
2095.5 46.5
2096.5 33.8571
2097.5 34.7143
2098.5 31.7143
2099.5 28.6429
2100.5 36.5714
2101.5 52.8571
2102.5 57.5
2103.5 34.5714
2104.5 41.0714
2105.5 38.0714
2106.5 44.7143
2107.5 40.2143
2108.5 12.6429
2109.5 59.4286
2110.5 39.5714
2111.5 42.3571
2112.5 43.6429
2113.5 34.9286
2114.5 42.8571
2115.5 22.8571
2116.5 32.5714
2117.5 44.0714
2118.5 40.7857
2119.5 38.0714
2120.5 29.4286
2121.5 46.7857
2122.5 24.3571
2123.5 39.9286
2124.5 33.2143
2125.5 44.0714
2126.5 40.1429
2127.5 36.6429
2128.5 19.3571
2129.5 34.3571
2130.5 35.0714
2131.5 39.9286
2132.5 49.9286
2133.5 49.7857
2134.5 16.9286
2135.5 29.2857
2136.5 46.5
2137.5 42
2138.5 45.0714
2139.5 31.2143
2140.5 61.0714
2141.5 93.2857
2142.5 232.571
2143.5 371.929
2144.5 366.143
2145.5 190.786
2146.5 94.3571
2147.5 172.5
2148.5 289.286
2149.5 692.143
2150.5 829.929
2151.5 656.357
2152.5 267.143
2153.5 123.571
2154.5 42.8571
2155.5 38.7857
2156.5 33.7143
2157.5 47.4286
2158.5 30.2143
2159.5 39.7143
2160.5 30.3571
2161.5 23.9286
2162.5 37.5
2163.5 34.9286
2164.5 34.5714
2165.5 32.9286
2166.5 59.4286
2167.5 38.1429
2168.5 49.4286
2169.5 41.7857
2170.5 28.1429
2171.5 24
2172.5 30.9286
2173.5 30.1429
2174.5 24
2175.5 25.8571
2176.5 25.7143
2177.5 31.3571
2178.5 43.2143
2179.5 36.3571
2180.5 39.7857
2181.5 24.0714
2182.5 48.7857
2183.5 20
2184.5 30.3571
2185.5 10.6429
2186.5 14.6429
2187.5 40
2188.5 26.6429
2189.5 26.3571
2190.5 49.7857
2191.5 59.2143
2192.5 47.3571
2193.5 22.2143
2194.5 43.8571
2195.5 41
2196.5 43.6429
2197.5 45.5714
2198.5 84.5714
2199.5 83.8572
2200.5 150.929
2201.5 93
2202.5 38.3571
2203.5 47.6429
2204.5 33.7857
2205.5 21.7143
2206.5 69.2143
2207.5 46.1429
2208.5 40.6429
2209.5 59.2857
2210.5 38.4286
2211.5 18.5
2212.5 13.3571
2213.5 38.5
2214.5 36.2143
2215.5 22.6429
2216.5 48.7857
2217.5 28.5
2218.5 42.7857
2219.5 28.9286
2220.5 40.1429
2221.5 78.2143
2222.5 97.6429
2223.5 95.5
2224.5 65.5
2225.5 43.8571
2226.5 13.9286
2227.5 -25.5714
2228.5 -35.5
2229.5 -28.1429
2230.5 -22.1429
2231.5 16.5714
2232.5 39.7857
2233.5 32.5
2234.5 53.8571
2235.5 44.3571
2236.5 47.5
2237.5 38.9286
2238.5 36.7857
2239.5 60.9286
2240.5 43.1429
2241.5 59.7143
2242.5 119.786
2243.5 156.714
2244.5 159.071
2245.5 150.429
2246.5 66.8571
2247.5 50.2143
2248.5 64.5714
2249.5 44.5
2250.5 34.5714
2251.5 31.5714
2252.5 32.0714
2253.5 41.5
2254.5 57.6429
2255.5 26.7143
2256.5 49.6429
2257.5 32.4286
2258.5 36
2259.5 22
2260.5 43.7857
2261.5 27.5714
2262.5 39.5
2263.5 55.5
2264.5 19.2143
2265.5 30.7143
2266.5 48.4286
2267.5 42.7143
2268.5 38.5
2269.5 32.2857
2270.5 40.6429
2271.5 42.7143
2272.5 61.7143
2273.5 42.7143
2274.5 50.0714
2275.5 32.2143
2276.5 55.7857
2277.5 39.5
2278.5 38.8571
2279.5 51.3571
2280.5 73.2143
2281.5 55.3571
2282.5 73.2143
2283.5 43.4286
2284.5 74.8571
2285.5 46.5714
2286.5 32
2287.5 42.1429
2288.5 31.4286
2289.5 36.2143
2290.5 26.6429
2291.5 67.1429
2292.5 34.9286
2293.5 34.2143
2294.5 52.7857
2295.5 32.2857
2296.5 55.9286
2297.5 47.1429
2298.5 39.9286
2299.5 69.8571
2300.5 59
2301.5 93.4286
2302.5 50.2857
2303.5 51.2143
2304.5 47.2143
2305.5 54.6429
2306.5 26.0714
2307.5 37.1429
2308.5 53.7857
2309.5 63.7857
2310.5 26.0714
2311.5 41.5
2312.5 38.0714
2313.5 54.4286
2314.5 51.5
2315.5 34.5714
2316.5 28.4286
2317.5 36.5
2318.5 43.2143
2319.5 46.7857
2320.5 31.4286
2321.5 36.7857
2322.5 45
2323.5 47
2324.5 24.7857
2325.5 34.2857
2326.5 39.5714
2327.5 40.4286
2328.5 43.7857
2329.5 20.5714
2330.5 41.1429
2331.5 56.7143
2332.5 26
2333.5 40.1429
2334.5 48.7143
2335.5 3.78572
2336.5 38.2857
2337.5 28.6429
2338.5 52.2143
2339.5 27.6429
2340.5 41.4286
2341.5 50.3571
2342.5 43.2857
2343.5 41.6429
2344.5 30.1429
2345.5 56.2857
2346.5 33.2143
2347.5 37.5
2348.5 55.5714
2349.5 33.1429
2350.5 23
2351.5 34.7143
2352.5 53
2353.5 53.5714
2354.5 45.4286
2355.5 50.0714
2356.5 45.7857
2357.5 45.5714
2358.5 49.5
2359.5 54.1429
2360.5 34.5714
2361.5 43.4286
2362.5 49.7143
2363.5 22.2857
2364.5 41.0714
2365.5 19.7143
2366.5 35.3571
2367.5 27.1429
2368.5 64.2143
2369.5 33.1429
2370.5 47.8571
2371.5 43.0714
2372.5 20.6429
2373.5 51.2143
2374.5 53
2375.5 43.5714
2376.5 57.3571
2377.5 45
2378.5 26.7143
2379.5 56.3571
2380.5 35
2381.5 34.9286
2382.5 32.1429
2383.5 29.1429
2384.5 53.7143
2385.5 52.7857
2386.5 33.0714
2387.5 39.2143
2388.5 32.4286
2389.5 51.6429
2390.5 36.9286
2391.5 46.1429
2392.5 46.3571
2393.5 36.6429
2394.5 42.6429
2395.5 34.0714
2396.5 33.3571
2397.5 24.2143
2398.5 37.0714
2399.5 15.3571
2400.5 38.3571
2401.5 41.4286
2402.5 39
2403.5 40.6429
2404.5 55.3571
2405.5 43.4286
2406.5 39.9286
2407.5 67.8571
2408.5 33.4286
2409.5 37.4286
2410.5 42.2857
2411.5 35.6429
2412.5 39.2143
2413.5 61.1429
2414.5 33.2143
2415.5 33.1429
2416.5 37.5
2417.5 41.0714
2418.5 23.7143
2419.5 40.8571
2420.5 27.9286
2421.5 36.5714
2422.5 56.1429
2423.5 48.4286
2424.5 33.9286
2425.5 36.8571
2426.5 57.8571
2427.5 53.5714
2428.5 37.2857
2429.5 19.8571
2430.5 42.3571
2431.5 44.6429
2432.5 39.8571
2433.5 36.2143
2434.5 11.8571
2435.5 11.5714
2436.5 23.6429
2437.5 58.2857
2438.5 59.5714
2439.5 48.1429
2440.5 51.7857
2441.5 41.0714
2442.5 49.6429
2443.5 55.4286
2444.5 55.6429
2445.5 28.8571
2446.5 49.0714
2447.5 33.8571
2448.5 8.14286
2449.5 43.3571
2450.5 70.7143
2451.5 31.4286
2452.5 28.5
2453.5 41.1429
2454.5 42.3571
2455.5 28.6429
2456.5 53.2857
2457.5 52.7857
2458.5 58.5
2459.5 42.7143
2460.5 32.4286
2461.5 38.5714
2462.5 73.5
2463.5 49.5714
2464.5 34.4286
2465.5 43
2466.5 38.9286
2467.5 45.2143
2468.5 23.5
2469.5 52.4286
2470.5 46.2143
2471.5 29.5
2472.5 57
2473.5 38.8571
2474.5 41.0714
2475.5 43.0714
2476.5 30.2857
2477.5 40.1429
2478.5 33.1429
2479.5 30.5
2480.5 44.7143
2481.5 52.7857
2482.5 38.9286
2483.5 35.3571
2484.5 28.7857
2485.5 34.4286
2486.5 29.2143
2487.5 55.5714
2488.5 30.5
2489.5 87.1429
2490.5 118.857
2491.5 200.857
2492.5 322.214
2493.5 445.571
2494.5 496.143
2495.5 477.643
2496.5 328.071
2497.5 173.286
2498.5 113.929
2499.5 76.5714
2500.5 42.2143
2501.5 59.5714
2502.5 43.2143
2503.5 64.7143
2504.5 43.4286
2505.5 42.9286
2506.5 37.6429
2507.5 63.3571
2508.5 30.9286
2509.5 41.7857
2510.5 58.9286
2511.5 39.4286
2512.5 29.3571
2513.5 40.3571
2514.5 40
2515.5 67.3571
2516.5 51.4286
2517.5 93.7143
2518.5 89.4286
2519.5 154.429
2520.5 109.571
2521.5 62.2143
2522.5 57
2523.5 44.8571
2524.5 48.0714
2525.5 51.6429
2526.5 58.5
2527.5 65.7143
2528.5 61.1429
2529.5 39.5714
2530.5 57.5714
2531.5 18.4286
2532.5 46.7857
2533.5 16.8571
2534.5 28.1429
2535.5 30.8571
2536.5 46.7857
2537.5 26.9286
2538.5 45.7143
2539.5 35.0714
2540.5 47.7857
2541.5 47.2857
2542.5 27.4286
2543.5 51.5714
2544.5 58.3571
2545.5 40.7857
2546.5 47.1429
2547.5 59.5
2548.5 51.4286
2549.5 56.4286
2550.5 61.9286
2551.5 50.7143
2552.5 49.0714
2553.5 45.1429
2554.5 56.2143
2555.5 44.5
2556.5 37.0714
2557.5 44.6429
2558.5 37
2559.5 52.7143
2560.5 37.7143
2561.5 49.2143
2562.5 27.2143
2563.5 41.5
2564.5 44.3571
2565.5 44
2566.5 51.8571
2567.5 51.2857
2568.5 41.2143
2569.5 24.6429
2570.5 48.5
2571.5 49.3571
2572.5 45.3571
2573.5 45.5
2574.5 46.1429
2575.5 61.0714
2576.5 35.2143
2577.5 39.8571
2578.5 49.5
2579.5 44.9286
2580.5 53.3571
2581.5 55.7857
2582.5 54.1429
2583.5 42.2143
2584.5 45.9286
2585.5 37.9286
2586.5 44.2857
2587.5 41.5714
2588.5 40.9286
2589.5 42.0714
2590.5 47.4286
2591.5 44.7857
2592.5 50.5
2593.5 55.3571
2594.5 48.2143
2595.5 52.7857
2596.5 42.3571
2597.5 46.4286
2598.5 59.8571
2599.5 73.7143
2600.5 63.2857
2601.5 55.3571
2602.5 62.9286
2603.5 67.9286
2604.5 53.0714
2605.5 47.1429
2606.5 49.8571
2607.5 53.9286
2608.5 37.7143
2609.5 47.9286
2610.5 33.2143
2611.5 42.5
2612.5 53.7857
2613.5 36.8571
2614.5 54.7143
2615.5 41.4286
2616.5 85.9286
2617.5 96.3571
2618.5 117.143
2619.5 96.2857
2620.5 102.286
2621.5 94.8571
2622.5 57.6429
2623.5 60
2624.5 52.7143
2625.5 51.5
2626.5 38.5
2627.5 52.1429
2628.5 56.5714
2629.5 69.0714
2630.5 72
2631.5 52.7143
2632.5 53.6429
2633.5 61.7857
2634.5 50.2857
2635.5 48.2143
2636.5 64.6429
2637.5 81.1429
2638.5 82.1429
2639.5 97.6429
2640.5 135.429
2641.5 99.3571
2642.5 90.9286
2643.5 52.7143
2644.5 44.0714
2645.5 45.5
2646.5 46.9286
2647.5 69.3571
2648.5 58.0714
2649.5 46.5
2650.5 49.2857
2651.5 51.4286
2652.5 56.6429
2653.5 74.2143
2654.5 64.4286
2655.5 60.0714
2656.5 74.2143
2657.5 40.1429
2658.5 103.857
2659.5 56.7143
2660.5 44.1429
2661.5 45.0714
2662.5 52.2143
2663.5 45.7857
2664.5 52.8571
2665.5 55.0714
2666.5 36.7857
2667.5 38.9286
2668.5 60.4286
2669.5 46.5
2670.5 54.2857
2671.5 74.0714
2672.5 54.0714
2673.5 57.5714
2674.5 62
2675.5 46.8571
2676.5 43.8571
2677.5 57.5
2678.5 70.5714
2679.5 52.9286
2680.5 46.3571
2681.5 64.6429
2682.5 48.9286
2683.5 62
2684.5 75.7143
2685.5 38.1429
2686.5 73.8571
2687.5 52.5
2688.5 63.1429
2689.5 54
2690.5 62.9286
2691.5 53.5
2692.5 62.4286
2693.5 64.4286
2694.5 76.8571
2695.5 53.2857
2696.5 58.4286
2697.5 67.2143
2698.5 53.1429
2699.5 57.8571
2700.5 58.7143
2701.5 45.8571
2702.5 67.9286
2703.5 56
2704.5 66.2857
2705.5 71.4286
2706.5 65.4286
2707.5 86.7143
2708.5 72.7857
2709.5 39.9286
2710.5 82.2857
2711.5 51.6429
2712.5 53.7857
2713.5 50.7857
2714.5 55.5714
2715.5 80.0714
2716.5 36.5
2717.5 88.3571
2718.5 73.0714
2719.5 68.2857
2720.5 56.5
2721.5 43.6429
2722.5 27.4286
2723.5 61.3572
2724.5 37.0714
2725.5 81.7143
2726.5 80.3571
2727.5 67.6429
2728.5 64.9286
2729.5 67.8571
2730.5 68.8571
2731.5 74.8571
2732.5 93.2143
2733.5 62.2857
2734.5 80.9286
2735.5 76.6429
2736.5 82.9286
2737.5 79.2143
2738.5 57.1429
2739.5 75.7143
2740.5 80.8571
2741.5 67.1429
2742.5 66.5714
2743.5 62.8571
2744.5 88.3571
2745.5 69.5
2746.5 84.8571
2747.5 88.4286
2748.5 85.2857
2749.5 56.4286
2750.5 76.0714
2751.5 74
2752.5 98.7857
2753.5 99.1429
2754.5 104.5
2755.5 85.1429
2756.5 78.6429
2757.5 91.3571
2758.5 96.1429
2759.5 90.1429
2760.5 79.1429
2761.5 93.0714
2762.5 98.7143
2763.5 76
2764.5 71.8571
2765.5 97
2766.5 76.5714
2767.5 95.9286
2768.5 80.5714
2769.5 83.3571
2770.5 71.1429
2771.5 81.3571
2772.5 65.2857
2773.5 82.6429
2774.5 93.9286
2775.5 71.9286
2776.5 70.4286
2777.5 69.0714
2778.5 56.3571
2779.5 52.2143
2780.5 63.7143
2781.5 68.4286
2782.5 43.7143
2783.5 76.6429
2784.5 69.0714
2785.5 52.1429
2786.5 54.3571
2787.5 64.0714
2788.5 55.5
2789.5 65.7857
2790.5 78.3571
2791.5 76.8571
2792.5 49.7143
2793.5 59.1429
2794.5 58.5714
2795.5 68.7857
2796.5 43.1429
2797.5 51.5
2798.5 59
2799.5 26.7143
2800.5 48.7143
2801.5 54.2143
2802.5 34
2803.5 51.4286
2804.5 70.0714
2805.5 59.1429
2806.5 64.5714
2807.5 60.4286
2808.5 48.1429
2809.5 56.5
2810.5 74.6429
2811.5 42.4286
2812.5 67.3571
2813.5 26.7857
2814.5 55.4286
2815.5 57.8571
2816.5 83.1429
2817.5 64.0714
2818.5 42.2143
2819.5 48.1429
2820.5 38.0714
2821.5 45.0714
2822.5 42.5
2823.5 42.5714
2824.5 33.2857
2825.5 49.7143
2826.5 45.2857
2827.5 49.4286
2828.5 41.5714
2829.5 54.4286
2830.5 50.8571
2831.5 37.2143
2832.5 59.7143
2833.5 42.9286
2834.5 50.4286
2835.5 39.4286
2836.5 63.6429
2837.5 41.5714
2838.5 68.7143
2839.5 63.3571
2840.5 46.6429
2841.5 53.7143
2842.5 21.5714
2843.5 45
2844.5 18.3571
2845.5 45.2857
2846.5 7.85716
2847.5 36.5714
2848.5 15.3571
2849.5 42.4286
2850.5 46.7143
2851.5 34.3571
2852.5 49.8571
2853.5 41
2854.5 49.5714
2855.5 47.4286
2856.5 56.2857
2857.5 57.5
2858.5 53.2857
2859.5 51.3571
2860.5 40
2861.5 50.9286
2862.5 52.9286
2863.5 50.0714
2864.5 40
2865.5 24.5
2866.5 68.5714
2867.5 50.5714
2868.5 33.6429
2869.5 57.5
2870.5 56.6429
2871.5 31.0714
2872.5 57.2857
2873.5 48.4286
2874.5 35
2875.5 23.9286
2876.5 29.7857
2877.5 34.9286
2878.5 37.2143
2879.5 38.7143
2880.5 23.2143
2881.5 51.7143
2882.5 40.6429
2883.5 43.2857
2884.5 43.0714
2885.5 30.6429
2886.5 39.6429
2887.5 29.8571
2888.5 29.5714
2889.5 59.6429
2890.5 38.7143
2891.5 39.1429
2892.5 41.8571
2893.5 39.0714
2894.5 32.3571
2895.5 32.0714
2896.5 38
2897.5 47.1429
2898.5 51.1429
2899.5 26
2900.5 14.1429
2901.5 30.3571
2902.5 34.3571
2903.5 39.7857
2904.5 14.7143
2905.5 26.5714
2906.5 36.6429
2907.5 25
2908.5 27.2143
2909.5 41
2910.5 15.2143
2911.5 21.3571
2912.5 13.5
2913.5 32.0714
2914.5 17.8571
2915.5 25
2916.5 16.8571
2917.5 41.5714
2918.5 19.6429
2919.5 37.2857
2920.5 27.1429
2921.5 20.4286
2922.5 29.5
2923.5 19.0714
2924.5 33.2143
2925.5 26.9286
2926.5 32.6429
2927.5 19.5
2928.5 32
2929.5 33.0714
2930.5 28.0714
2931.5 32.7857
2932.5 33.5714
2933.5 12.2857
2934.5 22.2143
2935.5 42.1429
2936.5 22.0714
2937.5 27.7143
2938.5 12.9286
2939.5 20.5
2940.5 22.7143
2941.5 18.9286
2942.5 23
2943.5 36.3571
2944.5 30.5714
2945.5 -20.6429
2946.5 -9.85713
2947.5 10.9286
2948.5 2.50001
2949.5 38.0714
2950.5 23
2951.5 8.71429
2952.5 29.1429
2953.5 39.4286
2954.5 37.7857
2955.5 21.1429
2956.5 15.6429
2957.5 20
2958.5 23.5
2959.5 24.0714
2960.5 28.3571
2961.5 31.7143
2962.5 18.5714
2963.5 29.2143
2964.5 41.3571
2965.5 26.7857
2966.5 30.4286
2967.5 14.6429
2968.5 23.4286
2969.5 33.8571
2970.5 21.7143
2971.5 20.7857
2972.5 36.8571
2973.5 28.4286
2974.5 39.1429
2975.5 33.8571
2976.5 26.4286
2977.5 23.2857
2978.5 35.7857
2979.5 24.4286
2980.5 22.0714
2981.5 20.9286
2982.5 34.5
2983.5 31.5714
2984.5 28.7857
2985.5 20.7143
2986.5 11.0714
2987.5 27.7857
2988.5 18.1429
2989.5 23.7857
2990.5 27.8571
2991.5 26.0714
2992.5 31.2857
2993.5 18.6429
2994.5 15.2143
2995.5 25.3571
2996.5 34.5
2997.5 28.8571
2998.5 38
2999.5 68
3000.5 154.071
3001.5 373.643
3002.5 858.429
3003.5 1985
3004.5 3565.79
3005.5 4949.5
3006.5 4503.57
3007.5 2330.79
3008.5 890.929
3009.5 295.071
3010.5 127.571
3011.5 82.7143
3012.5 31.1429
3013.5 21.7857
3014.5 4
3015.5 12.7857
3016.5 16.5
3017.5 11
3018.5 15.6429
3019.5 0.357144
3020.5 10.7143
3021.5 -8
3022.5 13.0714
3023.5 6
3024.5 19.9286
3025.5 2
3026.5 8.71429
3027.5 6.64286
3028.5 13.5
3029.5 11.7143
3030.5 7.57143
3031.5 3.14286
3032.5 -11.2857
3033.5 3.14286
3034.5 34.9286
3035.5 73.5714
3036.5 99.9286
3037.5 169.643
3038.5 218.929
3039.5 191.643
3040.5 51.8571
3041.5 22
3042.5 -17.6429
3043.5 -33
3044.5 -17.6429
3045.5 -30.0714
3046.5 -4
3047.5 -3
3048.5 -0.428571
3049.5 10.5
3050.5 28.7857
3051.5 5.85714
3052.5 1
3053.5 20.8571
3054.5 -4.92857
3055.5 4.07143
3056.5 19.2857
3057.5 4.71429
3058.5 1.28571
3059.5 12.0714
3060.5 -3.07143
3061.5 11.7143
3062.5 11.1429
3063.5 9.35714
3064.5 3.14286
3065.5 14.2143
3066.5 4.5
3067.5 9.28571
3068.5 6.57143
3069.5 2.5
3070.5 4.85714
3071.5 6.78571
3072.5 12.5
3073.5 16.1429
3074.5 -9.71428
3075.5 2.5
3076.5 1.14286
3077.5 7.42857
3078.5 23.1429
3079.5 -9.57143
3080.5 4.35714
3081.5 11.1429
3082.5 3.64286
3083.5 12.0714
3084.5 5.5
3085.5 -3.35714
3086.5 4.14286
3087.5 20
3088.5 7.64286
3089.5 7.07143
3090.5 12.8571
3091.5 5.64286
3092.5 10.2857
3093.5 10.3571
3094.5 15.2857
3095.5 -3.92857
3096.5 4.57143
3097.5 -17.9286
3098.5 -7.57143
3099.5 -7.64286
3100.5 -12.8571
3101.5 -26.0714
3102.5 16.2857
3103.5 14.7857
3104.5 19.5
3105.5 17.5714
3106.5 60.5
3107.5 76.2143
3108.5 81.8571
3109.5 99.7143
3110.5 92.5
3111.5 61.4286
3112.5 40
3113.5 20.2857
3114.5 24.3571
3115.5 17.9286
3116.5 13.0714
3117.5 11.1429
3118.5 -4.5
3119.5 6
3120.5 16.9286
3121.5 21.0714
3122.5 2
3123.5 8.85714
3124.5 18.0714
3125.5 22.0714
3126.5 24.8571
3127.5 14.2857
3128.5 9.42857
3129.5 7.07143
3130.5 3.07143
3131.5 3.78571
3132.5 1.5
3133.5 -2.21428
3134.5 19.2143
3135.5 11.2857
3136.5 17.1429
3137.5 17.2143
3138.5 13.6429
3139.5 -1.85714
3140.5 13
3141.5 11.9286
3142.5 -6.85714
3143.5 11.2857
3144.5 8.07143
3145.5 4.85714
3146.5 13.4286
3147.5 4.71429
3148.5 11.3571
3149.5 14.6429
3150.5 4.64286
3151.5 22.2857
3152.5 15.1429
3153.5 11.7143
3154.5 13.9286
3155.5 1
3156.5 15.6429
3157.5 1.35714
3158.5 19.6429
3159.5 2.14286
3160.5 3.64286
3161.5 15.4286
3162.5 13.4286
3163.5 4.07143
3164.5 6.35714
3165.5 -1.42857
3166.5 14.6429
3167.5 -5.42857
3168.5 5.78571
3169.5 13.7143
3170.5 14.1429
3171.5 11.6429
3172.5 -2.78571
3173.5 8.71429
3174.5 3
3175.5 18.6429
3176.5 7.5
3177.5 9.92857
3178.5 5.85714
3179.5 1.07143
3180.5 16.2143
3181.5 11.6429
3182.5 -0.214285
3183.5 10.3571
3184.5 4.28572
3185.5 -3.21429
3186.5 15.4286
3187.5 12.9286
3188.5 9.78571
3189.5 8.92857
3190.5 10.2143
3191.5 14.5
3192.5 13
3193.5 6.35714
3194.5 13.6429
3195.5 -2.14286
3196.5 18.7143
3197.5 28.2143
3198.5 0.714287
3199.5 11.2143
3200.5 -0.857141
3201.5 3
3202.5 -6.71428
3203.5 8.64286
3204.5 4.85714
3205.5 5.42857
3206.5 14.2857
3207.5 7.85714
3208.5 -3.07143
3209.5 5.92857
3210.5 1.78571
3211.5 0.571429
3212.5 3.64286
3213.5 4.35714
3214.5 5.92857
3215.5 5.35714
3216.5 3.35714
3217.5 9.64286
3218.5 20.8571
3219.5 -1.42857
3220.5 4.5
3221.5 -6
3222.5 10.7857
3223.5 13.1429
3224.5 9.28571
3225.5 10.2857
3226.5 10.5
3227.5 1.57143
3228.5 11.5
3229.5 11.6429
3230.5 10.5
3231.5 13.1429
3232.5 26.5
3233.5 16.1429
3234.5 -8.14286
3235.5 28.7143
3236.5 2.64286
3237.5 0.714287
3238.5 9.07143
3239.5 11.5714
3240.5 4.78572
3241.5 -0.357142
3242.5 3.35714
3243.5 6.92857
3244.5 14.6429
3245.5 19.2857
3246.5 1.78571
3247.5 14.7857
3248.5 20.1429
3249.5 -1.5
3250.5 10.2143
3251.5 15.2857
3252.5 10.2857
3253.5 16.3571
3254.5 12.7143
3255.5 9.42857
3256.5 -2.35714
3257.5 31.5
3258.5 -2.64286
3259.5 19.0714
3260.5 0.642858
3261.5 12.0714
3262.5 4.5
3263.5 -1.21429
3264.5 19.3571
3265.5 -2.21429
3266.5 19
3267.5 15.3571
3268.5 4.42857
3269.5 8.71429
3270.5 12.9286
3271.5 16
3272.5 4.07143
3273.5 20.2143
3274.5 20.4286
3275.5 10.2143
3276.5 15.5714
3277.5 -0.428571
3278.5 21.3571
3279.5 16.9286
3280.5 14.0714
3281.5 0.571429
3282.5 1.85714
3283.5 12.3571
3284.5 -3.07143
3285.5 13.9286
3286.5 7.71429
3287.5 6.78571
3288.5 5.78571
3289.5 9.28571
3290.5 -1.35714
3291.5 8.92857
3292.5 -1.07143
3293.5 8.21429
3294.5 -1.42857
3295.5 14.2857
3296.5 13.6429
3297.5 25
3298.5 29.0714
3299.5 61.1429
3300.5 83.2857
3301.5 123.571
3302.5 83.7857
3303.5 39.5
3304.5 17.7143
3305.5 17.0714
3306.5 13.3571
3307.5 2.5
3308.5 13.4286
3309.5 3.64286
3310.5 6.64286
3311.5 1.28571
3312.5 11.5714
3313.5 22.1429
3314.5 19
3315.5 14.5714
3316.5 18.9286
3317.5 13.3571
3318.5 21.5
3319.5 5.64286
3320.5 13.5714
3321.5 16
3322.5 -1.64285
3323.5 5.57143
3324.5 21.2857
3325.5 4.28572
3326.5 11.2143
3327.5 8.64286
3328.5 5.85714
3329.5 19.4286
3330.5 6.78571
3331.5 2.42857
3332.5 13.2857
3333.5 0.857144
3334.5 -2.14286
3335.5 12.7143
3336.5 17.5
3337.5 4.64286
3338.5 2.07143
3339.5 6.64286
3340.5 5.42857
3341.5 11
3342.5 8.14286
3343.5 15.1429
3344.5 -0.428571
3345.5 18.1429
3346.5 17.7143
3347.5 21.4286
3348.5 4
3349.5 11.7857
3350.5 6.85714
3351.5 11.4286
3352.5 17.7143
3353.5 12.3571
3354.5 3.07143
3355.5 5.5
3356.5 21.9286
3357.5 -0.214285
3358.5 12.4286
3359.5 16.1429
3360.5 17.7143
3361.5 10.4286
3362.5 9.42857
3363.5 16.0714
3364.5 4.57143
3365.5 15.3571
3366.5 21.3571
3367.5 4.85714
3368.5 17.7857
3369.5 1.92857
3370.5 8.42857
3371.5 2.5
3372.5 5.5
3373.5 17.2143
3374.5 3.57143
3375.5 3.85714
3376.5 14.8571
3377.5 21.2857
3378.5 4.5
3379.5 19.5
3380.5 4.42857
3381.5 -3.92857
3382.5 18.5
3383.5 -4
3384.5 15.5714
3385.5 11.2857
3386.5 0.214286
3387.5 5.64286
3388.5 18.7857
3389.5 3.28572
3390.5 7.21429
3391.5 5.5
3392.5 1.28571
3393.5 8.14286
3394.5 16.0714
3395.5 4.85714
3396.5 13.2143
3397.5 1.35714
3398.5 0.500001
3399.5 10
3400.5 3.35714
3401.5 7
3402.5 1.85714
3403.5 7.5
3404.5 11.2857
3405.5 17.0714
3406.5 5.28571
3407.5 10.1429
3408.5 10.2143
3409.5 6.64286
3410.5 7.78571
3411.5 11.2857
3412.5 14.8571
3413.5 21.1429
3414.5 12.0714
3415.5 8.57143
3416.5 11.7857
3417.5 17.7857
3418.5 4.21429
3419.5 -3.07143
3420.5 18.1429
3421.5 10
3422.5 16.0714
3423.5 31.4286
3424.5 39
3425.5 38.0714
3426.5 46.7143
3427.5 65.0714
3428.5 27.7143
3429.5 13.8571
3430.5 20.9286
3431.5 14.7857
3432.5 7.21429
3433.5 7.5
3434.5 17.2143
3435.5 16.8571
3436.5 -10.2143
3437.5 4.35714
3438.5 13.1429
3439.5 5.07143
3440.5 3.64286
3441.5 7.5
3442.5 18.7143
3443.5 2.92857
3444.5 23.8571
3445.5 1.21429
3446.5 8.85714
3447.5 14
3448.5 7.14286
3449.5 14.7143
3450.5 -3.85714
3451.5 19.4286
3452.5 9.5
3453.5 8.42857
3454.5 14.7857
3455.5 12.2143
3456.5 13.4286
3457.5 11
3458.5 8.35714
3459.5 7.35714
3460.5 5.57143
3461.5 19
3462.5 -5.57143
3463.5 11.2143
3464.5 2.64286
3465.5 11.0714
3466.5 5.28571
3467.5 12.2857
3468.5 7.71429
3469.5 8.07143
3470.5 18.9286
3471.5 18.0714
3472.5 12.0714
3473.5 8
3474.5 8.78571
3475.5 6.42857
3476.5 0.357143
3477.5 -6.21429
3478.5 2.57143
3479.5 17.2857
3480.5 13.2857
3481.5 -1.28571
3482.5 4.28571
3483.5 2.57143
3484.5 12.3571
3485.5 11.5
3486.5 17
3487.5 10.5
3488.5 14.0714
3489.5 10.5
3490.5 8.14286
3491.5 -10.9286
3492.5 10.6429
3493.5 -2.14286
3494.5 8
3495.5 5.92857
3496.5 -1.64286
3497.5 6.21429
3498.5 -3.5
3499.5 8.78571
3500.5 4.07143
3501.5 5.21429
3502.5 2.42857
3503.5 -1.78571
3504.5 6.85714
3505.5 4.78571
3506.5 5.35714
3507.5 8.35714
3508.5 16
3509.5 16.0714
3510.5 16.5714
3511.5 14.9286
3512.5 15
3513.5 11.9286
3514.5 7
3515.5 14.8571
3516.5 16.7143
3517.5 12.2857
3518.5 9.92857
3519.5 8.14286
3520.5 5.5
3521.5 -1.42857
3522.5 -4.35714
3523.5 3.42857
3524.5 0.714286
3525.5 4.14286
3526.5 5
3527.5 12.0714
3528.5 2.14286
3529.5 5.28572
3530.5 -10.4286
3531.5 1.71429
3532.5 -12.6429
3533.5 -4.57143
3534.5 10.1429
3535.5 -1.28571
3536.5 8.64286
3537.5 -1.42857
3538.5 7.78571
3539.5 7.35714
3540.5 5.35714
3541.5 7.64286
3542.5 11.7143
3543.5 8.71429
3544.5 7.71429
3545.5 9.14286
3546.5 -0.285714
3547.5 5.92857
3548.5 12.0714
3549.5 2.21429
3550.5 2.14286
3551.5 -0.0714282
3552.5 8.92857
3553.5 2
3554.5 5.57143
3555.5 7.78571
3556.5 17.7143
3557.5 9.5
3558.5 12.5714
3559.5 -5.64286
3560.5 3.85714
3561.5 6
3562.5 -5.57143
3563.5 14
3564.5 19.5
3565.5 7.14286
3566.5 6.07143
3567.5 6.85714
3568.5 13.8571
3569.5 6.21429
3570.5 1
3571.5 3.07143
3572.5 9.78571
3573.5 16.5714
3574.5 12
3575.5 7.92857
3576.5 -4.5
3577.5 11.6429
3578.5 8.07143
3579.5 4.42857
3580.5 -1.35714
3581.5 5.78571
3582.5 3.78571
3583.5 -7.21429
3584.5 17.7143
3585.5 -1.35714
3586.5 8.92857
3587.5 -1.57143
3588.5 0.071429
3589.5 9.78571
3590.5 1.42857
3591.5 5.92857
3592.5 6.21429
3593.5 10.7857
3594.5 3.28571
3595.5 9.92857
3596.5 11.3571
3597.5 5.07143
3598.5 13.8571
3599.5 4.78571
3600.5 6.71429
3601.5 9
3602.5 15.8571
3603.5 13.8571
3604.5 -0.142857
3605.5 -2.71429
3606.5 -5.21429
3607.5 -19.2857
3608.5 -11.6429
3609.5 -1.78571
3610.5 -3.07143
3611.5 2.28571
3612.5 0.642858
3613.5 12.9286
3614.5 17.2143
3615.5 29.0714
3616.5 49.7143
3617.5 132.714
3618.5 175.214
3619.5 247.786
3620.5 381.857
3621.5 458.857
3622.5 418.857
3623.5 255.071
3624.5 119.357
3625.5 39.7857
3626.5 22.5714
3627.5 10.0714
3628.5 4.57143
3629.5 2
3630.5 12.2143
3631.5 12.1429
3632.5 -0.714285
3633.5 0.428572
3634.5 6.07143
3635.5 6.5
3636.5 8.71429
3637.5 -0.999999
3638.5 1.92857
3639.5 6.14286
3640.5 6.21429
3641.5 -1.57143
3642.5 -8.42857
3643.5 -26.7143
3644.5 -7.21428
3645.5 -14.5714
3646.5 15.7857
3647.5 5.21429
3648.5 0.571429
3649.5 21.4286
3650.5 6.07143
3651.5 -2.64286
3652.5 2.57143
3653.5 -5.35714
3654.5 -17.3571
3655.5 -6.07143
3656.5 -1.57143
3657.5 12.3571
3658.5 13.6429
3659.5 18.0714
3660.5 23.2857
3661.5 34.4286
3662.5 17.6429
3663.5 21.2143
3664.5 25.5714
3665.5 6
3666.5 9.71429
3667.5 -6.64286
3668.5 4.92857
3669.5 5.92857
3670.5 10
3671.5 5.21429
3672.5 0.071429
3673.5 9.78571
3674.5 3.35714
3675.5 8.71429
3676.5 6.78571
3677.5 15.7857
3678.5 4.71429
3679.5 2
3680.5 7.78571
3681.5 3.07143
3682.5 10.7143
3683.5 8.07143
3684.5 9.92857
3685.5 7.78571
3686.5 2.28571
3687.5 7.71429
3688.5 12.9286
3689.5 9.92857
3690.5 -0.857142
3691.5 -0.0714282
3692.5 -1.64286
3693.5 7.14286
3694.5 10.6429
3695.5 8.71429
3696.5 -3.07143
3697.5 7.78571
3698.5 4.71429
3699.5 12.2857
3700.5 1.64286
3701.5 5.28571
3702.5 -0.499999
3703.5 1.21429
3704.5 8
3705.5 0.071429
3706.5 0.500001
3707.5 -3.78571
3708.5 6.21429
3709.5 -0.785714
3710.5 1.92857
3711.5 6.64286
3712.5 1.42857
3713.5 4.78571
3714.5 7.78571
3715.5 -2.85714
3716.5 12.7857
3717.5 -2.71429
3718.5 4.92857
3719.5 1.78571
3720.5 1.28571
3721.5 1.5
3722.5 3.14286
3723.5 6.07143
3724.5 15.3571
3725.5 3.35714
3726.5 9.78571
3727.5 4
3728.5 6.85714
3729.5 -2.14286
3730.5 7.78571
3731.5 1.92857
3732.5 6
3733.5 6
3734.5 7.5
3735.5 4
3736.5 4.64286
3737.5 8.92857
3738.5 6.78571
3739.5 -0.785714
3740.5 3.71429
3741.5 -7.21429
3742.5 -2.85714
3743.5 7
3744.5 4.28572
3745.5 14.1429
3746.5 -2.35714
3747.5 -7.07143
3748.5 9.07143
3749.5 1.78814e-06
3750.5 -2.71428
3751.5 3.64286
3752.5 12.7857
3753.5 10.8571
3754.5 5.71429
3755.5 6
3756.5 -5
3757.5 3
3758.5 13.6429
3759.5 -2.71429
3760.5 2.78571
3761.5 6.78571
3762.5 7.64286
3763.5 4.85714
3764.5 -0.285714
3765.5 7.64286
3766.5 2.71429
3767.5 -6.71429
3768.5 0.071429
3769.5 9.64286
3770.5 4.5
3771.5 -6.85714
3772.5 9.42857
3773.5 2.42857
3774.5 1.14286
3775.5 3.28571
3776.5 3.5
3777.5 6.85714
3778.5 4.92857
3779.5 14.3571
3780.5 -2.71429
3781.5 5
3782.5 4.85714
3783.5 1.21429
3784.5 3.28571
3785.5 -3.57143
3786.5 -1.57143
3787.5 6.14286
3788.5 3.28571
3789.5 9.71429
3790.5 -1.35714
3791.5 5.64286
3792.5 14.6429
3793.5 2.28571
3794.5 2.42857
3795.5 0.928572
3796.5 3
3797.5 5.92857
3798.5 -1.14286
3799.5 -0.142857
3800.5 6.64286
3801.5 6.85714
3802.5 0.928572
3803.5 6.71429
3804.5 12.5714
3805.5 6.78571
3806.5 1.21429
3807.5 3.42857
3808.5 6.5
3809.5 -4
3810.5 1.85714
3811.5 5.07143
3812.5 -3.14286
3813.5 8.71429
3814.5 7.85714
3815.5 4.85714
3816.5 4.64286
3817.5 2.92857
3818.5 0.714286
3819.5 3.07143
3820.5 0.642857
3821.5 7.85714
3822.5 5.57143
3823.5 0.214286
3824.5 1.57143
3825.5 10.2857
3826.5 6.42857
3827.5 4.14286
3828.5 5.42857
3829.5 8.92857
3830.5 7.92857
3831.5 11.9286
3832.5 8.71429
3833.5 7.07143
3834.5 -4.57143
3835.5 -0.214285
3836.5 1.42857
3837.5 2.71429
3838.5 12.4286
3839.5 6.85714
3840.5 1
3841.5 3.14286
3842.5 0.714286
3843.5 3.42857
3844.5 -3.57143
3845.5 3.57143
3846.5 10.9286
3847.5 6.78572
3848.5 16.5714
3849.5 -5.57143
3850.5 -2.14286
3851.5 5.78571
3852.5 0.071429
3853.5 8
3854.5 -3.64286
3855.5 3.35714
3856.5 3.42857
3857.5 -1.35714
3858.5 13.6429
3859.5 20.8571
3860.5 42.2143
3861.5 8.78572
3862.5 13.0714
3863.5 -1.14286
3864.5 0.642858
3865.5 2.07143
3866.5 14.5714
3867.5 -2.42857
3868.5 10.8571
3869.5 1.5
3870.5 12.1429
3871.5 29.9286
3872.5 8.78571
3873.5 5
3874.5 3.85714
3875.5 0.928572
3876.5 12.5714
3877.5 5.64286
3878.5 3.92857
3879.5 10.7143
3880.5 4.5
3881.5 4.78571
3882.5 0.928572
3883.5 3.92857
3884.5 7.14286
3885.5 7.5
3886.5 11.7143
3887.5 5.64286
3888.5 7.71429
3889.5 10.5714
3890.5 8.57143
3891.5 3.64286
3892.5 11.5714
3893.5 1.64286
3894.5 2.07143
3895.5 3
3896.5 5.35714
3897.5 10.4286
3898.5 1.57143
3899.5 1.78571
3900.5 2.35714
3901.5 5.57143
3902.5 7.71429
3903.5 6.42857
3904.5 0.142858
3905.5 1.71429
3906.5 -3.78571
3907.5 4.85714
3908.5 4.92857
3909.5 -1.42857
3910.5 -0.285714
3911.5 -0.142857
3912.5 2.78571
3913.5 8.21429
3914.5 0.571429
3915.5 8.5
3916.5 10.4286
3917.5 5.71429
3918.5 -7.28571
3919.5 1.42857
3920.5 10.5714
3921.5 0.857143
3922.5 2.78571
3923.5 3.78571
3924.5 7.5
3925.5 5.42857
3926.5 5.42857
3927.5 8.42857
3928.5 7.64286
3929.5 6.64286
3930.5 11.5
3931.5 11.5714
3932.5 10
3933.5 0.428572
3934.5 6.42857
3935.5 0.714286
3936.5 7.35714
3937.5 3.28571
3938.5 13.5
3939.5 3.71429
3940.5 2.35714
3941.5 1.64286
3942.5 0.714286
3943.5 1.5
3944.5 9.28571
3945.5 -3.07143
3946.5 3.64286
3947.5 4.64286
3948.5 -0.214285
3949.5 3.5
3950.5 0.857143
3951.5 12.3571
3952.5 7.5
3953.5 -0.357143
3954.5 3.42857
3955.5 5.21429
3956.5 9.71429
3957.5 -0.0714282
3958.5 -5.21429
3959.5 8.28571
3960.5 1.78571
3961.5 8.57143
3962.5 2.78571
3963.5 -0.0714282
3964.5 7.57143
3965.5 -8.78571
3966.5 9.28571
3967.5 9.42857
3968.5 0.214287
3969.5 18.0714
3970.5 -7.64285
3971.5 -3.42857
3972.5 2.21429
3973.5 -20.3571
3974.5 4.42858
3975.5 -30
3976.5 21.4286
3977.5 6
3978.5 6.92857
3979.5 -3.14286
3980.5 0.785715
3981.5 5.64286
3982.5 1.57143
3983.5 0.571429
3984.5 4.42857
3985.5 7.42857
3986.5 6.5
3987.5 -6.21429
3988.5 7.5
3989.5 11.3571
3990.5 2.42857
3991.5 -1.5
3992.5 6.28571
3993.5 -0.571428
3994.5 3.57143
3995.5 5.5
3996.5 1.85714
3997.5 1.78571
3998.5 -2.28571
3999.5 5.57143
4000.5 7
4001.5 8.42857
4002.5 0.5
4003.5 4.21429
4004.5 5.28571
4005.5 8.28571
4006.5 7.42857
4007.5 1.21429
4008.5 10.2857
4009.5 8.42857
4010.5 11.2143
4011.5 7.21429
4012.5 3.21429
4013.5 -4.35714
4014.5 2.21429
4015.5 4.21429
4016.5 2.28571
4017.5 -2.14286
4018.5 8.14286
4019.5 2.35714
4020.5 5.28571
4021.5 1.42857
4022.5 -1.35714
4023.5 1.35714
4024.5 3.42857
4025.5 6.71429
4026.5 -0.357143
4027.5 -3.35714
4028.5 2.64286
4029.5 -0.714286
4030.5 5.42857
4031.5 1.35714
4032.5 5.28571
4033.5 -2.14286
4034.5 3.57628e-07
4035.5 -3.28571
4036.5 -2.21429
4037.5 5.42857
4038.5 3.5
4039.5 4.28571
4040.5 3.21429
4041.5 -0.5
4042.5 1.42857
4043.5 -0.642857
4044.5 8.14286
4045.5 5.28571
4046.5 2.35714
4047.5 4.28571
4048.5 11
4049.5 3.28571
4050.5 -0.428571
4051.5 2.14286
4052.5 -3.28571
4053.5 0.428572
4054.5 1.5
4055.5 3.07143
4056.5 8.14286
4057.5 3.28571
4058.5 2.35714
4059.5 -4.5
4060.5 1.57143
4061.5 9.35714
4062.5 2.64286
4063.5 9.28571
4064.5 5.21429
4065.5 -3.42857
4066.5 -4.5
4067.5 7.28571
4068.5 2.42857
4069.5 -0.642857
4070.5 3.42857
4071.5 -0.428571
4072.5 -2.28571
4073.5 6.21429
4074.5 2.78571
4075.5 0.5
4076.5 -1.35714
4077.5 5.5
4078.5 4.14286
4079.5 -0.571428
4080.5 1.28571
4081.5 -2.5
4082.5 6.35714
4083.5 1.42857
4084.5 2.21429
4085.5 -0.642857
4086.5 3.35714
4087.5 4.28571
4088.5 -2.57143
4089.5 -4.42857
4090.5 5.21429
4091.5 0.214286
4092.5 6
4093.5 3.14286
4094.5 3.14286
4095.5 6.21429
4096.5 -1.71429
4097.5 2.42857
4098.5 1.42857
4099.5 5.21429
4100.5 0.357143
4101.5 1.14286
4102.5 3.28571
4103.5 -2.64286
4104.5 3.42857
4105.5 -2.42857
4106.5 4.07143
4107.5 3.35714
4108.5 -0.571428
4109.5 4.21429
4110.5 -0.571428
4111.5 -1.42857
4112.5 -1.21429
4113.5 -3.35714
4114.5 1.28571
4115.5 -9
4116.5 -21
4117.5 -41.5714
4118.5 -44
4119.5 -62.5714
4120.5 -32.7143
4121.5 -14.1429
4122.5 -0.928571
4123.5 -1.14286
4124.5 9.5
4125.5 7.35714
4126.5 30.6429
4127.5 47.4286
4128.5 72.3571
4129.5 160.429
4130.5 214.429
4131.5 290.286
4132.5 287.857
4133.5 227.214
4134.5 148.429
4135.5 102.5
4136.5 61.6429
4137.5 40
4138.5 36.6429
4139.5 48.3571
4140.5 25.2143
4141.5 32.1429
4142.5 17.4286
4143.5 6.14286
4144.5 7.5
4145.5 7.42857
4146.5 0.642857
4147.5 1.35714
4148.5 1.57143
4149.5 0.428572
4150.5 3.42857
4151.5 -0.571428
4152.5 -0.785714
4153.5 -0.714286
4154.5 3.28571
4155.5 1.35714
4156.5 -3.5
4157.5 2.28571
4158.5 11.2143
4159.5 5.21429
4160.5 5.57143
4161.5 -2.35714
4162.5 -17.7857
4163.5 -15.0714
4164.5 -25.2143
4165.5 -46.2143
4166.5 -56.3571
4167.5 -34
4168.5 -14.4286
4169.5 -15.7857
4170.5 -5.57143
4171.5 -2.21429
4172.5 -0.571428
4173.5 3.07143
4174.5 -6.42857
4175.5 3.21429
4176.5 5.21429
4177.5 -1.64286
4178.5 8.07143
4179.5 -0.714286
4180.5 -2.64286
4181.5 4.21429
4182.5 13.0714
4183.5 4.35714
4184.5 1.35714
4185.5 2.14286
4186.5 -1.42857
4187.5 -7.28571
4188.5 1.42857
4189.5 -4.57143
4190.5 -1.57143
4191.5 -0.714286
4192.5 0.214286
4193.5 1.5
4194.5 6.14286
4195.5 3.21429
4196.5 1.21429
4197.5 3
4198.5 -0.571428
4199.5 -2.57143
4200.5 -0.714286
4201.5 -0.785714
4202.5 0.214286
4203.5 -1.71429
4204.5 0.357143
4205.5 2.35714
4206.5 3.42857
4207.5 3.5
4208.5 1.42857
4209.5 1.35714
4210.5 -2.5
4211.5 -5.28571
4212.5 8.14286
4213.5 1.35714
4214.5 1.5
4215.5 -0.571428
4216.5 4.28571
4217.5 7.21429
4218.5 1.42857
4219.5 2.5
4220.5 -2.57143
4221.5 1.21429
4222.5 4
4223.5 2.14286
4224.5 2.35714
4225.5 0.357143
4226.5 3.07143
4227.5 2.28571
4228.5 0.285714
4229.5 -2.35714
4230.5 0.214286
4231.5 0.214286
4232.5 5.14286
4233.5 -3.57143
4234.5 0.142857
4235.5 4.07143
4236.5 3.21429
4237.5 1.28571
4238.5 1.28571
4239.5 -4.5
4240.5 1.28571
4241.5 -0.785714
4242.5 7.21429
4243.5 -0.642857
4244.5 -1.71429
4245.5 2.14286
4246.5 5.28571
4247.5 3.07143
4248.5 5
4249.5 -0.642857
4250.5 4.14286
4251.5 -4.35714
4252.5 -3.64286
4253.5 -1.5
4254.5 1.28571
4255.5 -0.642857
4256.5 -0.642857
4257.5 -2.5
4258.5 2.21429
4259.5 -4.21429
4260.5 2.14286
4261.5 1.21429
4262.5 7.21429
4263.5 -2.35714
4264.5 -1.42857
4265.5 -1.57143
4266.5 1.21429
4267.5 -3.57143
4268.5 3.42857
4269.5 1.21429
4270.5 -0.642857
4271.5 -0.785714
4272.5 -1.71429
4273.5 -1.71429
4274.5 0.285714
4275.5 -6.35714
4276.5 -0.714286
4277.5 -0.714286
4278.5 3.14286
4279.5 1.14286
4280.5 0.642857
4281.5 -0.571428
4282.5 4.28571
4283.5 6.07143
4284.5 -2.42857
4285.5 1.28571
4286.5 0.571429
4287.5 3.28571
4288.5 3.28571
4289.5 3.28571
4290.5 0.642857
4291.5 2.07143
4292.5 3.07143
4293.5 1.28571
4294.5 1.35714
4295.5 1.14286
4296.5 0.214286
4297.5 -0.714286
4298.5 0.357143
4299.5 3.21429
4300.5 -0.5
4301.5 -1.64286
4302.5 -4.5
4303.5 1.28571
4304.5 -5.35714
4305.5 -1.78571
4306.5 -3.57143
4307.5 2.14286
4308.5 -0.714286
4309.5 1.21429
4310.5 -0.5
4311.5 4.21429
4312.5 2.21429
4313.5 -0.5
4314.5 4.07143
4315.5 4.07143
4316.5 0.357143
4317.5 1.21429
4318.5 -6.42857
4319.5 1.21429
4320.5 3.28571
4321.5 4.07143
4322.5 5.28571
4323.5 -0.5
4324.5 1.21429
4325.5 0.285714
4326.5 -0.857143
4327.5 2.5
4328.5 1.21429
4329.5 0.285714
4330.5 1.21429
4331.5 3.07143
4332.5 2.14286
4333.5 2.21429
4334.5 3.42857
4335.5 1.28571
4336.5 2.42857
4337.5 1.21429
4338.5 -3.5
4339.5 2.28571
4340.5 2.21429
4341.5 3.21429
4342.5 0.285714
4343.5 1.42857
4344.5 -0.714286
4345.5 -0.714286
4346.5 5.21429
4347.5 0.357143
4348.5 -3.57143
4349.5 -2.57143
4350.5 0.285714
4351.5 1.14286
4352.5 4.07143
4353.5 -2.5
4354.5 0.357143
4355.5 4.14286
4356.5 5.35714
4357.5 6.14286
4358.5 -5.35714
4359.5 -2.5
4360.5 -1.71429
4361.5 5.14286
4362.5 1.14286
4363.5 2.21429
4364.5 -1.78571
4365.5 4.07143
4366.5 -1.64286
4367.5 -3.42857
4368.5 -2.64286
4369.5 6.07143
4370.5 -2.42857
4371.5 -2.71429
4372.5 0.5
4373.5 -1.71429
4374.5 0.428572
4375.5 2.35714
4376.5 1.35714
4377.5 -1.64286
4378.5 0.428572
4379.5 -1.78571
4380.5 -0.642857
4381.5 -4.35714
4382.5 7.07143
4383.5 0.571429
4384.5 -0.642857
4385.5 2.28571
4386.5 2.28571
4387.5 7.28571
4388.5 0.285714
4389.5 4.35714
4390.5 1.5
4391.5 -2.57143
4392.5 -3.5
4393.5 -1.57143
4394.5 3.35714
4395.5 -3.57143
4396.5 0.5
4397.5 -4.35714
4398.5 0.5
4399.5 6.14286
4400.5 2.14286
4401.5 2.28571
4402.5 -3.57143
4403.5 -1.57143
4404.5 1.42857
4405.5 0.214286
4406.5 -2.71429
4407.5 -0.714286
4408.5 -2.64286
4409.5 2
4410.5 3.21429
4411.5 0.214286
4412.5 2.35714
4413.5 -3.57143
4414.5 -0.5
4415.5 -1.71429
4416.5 0.142857
4417.5 -1.71429
4418.5 -5.5
4419.5 0.785715
4420.5 0.357143
4421.5 4.35714
4422.5 0.142857
4423.5 2.07143
4424.5 -0.714286
4425.5 -2.57143
4426.5 -3.64286
4427.5 5.14286
4428.5 -2.5
4429.5 4.14286
4430.5 5.28571
4431.5 3.07143
4432.5 2.21429
4433.5 -1.5
4434.5 -0.571428
4435.5 -5.42857
4436.5 -1.5
4437.5 2.42857
4438.5 -0.714286
4439.5 2.21429
4440.5 0.428572
4441.5 2.35714
4442.5 8.07143
4443.5 2.21429
4444.5 -0.571428
4445.5 1.21429
4446.5 0.214286
4447.5 2.21429
4448.5 0.214286
4449.5 -9.14286
4450.5 6
4451.5 1.28571
4452.5 2.21429
4453.5 -0.714286
4454.5 0.285714
4455.5 1.5
4456.5 2.57143
4457.5 4.5
4458.5 0.357143
4459.5 -1.5
4460.5 -4.35714
4461.5 2.21429
4462.5 1.28571
4463.5 0.285714
4464.5 0.285714
4465.5 1.07143
4466.5 0.285714
4467.5 1.21429
4468.5 2.14286
4469.5 2.35714
4470.5 -1.42857
4471.5 -5.5
4472.5 -1.64286
4473.5 1.35714
4474.5 1.42857
4475.5 6.14286
4476.5 -3.5
4477.5 -2.78571
4478.5 2.28571
4479.5 -2.64286
4480.5 0.428572
4481.5 2.35714
4482.5 0.357143
4483.5 0.285714
4484.5 2.14286
4485.5 0.285714
4486.5 5.14286
4487.5 5.07143
4488.5 -1.64286
4489.5 -0.642857
4490.5 3.07143
4491.5 3.28571
4492.5 -1.5
4493.5 -5.21429
4494.5 -1.57143
4495.5 0.285714
4496.5 0.214286
4497.5 2.21429
4498.5 1.28571
4499.5 5.07143
4500.5 3.28571
4501.5 -1.5
4502.5 -3.64286
4503.5 -2.5
4504.5 -2.35714
4505.5 -3.35714
4506.5 -7.92857
4507.5 -8.71429
4508.5 -4.92857
4509.5 -7.64286
4510.5 -7.14286
4511.5 -2.42857
4512.5 0.357143
4513.5 0.285714
4514.5 3.35714
4515.5 -1.64286
4516.5 1.28571
4517.5 1.21429
4518.5 0.214286
4519.5 -0.642857
4520.5 1.21429
4521.5 0.142857
4522.5 -0.714286
4523.5 -3.57143
4524.5 -0.785714
4525.5 0.0714286
4526.5 1.21429
4527.5 1.21429
4528.5 -1.64286
4529.5 0.357143
4530.5 -0.714286
4531.5 2.14286
4532.5 0.285714
4533.5 1.14286
4534.5 1.14286
4535.5 0.142857
4536.5 2
4537.5 3
4538.5 3.14286
4539.5 1.07143
4540.5 -0.642857
4541.5 0.142857
4542.5 3.21429
4543.5 3.21429
4544.5 -0.642857
4545.5 0.214286
4546.5 4.07143
4547.5 -0.785714
4548.5 0.142857
4549.5 2.14286
4550.5 -3.5
4551.5 2.21429
4552.5 3.28571
4553.5 -1.85714
4554.5 0.214286
4555.5 0.428572
4556.5 5.21429
4557.5 1.35714
4558.5 2.21429
4559.5 0.285714
4560.5 3.07143
4561.5 4
4562.5 -1.57143
4563.5 4.14286
4564.5 1.21429
4565.5 0.285714
4566.5 2.21429
4567.5 0.142857
4568.5 2.28571
4569.5 2
4570.5 3.07143
4571.5 2.14286
4572.5 -2.71429
4573.5 2.14286
4574.5 -0.785714
4575.5 3
4576.5 3.14286
4577.5 1.28571
4578.5 -0.785714
4579.5 -0.857143
4580.5 0.428572
4581.5 1.42857
4582.5 2.14286
4583.5 -2.42857
4584.5 -1.71429
4585.5 -3.35714
4586.5 -2.57143
4587.5 -3.64286
4588.5 -0.857143
4589.5 -1.78571
4590.5 1.14286
4591.5 -0.785714
4592.5 -2.71429
4593.5 1.14286
4594.5 1.35714
4595.5 -3.64286
4596.5 -4.5
4597.5 0.285714
4598.5 1.14286
4599.5 3.28571
4600.5 3.14286
4601.5 -1.78571
4602.5 -1.78571
4603.5 0.0714286
4604.5 -0.714286
4605.5 0.357143
4606.5 4.07143
4607.5 1
4608.5 1.14286
4609.5 4.07143
4610.5 0.142857
4611.5 0.285714
4612.5 -1.78571
4613.5 -0.642857
4614.5 -0.785714
4615.5 2.14286
4616.5 -1.57143
4617.5 1.14286
4618.5 2.14286
4619.5 -0.785714
4620.5 3.14286
4621.5 0.285714
4622.5 -2.71429
4623.5 3.28571
4624.5 4.14286
4625.5 5.28571
4626.5 -1.64286
4627.5 -2.71429
4628.5 5.28571
4629.5 0.214286
4630.5 1.21429
4631.5 3.07143
4632.5 -1.64286
4633.5 0.214286
4634.5 2.21429
4635.5 1.14286
4636.5 4.07143
4637.5 -4.64286
4638.5 -1.71429
4639.5 2.07143
4640.5 5.21429
4641.5 -5.42857
4642.5 2.42857
4643.5 -2.28571
4644.5 11.2857
4645.5 2.28571
4646.5 3.92857
4647.5 1.5
4648.5 -12.8571
4649.5 -4.42857
4650.5 17.8571
4651.5 -9.35714
4652.5 7.21429
4653.5 3.14286
4654.5 7.28571
4655.5 -0.428571
4656.5 -2.5
4657.5 1.21429
4658.5 -0.928571
4659.5 -0.642857
4660.5 2.14286
4661.5 0.142857
4662.5 3
4663.5 -0.928571
4664.5 -3.57143
4665.5 -1.85714
4666.5 0.0714286
4667.5 0
4668.5 0
4669.5 1.14286
4670.5 0.142857
4671.5 -0.928571
4672.5 0.285714
4673.5 1.07143
4674.5 1
4675.5 -0.857143
4676.5 -1.71429
4677.5 -0.928571
4678.5 3
4679.5 -1.78571
4680.5 0.214286
4681.5 2.07143
4682.5 -2.78571
4683.5 0.0714286
4684.5 -0.857143
4685.5 2.07143
4686.5 3.14286
4687.5 -2.57143
4688.5 1.07143
4689.5 0.214286
4690.5 3.07143
4691.5 5
4692.5 2.14286
4693.5 0.214286
4694.5 1.21429
4695.5 0.214286
4696.5 4.14286
4697.5 0.214286
4698.5 -1.71429
4699.5 -0.785714
4700.5 0
4701.5 4.07143
4702.5 2
4703.5 -0.857143
4704.5 0.0714286
4705.5 0.0714286
4706.5 3
4707.5 0.0714286
4708.5 -0.928571
4709.5 0.0714286
4710.5 3
4711.5 -0.857143
4712.5 2.14286
4713.5 2
4714.5 0.0714286
4715.5 -0.785714
4716.5 0.214286
4717.5 0.214286
4718.5 0.0714286
4719.5 3
4720.5 2.07143
4721.5 -1.85714
4722.5 1.14286
4723.5 0.0714286
4724.5 1.07143
4725.5 5
4726.5 4
4727.5 2
4728.5 -1.85714
4729.5 1.14286
4730.5 2
4731.5 -1.57143
4732.5 0.0714286
4733.5 2.07143
4734.5 -0.857143
4735.5 6
4736.5 -1.71429
4737.5 2
4738.5 3
4739.5 -1.78571
4740.5 0.0714286
4741.5 0
4742.5 0.0714286
4743.5 2.21429
4744.5 5.07143
4745.5 0.142857
4746.5 2.07143
4747.5 0.214286
4748.5 0.285714
4749.5 2.07143
4750.5 3.21429
4751.5 5.14286
4752.5 -0.857143
4753.5 4.07143
4754.5 5.21429
4755.5 3
4756.5 1
4757.5 4
4758.5 3
4759.5 -0.857143
4760.5 2.07143
4761.5 0
4762.5 1.14286
4763.5 1.07143
4764.5 3
4765.5 1.07143
4766.5 1
4767.5 0.0714286
4768.5 0.0714286
4769.5 0.214286
4770.5 1.07143
4771.5 -0.857143
4772.5 0.142857
4773.5 2.07143
4774.5 0.214286
4775.5 4
4776.5 0.142857
4777.5 -1.78571
4778.5 -0.785714
4779.5 3.07143
4780.5 2.07143
4781.5 1
4782.5 0.214286
4783.5 3.14286
4784.5 2.21429
4785.5 3.07143
4786.5 0.0714286
4787.5 2
4788.5 0.142857
4789.5 2.07143
4790.5 0.142857
4791.5 -1.71429
4792.5 2.28571
4793.5 2
4794.5 0.0714286
4795.5 -0.857143
4796.5 0.142857
4797.5 0.0714286
4798.5 0.142857
4799.5 1.14286
4800.5 -4.57143
4801.5 -1.78571
4802.5 1.35714
4803.5 4
4804.5 2.14286
4805.5 -0.785714
4806.5 5
4807.5 -2.71429
4808.5 -0.714286
4809.5 1.14286
4810.5 -0.857143
4811.5 1.28571
4812.5 -2.71429
4813.5 -1.78571
4814.5 -0.714286
4815.5 -0.642857
4816.5 6
4817.5 1.07143
4818.5 0.142857
4819.5 1.14286
4820.5 2.14286
4821.5 4
4822.5 -1.78571
4823.5 4
4824.5 -0.928571
4825.5 1.07143
4826.5 1.28571
4827.5 -0.714286
4828.5 -0.714286
4829.5 3.07143
4830.5 1.14286
4831.5 2
4832.5 -0.928571
4833.5 3
4834.5 0.0714286
4835.5 -2.71429
4836.5 3.14286
4837.5 2.14286
4838.5 2.14286
4839.5 0.142857
4840.5 -3.71429
4841.5 5.14286
4842.5 -4.57143
4843.5 4.14286
4844.5 3.07143
4845.5 3.14286
4846.5 6
4847.5 2.14286
4848.5 3.14286
4849.5 0.214286
4850.5 0.214286
4851.5 -0.857143
4852.5 -0.857143
4853.5 -1.78571
4854.5 1
4855.5 -1.85714
4856.5 0.142857
4857.5 -1.85714
4858.5 -1.78571
4859.5 2.07143
4860.5 1.14286
4861.5 1.07143
4862.5 -1.85714
4863.5 0.142857
4864.5 3
4865.5 4.07143
4866.5 1.07143
4867.5 0.0714286
4868.5 -3.64286
4869.5 1.21429
4870.5 -0.714286
4871.5 1.21429
4872.5 0.142857
4873.5 1.14286
4874.5 0.142857
4875.5 1.14286
4876.5 1.14286
4877.5 1.07143
4878.5 5
4879.5 1.14286
4880.5 0.214286
4881.5 -2.71429
4882.5 3.07143
4883.5 -1.71429
4884.5 3.14286
4885.5 -0.857143
4886.5 4.07143
4887.5 3.14286
4888.5 0.142857
4889.5 1.14286
4890.5 3.07143
4891.5 2
4892.5 4.07143
4893.5 -0.857143
4894.5 0.0714286
4895.5 0.142857
4896.5 0.142857
4897.5 -1.71429
4898.5 1.28571
4899.5 -1.78571
4900.5 -3.71429
4901.5 1.14286
4902.5 0.142857
4903.5 5.14286
4904.5 0.142857
4905.5 -0.714286
4906.5 1.07143
4907.5 -1.78571
4908.5 5
4909.5 2
4910.5 -0.857143
4911.5 0.142857
4912.5 0.0714286
4913.5 3
4914.5 1.14286
4915.5 0.0714286
4916.5 -1.85714
4917.5 1.07143
4918.5 4
4919.5 -2.71429
4920.5 0.0714286
4921.5 0.214286
4922.5 -1.78571
4923.5 -0.785714
4924.5 2
4925.5 2
4926.5 0
4927.5 3
4928.5 0.142857
4929.5 -0.857143
4930.5 4
4931.5 1
4932.5 -1.78571
4933.5 -5.57143
4934.5 -0.857143
4935.5 1.14286
4936.5 0.285714
4937.5 -2.71429
4938.5 1.14286
4939.5 1.07143
4940.5 1
4941.5 -2.78571
4942.5 0
4943.5 5.07143
4944.5 4.21429
4945.5 0.214286
4946.5 8.07143
4947.5 4.07143
4948.5 -2.78571
4949.5 1
4950.5 -2.78571
4951.5 0.0714286
4952.5 0.0714286
4953.5 -0.928571
4954.5 5
4955.5 3
4956.5 1
4957.5 1.07143
4958.5 3.07143
4959.5 -1.71429
4960.5 -0.714286
4961.5 -2.78571
4962.5 1.07143
4963.5 -0.857143
4964.5 0.0714286
4965.5 -0.857143
4966.5 3.07143
4967.5 -0.857143
4968.5 3
4969.5 -0.928571
4970.5 1.07143
4971.5 -1.78571
4972.5 0.142857
4973.5 3.07143
4974.5 0.0714286
4975.5 0.142857
4976.5 1
4977.5 -0.857143
4978.5 3
4979.5 0.142857
4980.5 2.14286
4981.5 2.35714
4982.5 0.214286
4983.5 4.14286
4984.5 2.28571
4985.5 0.357143
4986.5 0.142857
4987.5 2.07143
4988.5 4.07143
4989.5 2
4990.5 6.07143
4991.5 2.07143
4992.5 -0.928571
4993.5 2
4994.5 5.14286
4995.5 3
4996.5 -0.785714
4997.5 4
4998.5 1
4999.5 2.14286
5000.5 -0.714286
5001.5 3.07143
5002.5 1.07143
5003.5 -1.78571
5004.5 -0.857143
5005.5 1.14286
5006.5 -2.57143
5007.5 2
5008.5 0.0714286
5009.5 -2.64286
5010.5 -0.785714
5011.5 0.0714286
5012.5 0.285714
5013.5 0.0714286
5014.5 0.142857
5015.5 -1.85714
5016.5 -1.71429
5017.5 1.07143
5018.5 2
5019.5 1.07143
5020.5 3
5021.5 1.07143
5022.5 0.0714286
5023.5 1
5024.5 2.14286
5025.5 1.07143
5026.5 2.07143
5027.5 -0.785714
5028.5 2.07143
5029.5 -0.928571
5030.5 0.142857
5031.5 6.07143
5032.5 4.07143
5033.5 1.21429
5034.5 1
5035.5 3
5036.5 3.07143
5037.5 -2.5
5038.5 0.142857
5039.5 1.07143
5040.5 1.07143
5041.5 0.0714286
5042.5 1.07143
5043.5 -0.928571
5044.5 -0.785714
5045.5 0.214286
5046.5 2
5047.5 2
5048.5 0.0714286
5049.5 -0.857143
5050.5 3.07143
5051.5 1.07143
5052.5 -0.785714
5053.5 2.07143
5054.5 0
5055.5 2
5056.5 0.0714286
5057.5 -0.928571
5058.5 -0.785714
5059.5 -0.857143
5060.5 -0.714286
5061.5 1.07143
5062.5 -1.85714
5063.5 4
5064.5 1.07143
5065.5 -0.857143
5066.5 2.14286
5067.5 1.07143
5068.5 3.07143
5069.5 -0.785714
5070.5 3.07143
5071.5 0
5072.5 0.357143
5073.5 0.142857
5074.5 0.142857
5075.5 3
5076.5 -2.78571
5077.5 1.07143
5078.5 -0.642857
5079.5 1
5080.5 1
5081.5 2
5082.5 1.07143
5083.5 5.07143
5084.5 1.07143
5085.5 -1.78571
5086.5 0.142857
5087.5 3.07143
5088.5 -0.857143
5089.5 -0.714286
5090.5 0.142857
5091.5 1
5092.5 4
5093.5 0.142857
5094.5 0.0714286
5095.5 0.0714286
5096.5 -2.71429
5097.5 -0.928571
5098.5 -0.857143
5099.5 0.142857
5100.5 -0.857143
5101.5 -1.64286
5102.5 4
5103.5 0.0714286
5104.5 1.14286
5105.5 1.21429
5106.5 3.07143
5107.5 2
5108.5 -0.928571
5109.5 2.07143
5110.5 4
5111.5 -1.78571
5112.5 1.14286
5113.5 0.142857
5114.5 -0.785714
5115.5 2.07143
5116.5 0.285714
5117.5 4.07143
5118.5 1.07143
5119.5 0.142857
5120.5 2
5121.5 0
5122.5 2
5123.5 3.07143
5124.5 -0.857143
5125.5 1.07143
5126.5 -0.857143
5127.5 2.14286
5128.5 2
5129.5 0.142857
5130.5 -0.928571
5131.5 1.14286
5132.5 3.07143
5133.5 1.21429
5134.5 1.14286
5135.5 5.07143
5136.5 -3.71429
5137.5 0.214286
5138.5 0.142857
5139.5 1.07143
5140.5 0.142857
5141.5 0.0714286
5142.5 1.07143
5143.5 -1.78571
5144.5 -0.928571
5145.5 0.0714286
5146.5 3
5147.5 -1.78571
5148.5 1.07143
5149.5 0.0714286
5150.5 0.142857
5151.5 3.07143
5152.5 0.214286
5153.5 0.142857
5154.5 2
5155.5 -0.785714
5156.5 1.07143
5157.5 0.214286
5158.5 0.214286
5159.5 -1.78571
5160.5 2.28571
5161.5 2.07143
5162.5 -2.64286
5163.5 0.0714286
5164.5 1.28571
5165.5 3.07143
5166.5 1.07143
5167.5 0.142857
5168.5 0.0714286
5169.5 2.14286
5170.5 1.07143
5171.5 0.0714286
5172.5 0.142857
5173.5 2.07143
5174.5 -0.857143
5175.5 -3.71429
5176.5 1.07143
5177.5 2.07143
5178.5 0.142857
5179.5 0.214286
5180.5 2
5181.5 0.0714286
5182.5 4.07143
5183.5 0.0714286
5184.5 0.0714286
5185.5 2.07143
5186.5 -0.928571
5187.5 0.0714286
5188.5 2.07143
5189.5 1.14286
5190.5 2.07143
5191.5 -2.78571
5192.5 -0.857143
5193.5 6.07143
5194.5 -2.78571
5195.5 2.14286
5196.5 3
5197.5 -1.78571
5198.5 2
5199.5 2
5200.5 0.142857
5201.5 2.14286
5202.5 -1.85714
5203.5 -0.785714
5204.5 0.142857
5205.5 2.07143
5206.5 3.07143
5207.5 -0.857143
5208.5 4
5209.5 1
5210.5 1.07143
5211.5 0.0714286
5212.5 -0.857143
5213.5 0.0714286
5214.5 3.07143
5215.5 0.0714286
5216.5 -0.928571
5217.5 2.14286
5218.5 -0.785714
5219.5 1
5220.5 -0.857143
5221.5 2
5222.5 -2.64286
5223.5 -0.714286
5224.5 0.0714286
5225.5 0.142857
5226.5 0.142857
5227.5 -1.71429
5228.5 -0.857143
5229.5 -1.71429
5230.5 5
5231.5 -0.928571
5232.5 -0.928571
5233.5 -3.64286
5234.5 2
5235.5 5.07143
5236.5 2
5237.5 0.142857
5238.5 1
5239.5 -0.785714
5240.5 2
5241.5 2.07143
5242.5 2.07143
5243.5 3
5244.5 -0.785714
5245.5 1.07143
5246.5 2.07143
5247.5 -1.78571
5248.5 2.14286
5249.5 0.0714286
5250.5 1.07143
5251.5 1.07143
5252.5 0
5253.5 0.142857
5254.5 1.21429
5255.5 3.07143
5256.5 1.07143
5257.5 1.14286
5258.5 2
5259.5 3
5260.5 2.07143
5261.5 -0.928571
5262.5 -0.571428
5263.5 1.07143
5264.5 0.285714
5265.5 4
5266.5 3
5267.5 3.07143
5268.5 2
5269.5 -0.857143
5270.5 2.07143
5271.5 1
5272.5 4.07143
5273.5 0.142857
5274.5 2.07143
5275.5 -1.85714
5276.5 -0.928571
5277.5 3.14286
5278.5 1.07143
5279.5 2.07143
5280.5 2
5281.5 0.142857
5282.5 -2.71429
5283.5 -0.785714
5284.5 -0.857143
5285.5 2
5286.5 5.21429
5287.5 0.214286
5288.5 1
5289.5 3
5290.5 2.07143
5291.5 7
5292.5 4.07143
5293.5 2
5294.5 7.14286
5295.5 10.0714
5296.5 15.0714
5297.5 6
5298.5 6.07143
5299.5 7
5300.5 1.14286
5301.5 2.07143
5302.5 2
5303.5 2.07143
5304.5 0.214286
5305.5 -0.857143
5306.5 -1.85714
5307.5 -1.78571
5308.5 1.14286
5309.5 -0.928571
5310.5 -2.71429
5311.5 0.0714286
5312.5 0.0714286
5313.5 3.14286
5314.5 -0.857143
5315.5 -0.785714
5316.5 1.14286
5317.5 -1.85714
5318.5 -3.57143
5319.5 4.07143
5320.5 -3.64286
5321.5 -0.785714
5322.5 -4.57143
5323.5 -1.71429
5324.5 -5.42857
5325.5 -3.57143
5326.5 -4.5
5327.5 -8.35714
5328.5 -0.928571
5329.5 2
5330.5 -3.71429
5331.5 -0.785714
5332.5 3
5333.5 -0.857143
5334.5 1
5335.5 -0.928571
5336.5 0.0714286
5337.5 1.07143
5338.5 2.14286
5339.5 0.142857
5340.5 3.07143
5341.5 2
5342.5 0.0714286
5343.5 1.07143
5344.5 1.07143
5345.5 2.07143
5346.5 -2.71429
5347.5 3.14286
5348.5 3.07143
5349.5 5.14286
5350.5 0.142857
5351.5 1.21429
5352.5 -1.64286
5353.5 -3.42857
5354.5 1.28571
5355.5 5.14286
5356.5 0.214286
5357.5 0.142857
5358.5 -0.714286
5359.5 1
5360.5 0.0714286
5361.5 1.14286
5362.5 -1.85714
5363.5 4
5364.5 0.0714286
5365.5 -1.85714
5366.5 -1.78571
5367.5 1
5368.5 2
5369.5 -0.928571
5370.5 3.07143
5371.5 0.0714286
5372.5 -0.928571
5373.5 1.07143
5374.5 1
5375.5 3
5376.5 -0.785714
5377.5 0.0714286
5378.5 4.07143
5379.5 0
5380.5 2.07143
5381.5 3
5382.5 -1.71429
5383.5 -0.928571
5384.5 1.07143
5385.5 1.14286
5386.5 3.07143
5387.5 3.07143
5388.5 0.214286
5389.5 2.14286
5390.5 1.14286
5391.5 1.14286
5392.5 1.14286
5393.5 0.0714286
5394.5 1.07143
5395.5 1.14286
5396.5 2.28571
5397.5 6.21429
5398.5 0.357143
5399.5 4.21429
5400.5 -0.714286
5401.5 3.07143
5402.5 -0.714286
5403.5 0
5404.5 2.07143
5405.5 1
5406.5 1.14286
5407.5 1
5408.5 3.07143
5409.5 0.0714286
5410.5 1.07143
5411.5 -0.928571
5412.5 1
5413.5 0.142857
5414.5 0.142857
5415.5 0.0714286
5416.5 2.14286
5417.5 0
5418.5 0
5419.5 0.142857
5420.5 0
5421.5 5.07143
5422.5 2
5423.5 0
5424.5 2.07143
5425.5 -0.928571
5426.5 0
5427.5 -0.857143
5428.5 1
5429.5 0.0714286
5430.5 -1.85714
5431.5 0
5432.5 2.07143
5433.5 2.07143
5434.5 -2.64286
5435.5 2
5436.5 0
5437.5 1
5438.5 2
5439.5 0.214286
5440.5 0
5441.5 4
5442.5 -0.928571
5443.5 0.142857
5444.5 -0.857143
5445.5 -0.785714
5446.5 3
5447.5 1
5448.5 2.07143
5449.5 1
5450.5 1
5451.5 -0.714286
5452.5 -1.85714
5453.5 -1.85714
5454.5 -0.857143
5455.5 1
5456.5 1.07143
5457.5 -0.928571
5458.5 -0.928571
5459.5 -0.928571
5460.5 -0.785714
5461.5 1.07143
5462.5 0
5463.5 2.07143
5464.5 1
5465.5 1
5466.5 0
5467.5 0.142857
5468.5 3.14286
5469.5 1.07143
5470.5 1.14286
5471.5 -0.785714
5472.5 0.0714286
5473.5 -0.857143
5474.5 0
5475.5 3
5476.5 1
5477.5 -2.78571
5478.5 1
5479.5 -2.71429
5480.5 1
5481.5 2.14286
5482.5 0
5483.5 1
5484.5 -0.857143
5485.5 1.07143
5486.5 1.14286
5487.5 -1.78571
5488.5 -1.71429
5489.5 -1.5
5490.5 0.0714286
5491.5 -3.64286
5492.5 3
5493.5 -0.785714
5494.5 0.142857
5495.5 -0.928571
5496.5 1.14286
5497.5 1.07143
5498.5 1.14286
5499.5 1.07143
5500.5 2.07143
5501.5 4.14286
5502.5 1
5503.5 1
5504.5 3
5505.5 2.14286
5506.5 2.07143
5507.5 0.0714286
5508.5 -2.71429
5509.5 0.0714286
5510.5 -1.78571
5511.5 1
5512.5 1.21429
5513.5 0.214286
5514.5 3
5515.5 3.21429
5516.5 -0.785714
5517.5 5.07143
5518.5 2
5519.5 1.07143
5520.5 1.14286
5521.5 1.14286
5522.5 0.142857
5523.5 2
5524.5 3.14286
5525.5 4
5526.5 3.14286
5527.5 -0.928571
5528.5 -1.85714
5529.5 2
5530.5 -0.928571
5531.5 -0.928571
5532.5 2.07143
5533.5 -1.78571
5534.5 2
5535.5 -3.64286
5536.5 2.07143
5537.5 3.14286
5538.5 1.07143
5539.5 2.07143
5540.5 4
5541.5 1
5542.5 3.07143
5543.5 -0.857143
5544.5 1
5545.5 -1.71429
5546.5 0.0714286
5547.5 0.0714286
5548.5 0.0714286
5549.5 3.07143
5550.5 1.07143
5551.5 1.07143
5552.5 -1.85714
5553.5 1.14286
5554.5 -0.857143
5555.5 2
5556.5 0.0714286
5557.5 1.07143
5558.5 1
5559.5 2
5560.5 0.0714286
5561.5 1
5562.5 3
5563.5 1
5564.5 1.14286
5565.5 1.07143
5566.5 2
5567.5 -2.71429
5568.5 1.14286
5569.5 0.142857
5570.5 3
5571.5 1
5572.5 -0.928571
5573.5 1
5574.5 2
5575.5 1.07143
5576.5 0.0714286
5577.5 2.07143
5578.5 1.14286
5579.5 0.0714286
5580.5 7
5581.5 -3.64286
5582.5 -2.71429
5583.5 1
5584.5 3
5585.5 -4.64286
5586.5 1.07143
5587.5 0.0714286
5588.5 1.07143
5589.5 4
5590.5 3.07143
5591.5 2
5592.5 2.07143
5593.5 1
5594.5 -1.71429
5595.5 0.214286
5596.5 0.0714286
5597.5 -2.71429
5598.5 1
5599.5 1.07143
5600.5 2
5601.5 0.142857
5602.5 0
5603.5 2.07143
5604.5 2
5605.5 1.07143
5606.5 0
5607.5 1
5608.5 0
5609.5 -0.928571
5610.5 0.0714286
5611.5 2.07143
5612.5 3.14286
5613.5 -2.64286
5614.5 4.07143
5615.5 1.07143
5616.5 -0.857143
5617.5 0.142857
5618.5 0.0714286
5619.5 2.07143
5620.5 -1.85714
5621.5 3
5622.5 4
5623.5 1.14286
5624.5 -1.78571
5625.5 2.07143
5626.5 -2.78571
5627.5 1.14286
5628.5 2.14286
5629.5 1.21429
5630.5 0.0714286
5631.5 0.0714286
5632.5 1.07143
5633.5 0.0714286
5634.5 -1.85714
5635.5 0
5636.5 1
5637.5 1.07143
5638.5 3
5639.5 -0.857143
5640.5 -2.71429
5641.5 4
5642.5 0.0714286
5643.5 -0.857143
5644.5 2.14286
5645.5 2
5646.5 -0.857143
5647.5 1
5648.5 0
5649.5 -1.85714
5650.5 -0.928571
5651.5 -1.85714
5652.5 -1.85714
5653.5 -1.85714
5654.5 -0.928571
5655.5 2.07143
5656.5 2.07143
5657.5 0.0714286
5658.5 1
5659.5 -0.857143
5660.5 -0.857143
5661.5 -0.928571
5662.5 0.0714286
5663.5 -0.785714
5664.5 2
5665.5 0.0714286
5666.5 0.0714286
5667.5 1.21429
5668.5 1.07143
5669.5 0.0714286
5670.5 0.0714286
5671.5 -2.78571
5672.5 -0.857143
5673.5 -0.928571
5674.5 0.0714286
5675.5 -2.71429
5676.5 1.07143
5677.5 -0.928571
5678.5 2.07143
5679.5 -0.928571
5680.5 -1.85714
5681.5 0.0714286
5682.5 0.0714286
5683.5 1
5684.5 3
5685.5 0
5686.5 1
5687.5 2
5688.5 1.07143
5689.5 -1.85714
5690.5 2
5691.5 5
5692.5 2
5693.5 0.142857
5694.5 0.142857
5695.5 -0.857143
5696.5 0.0714286
5697.5 -0.928571
5698.5 -3.71429
5699.5 0.142857
5700.5 1.07143
5701.5 0
5702.5 3
5703.5 2.14286
5704.5 1.07143
5705.5 0.142857
5706.5 2
5707.5 1
5708.5 1
5709.5 -0.785714
5710.5 0.0714286
5711.5 0.142857
5712.5 -0.857143
5713.5 2.07143
5714.5 2
5715.5 -0.785714
5716.5 1.28571
5717.5 -1.85714
5718.5 -1.71429
5719.5 3.07143
5720.5 2.07143
5721.5 2
5722.5 2
5723.5 3
5724.5 -0.785714
5725.5 -0.928571
5726.5 -0.928571
5727.5 2.07143
5728.5 -2.78571
5729.5 2
5730.5 -0.928571
5731.5 2
5732.5 1.07143
5733.5 -1.85714
5734.5 3
5735.5 2.07143
5736.5 0.0714286
5737.5 -0.785714
5738.5 -0.857143
5739.5 2.07143
5740.5 0.0714286
5741.5 1
5742.5 -1.85714
5743.5 1.21429
5744.5 1
5745.5 0
5746.5 0
5747.5 0
5748.5 2.07143
5749.5 0
5750.5 4
5751.5 3.07143
5752.5 1.07143
5753.5 -0.928571
5754.5 3
5755.5 0.285714
5756.5 3.14286
5757.5 4
5758.5 1
5759.5 5
5760.5 1.07143
5761.5 0.0714286
5762.5 0
5763.5 -2.78571
5764.5 -0.928571
5765.5 2
5766.5 2
5767.5 2
5768.5 1
5769.5 3
5770.5 1.07143
5771.5 0
5772.5 -0.785714
5773.5 1.07143
5774.5 2
5775.5 -0.928571
5776.5 -0.928571
5777.5 1
5778.5 4
5779.5 -0.857143
5780.5 -1.85714
5781.5 0
5782.5 4
5783.5 5.07143
5784.5 0.0714286
5785.5 -0.928571
5786.5 -0.928571
5787.5 1.07143
5788.5 3.07143
5789.5 2.14286
5790.5 1
5791.5 1.14286
5792.5 2.07143
5793.5 0
5794.5 -0.857143
5795.5 -0.928571
5796.5 0
5797.5 -0.928571
5798.5 2.07143
5799.5 -0.857143
5800.5 -0.857143
5801.5 1
5802.5 1.07143
5803.5 2
5804.5 1
5805.5 1
5806.5 2
5807.5 1.07143
5808.5 -0.928571
5809.5 1
5810.5 1
5811.5 0.142857
5812.5 -0.928571
5813.5 0.0714286
5814.5 0.0714286
5815.5 1
5816.5 -0.928571
5817.5 0
5818.5 -0.857143
5819.5 2
5820.5 1.07143
5821.5 2.07143
5822.5 -0.928571
5823.5 2
5824.5 1
5825.5 5
5826.5 2
5827.5 1.07143
5828.5 0.0714286
5829.5 1.07143
5830.5 1.07143
5831.5 1
5832.5 4
5833.5 0.142857
5834.5 0.0714286
5835.5 -0.928571
5836.5 4.07143
5837.5 0.142857
5838.5 -1.71429
5839.5 -1.71429
5840.5 -0.785714
5841.5 -3.71429
5842.5 4.07143
5843.5 4
5844.5 1.07143
5845.5 3.07143
5846.5 2.14286
5847.5 2
5848.5 2
5849.5 2
5850.5 1.14286
5851.5 0.142857
5852.5 1
5853.5 4
5854.5 -0.857143
5855.5 2
5856.5 -0.928571
5857.5 0.142857
5858.5 -0.928571
5859.5 -1.85714
5860.5 1.07143
5861.5 1
5862.5 -0.857143
5863.5 -0.928571
5864.5 2
5865.5 0.0714286
5866.5 0.0714286
5867.5 1
5868.5 2
5869.5 1
5870.5 0
5871.5 1.07143
5872.5 0.0714286
5873.5 2.07143
5874.5 -1.85714
5875.5 1.07143
5876.5 1
5877.5 -1.85714
5878.5 0.142857
5879.5 -2.78571
5880.5 1
5881.5 0
5882.5 0.142857
5883.5 0.0714286
5884.5 -0.928571
5885.5 4
5886.5 1
5887.5 0.0714286
5888.5 2.14286
5889.5 2
5890.5 -0.785714
5891.5 0.0714286
5892.5 6.07143
5893.5 -1.78571
5894.5 1.07143
5895.5 0.0714286
5896.5 0.285714
5897.5 2.28571
5898.5 2.14286
5899.5 4.64286
5900.5 0.571429
5901.5 2.5
5902.5 1.42857
5903.5 0.142857
5904.5 -1.78571
5905.5 -0.857143
5906.5 5
5907.5 2
5908.5 0.0714286
5909.5 0.0714286
5910.5 1
5911.5 0.214286
5912.5 -0.857143
5913.5 0.0714286
5914.5 3
5915.5 1
5916.5 2.14286
5917.5 -0.928571
5918.5 2
5919.5 2
5920.5 -0.857143
5921.5 -0.857143
5922.5 0.0714286
5923.5 0.142857
5924.5 1
5925.5 1.07143
5926.5 -1.85714
5927.5 -0.928571
5928.5 0.142857
5929.5 2.14286
5930.5 0.0714286
5931.5 2
5932.5 1
5933.5 2
5934.5 0
5935.5 0.0714286
5936.5 0.0714286
5937.5 0
5938.5 0
5939.5 0.142857
5940.5 0
5941.5 2
5942.5 0.0714286
5943.5 1
5944.5 2
5945.5 0.0714286
5946.5 -1.78571
5947.5 1
5948.5 -0.928571
5949.5 1
5950.5 0.0714286
5951.5 2
5952.5 2
5953.5 1
5954.5 0
5955.5 3
5956.5 0
5957.5 0
5958.5 2
5959.5 0
5960.5 0
5961.5 0
5962.5 -0.857143
5963.5 -1.78571
5964.5 0.0714286
5965.5 0.0714286
5966.5 -0.928571
5967.5 -0.928571
5968.5 -0.857143
5969.5 1.07143
5970.5 5
5971.5 3
5972.5 0.0714286
5973.5 -0.857143
5974.5 -1.85714
5975.5 2
5976.5 1
5977.5 0
5978.5 -2.78571
5979.5 -0.857143
5980.5 -0.928571
5981.5 -0.928571
5982.5 -0.857143
5983.5 1
5984.5 0
5985.5 0.142857
5986.5 0.0714286
5987.5 0
5988.5 1
5989.5 0.0714286
5990.5 -1.85714
5991.5 0
5992.5 0.0714286
5993.5 -0.928571
5994.5 0
5995.5 0.142857
5996.5 1.07143
5997.5 3.07143
5998.5 2.21429
5999.5 6
6000.5 -3.57143
6001.5 -1.64286
6002.5 -0.785714
6003.5 0.142857
6004.5 2.07143
6005.5 1
6006.5 1
6007.5 1.07143
6008.5 -0.928571
6009.5 -1.85714
6010.5 1.07143
6011.5 1.07143
6012.5 2
6013.5 0
6014.5 0.0714286
6015.5 3
6016.5 3
6017.5 -0.785714
6018.5 1.07143
6019.5 -2.78571
6020.5 4
6021.5 0.0714286
6022.5 1
6023.5 0
6024.5 0.0714286
6025.5 -1.85714
6026.5 0
6027.5 0.0714286
6028.5 0.142857
6029.5 -1.85714
6030.5 -1.85714
6031.5 1.14286
6032.5 1.14286
6033.5 -0.785714
6034.5 2.14286
6035.5 0.142857
6036.5 0.214286
6037.5 1.07143
6038.5 -0.857143
6039.5 2.07143
6040.5 1
6041.5 2
6042.5 -0.928571
6043.5 -1.85714
6044.5 0.0714286
6045.5 0.0714286
6046.5 0
6047.5 -0.928571
6048.5 1.07143
6049.5 1
6050.5 0.0714286
6051.5 0
6052.5 -0.785714
6053.5 1
6054.5 1
6055.5 0
6056.5 1.14286
6057.5 0
6058.5 -1.85714
6059.5 0.142857
6060.5 -0.928571
6061.5 -0.857143
6062.5 0
6063.5 3
6064.5 1
6065.5 3
6066.5 0.0714286
6067.5 0
6068.5 -0.928571
6069.5 0
6070.5 0
6071.5 0
6072.5 0.0714286
6073.5 0
6074.5 2
6075.5 0.0714286
6076.5 2
6077.5 1
6078.5 0.0714286
6079.5 -1.85714
6080.5 3
6081.5 0.0714286
6082.5 0.0714286
6083.5 0
6084.5 2
6085.5 0
6086.5 1
6087.5 0.0714286
6088.5 2
6089.5 -0.928571
6090.5 0.0714286
6091.5 0
6092.5 0
6093.5 0
6094.5 2
6095.5 1.07143
6096.5 0.0714286
6097.5 1
6098.5 0.142857
6099.5 1
6100.5 2
6101.5 -1.78571
6102.5 2
6103.5 2
6104.5 -1.85714
6105.5 1.07143
6106.5 -1.78571
6107.5 0
6108.5 0
6109.5 -0.928571
6110.5 0.0714286
6111.5 0.0714286
6112.5 3.07143
6113.5 1
6114.5 -0.785714
6115.5 0
6116.5 3
6117.5 0
6118.5 0.0714286
6119.5 -1.85714
6120.5 1
6121.5 1.14286
6122.5 2.14286
6123.5 3.28571
6124.5 -0.642857
6125.5 4.21429
6126.5 3.14286
6127.5 -0.857143
6128.5 -0.857143
6129.5 -0.928571
6130.5 -0.928571
6131.5 1
6132.5 -0.857143
6133.5 0
6134.5 1.07143
6135.5 0
6136.5 0.0714286
6137.5 1
6138.5 0.0714286
6139.5 0.0714286
6140.5 1
6141.5 1.07143
6142.5 0
6143.5 -0.928571
6144.5 0.142857
6145.5 3
6146.5 2
6147.5 3.07143
6148.5 2.07143
6149.5 1
6150.5 0
6151.5 2
6152.5 -0.928571
6153.5 1
6154.5 2.07143
6155.5 -0.857143
6156.5 1
6157.5 -0.928571
6158.5 2
6159.5 3
6160.5 0.0714286
6161.5 1
6162.5 0
6163.5 1
6164.5 1
6165.5 1
6166.5 1
6167.5 0
6168.5 1.07143
6169.5 -1.85714
6170.5 0.0714286
6171.5 1
6172.5 0
6173.5 0
6174.5 0.0714286
6175.5 -2.78571
6176.5 -0.928571
6177.5 1
6178.5 1
6179.5 -0.928571
6180.5 1
6181.5 -0.928571
6182.5 1.07143
6183.5 -1.85714
6184.5 0
6185.5 -0.928571
6186.5 1
6187.5 2
6188.5 2
6189.5 0.0714286
6190.5 0
6191.5 1
6192.5 3
6193.5 1
6194.5 0
6195.5 0
6196.5 1
6197.5 0.0714286
6198.5 0
6199.5 3
6200.5 1.07143
6201.5 0
6202.5 1.14286
6203.5 0
6204.5 1
6205.5 2
6206.5 0.0714286
6207.5 0
6208.5 2
6209.5 0.0714286
6210.5 1
6211.5 -0.928571
6212.5 -1.85714
6213.5 0.0714286
6214.5 2
6215.5 2.07143
6216.5 1
6217.5 2
6218.5 -0.928571
6219.5 -2.78571
6220.5 -0.928571
6221.5 0
6222.5 -0.928571
6223.5 1.07143
6224.5 1.07143
6225.5 1
6226.5 2
6227.5 1.14286
6228.5 1.07143
6229.5 -0.857143
6230.5 1.14286
6231.5 1
6232.5 0
6233.5 0.0714286
6234.5 3
6235.5 2
6236.5 1
6237.5 0
6238.5 0
6239.5 -0.928571
6240.5 -0.928571
6241.5 1.07143
6242.5 2
6243.5 1
6244.5 -0.785714
6245.5 0.0714286
6246.5 1
6247.5 4
6248.5 0
6249.5 0.0714286
6250.5 1
6251.5 0.0714286
6252.5 0
6253.5 0.0714286
6254.5 1.07143
6255.5 -4.64286
6256.5 2
6257.5 -1.85714
6258.5 0.0714286
6259.5 -0.857143
6260.5 2
6261.5 -1.85714
6262.5 0.0714286
6263.5 1.07143
6264.5 -1.85714
6265.5 1
6266.5 0.0714286
6267.5 0
6268.5 -0.928571
6269.5 0
6270.5 0
6271.5 0
6272.5 1
6273.5 2.07143
6274.5 -0.857143
6275.5 1.07143
6276.5 0
6277.5 0.142857
6278.5 -0.857143
6279.5 -0.928571
6280.5 -0.928571
6281.5 1
6282.5 0
6283.5 0
6284.5 0
6285.5 -0.857143
6286.5 2
6287.5 -1.85714
6288.5 1.07143
6289.5 -0.928571
6290.5 1
6291.5 0
6292.5 0
6293.5 1
6294.5 0
6295.5 0
6296.5 1
6297.5 4
6298.5 3
6299.5 0.0714286
6300.5 2
6301.5 -0.928571
6302.5 0
6303.5 0
6304.5 -0.928571
6305.5 -0.928571
6306.5 -0.857143
6307.5 0
6308.5 -0.928571
6309.5 0
6310.5 1
6311.5 0
6312.5 1.07143
6313.5 0
6314.5 -1.85714
6315.5 1
6316.5 -0.928571
6317.5 1
6318.5 2
6319.5 0
6320.5 2
6321.5 0
6322.5 1
6323.5 -0.857143
6324.5 -0.928571
6325.5 0
6326.5 4.07143
6327.5 4
6328.5 -0.785714
6329.5 0
6330.5 0.0714286
6331.5 -2.78571
6332.5 0
6333.5 0
6334.5 2.07143
6335.5 0
6336.5 0.0714286
6337.5 0
6338.5 1
6339.5 0
6340.5 1
6341.5 1
6342.5 0
6343.5 1
6344.5 1.07143
6345.5 0.0714286
6346.5 2.07143
6347.5 -3.71429
6348.5 -1.85714
6349.5 0
6350.5 0
6351.5 0
6352.5 0
6353.5 0
6354.5 0.0714286
6355.5 2
6356.5 0
6357.5 0
6358.5 -0.857143
6359.5 0
6360.5 0
6361.5 1
6362.5 1.07143
6363.5 0
6364.5 -0.928571
6365.5 0
6366.5 1
6367.5 1
6368.5 2
6369.5 0
6370.5 -0.928571
6371.5 1
6372.5 1
6373.5 2
6374.5 2
6375.5 0
6376.5 4
6377.5 2.07143
6378.5 0
6379.5 3
6380.5 1.07143
6381.5 1
6382.5 0.142857
6383.5 -0.857143
6384.5 1.07143
6385.5 -1.85714
6386.5 2
6387.5 0
6388.5 0
6389.5 0.142857
6390.5 0
6391.5 0.0714286
6392.5 1
6393.5 -0.857143
6394.5 0
6395.5 -0.928571
6396.5 1.14286
6397.5 -0.928571
6398.5 1.07143
6399.5 1
6400.5 2
6401.5 1.07143
6402.5 0
6403.5 -0.928571
6404.5 1
6405.5 2
6406.5 0
6407.5 1
6408.5 1
6409.5 0
6410.5 0
6411.5 1
6412.5 2
6413.5 0.0714286
6414.5 0.0714286
6415.5 -1.85714
6416.5 0.0714286
6417.5 2.07143
6418.5 3
6419.5 3.07143
6420.5 0.0714286
6421.5 0.214286
6422.5 1.14286
6423.5 0
6424.5 1.14286
6425.5 2
6426.5 1
6427.5 0.0714286
6428.5 -0.928571
6429.5 1.07143
6430.5 3
6431.5 1
6432.5 1
6433.5 1
6434.5 0
6435.5 0
6436.5 0
6437.5 2
6438.5 1
6439.5 0
6440.5 -0.857143
6441.5 1.07143
6442.5 1
6443.5 0.0714286
6444.5 0.0714286
6445.5 0
6446.5 1.07143
6447.5 1
6448.5 -0.928571
6449.5 0.0714286
6450.5 -0.857143
6451.5 0
6452.5 1
6453.5 0
6454.5 1
6455.5 0
6456.5 1
6457.5 1
6458.5 0.0714286
6459.5 0.0714286
6460.5 1
6461.5 0
6462.5 1
6463.5 1
6464.5 -1.85714
6465.5 1
6466.5 1
6467.5 -0.928571
6468.5 0.142857
6469.5 2
6470.5 0.0714286
6471.5 0
6472.5 0.0714286
6473.5 -0.928571
6474.5 1.07143
6475.5 3
6476.5 0.0714286
6477.5 4
6478.5 0.285714
6479.5 5.07143
6480.5 1.07143
6481.5 -0.785714
6482.5 0.0714286
6483.5 2
6484.5 1.07143
6485.5 -0.928571
6486.5 -0.928571
6487.5 -0.928571
6488.5 -0.928571
6489.5 2
6490.5 0
6491.5 1
6492.5 1
6493.5 2.07143
6494.5 1
6495.5 0
6496.5 1
6497.5 0.0714286
6498.5 3
6499.5 0
6500.5 1
6501.5 0
6502.5 1
6503.5 0
6504.5 0
6505.5 0.0714286
6506.5 0
6507.5 1
6508.5 0
6509.5 0
6510.5 -0.928571
6511.5 0
6512.5 1
6513.5 0
6514.5 1
6515.5 -1.85714
6516.5 1
6517.5 0.0714286
6518.5 -0.928571
6519.5 0
6520.5 1
6521.5 0.0714286
6522.5 1
6523.5 0
6524.5 1
6525.5 -0.928571
6526.5 0
6527.5 1.07143
6528.5 0.0714286
6529.5 0.0714286
6530.5 1
6531.5 1
6532.5 0.0714286
6533.5 -0.928571
6534.5 1
6535.5 1
6536.5 0
6537.5 4
6538.5 -0.928571
6539.5 1
6540.5 0.0714286
6541.5 0.0714286
6542.5 0.142857
6543.5 3
6544.5 1.14286
6545.5 -0.785714
6546.5 -0.785714
6547.5 -0.785714
6548.5 1.07143
6549.5 0
6550.5 1
6551.5 -0.928571
6552.5 0
6553.5 1.07143
6554.5 -0.928571
6555.5 3
6556.5 0
6557.5 1
6558.5 -0.857143
6559.5 -0.857143
6560.5 1
6561.5 1
6562.5 0
6563.5 -0.857143
6564.5 0
6565.5 0.0714286
6566.5 3
6567.5 1
6568.5 1
6569.5 0
6570.5 0
6571.5 0
6572.5 2
6573.5 -0.928571
6574.5 -0.857143
6575.5 -0.928571
6576.5 0
6577.5 1
6578.5 1
6579.5 0
6580.5 0
6581.5 1
6582.5 2
6583.5 1
6584.5 1.07143
6585.5 0
6586.5 0.0714286
6587.5 0
6588.5 1
6589.5 -0.857143
6590.5 0
6591.5 0
6592.5 0
6593.5 1
6594.5 2.07143
6595.5 1
6596.5 2
6597.5 0
6598.5 2
6599.5 -0.928571
6600.5 3
6601.5 2
6602.5 -0.857143
6603.5 0
6604.5 0.0714286
6605.5 1
6606.5 1
6607.5 0.0714286
6608.5 0
6609.5 0
6610.5 0
6611.5 -0.928571
6612.5 0
6613.5 0
6614.5 3
6615.5 0
6616.5 0
6617.5 -0.928571
6618.5 -0.928571
6619.5 0
6620.5 0
6621.5 0
6622.5 1
6623.5 -0.857143
6624.5 0
6625.5 0
6626.5 0
6627.5 -0.857143
6628.5 1
6629.5 1.07143
6630.5 0.0714286
6631.5 0.0714286
6632.5 -0.928571
6633.5 0
6634.5 -0.928571
6635.5 0
6636.5 1
6637.5 1
6638.5 1
6639.5 -0.928571
6640.5 0
6641.5 0
6642.5 0
6643.5 0.0714286
6644.5 0
6645.5 1
6646.5 0
6647.5 -1.85714
6648.5 2
6649.5 0.0714286
6650.5 2.07143
6651.5 -0.928571
6652.5 0
6653.5 -2.78571
6654.5 2
6655.5 0
6656.5 -0.928571
6657.5 0
6658.5 0
6659.5 0
6660.5 1
6661.5 0
6662.5 0
6663.5 -0.928571
6664.5 -0.928571
6665.5 -0.928571
6666.5 0
6667.5 1
6668.5 0
6669.5 -0.928571
6670.5 0.0714286
6671.5 1
6672.5 1.07143
6673.5 3
6674.5 -0.928571
6675.5 2
6676.5 0.0714286
6677.5 0
6678.5 -0.928571
6679.5 3
6680.5 0
6681.5 0.0714286
6682.5 0
6683.5 1
6684.5 -0.928571
6685.5 0
6686.5 0
6687.5 2
6688.5 2.07143
6689.5 0
6690.5 0
6691.5 0
6692.5 2
6693.5 0
6694.5 0
6695.5 -0.928571
6696.5 2
6697.5 1.07143
6698.5 0
6699.5 1.07143
6700.5 0
6701.5 1
6702.5 1
6703.5 3
6704.5 2
6705.5 0
6706.5 0
6707.5 -0.928571
6708.5 0
6709.5 0
6710.5 2
6711.5 1
6712.5 1
6713.5 0
6714.5 -0.857143
6715.5 -0.857143
6716.5 0.0714286
6717.5 0
6718.5 -0.928571
6719.5 1
6720.5 -0.928571
6721.5 0.0714286
6722.5 0
6723.5 0
6724.5 -1.85714
6725.5 0.142857
6726.5 2
6727.5 0
6728.5 1
6729.5 -0.857143
6730.5 -0.857143
6731.5 1.07143
6732.5 0
6733.5 0.0714286
6734.5 -1.85714
6735.5 1
6736.5 0.0714286
6737.5 3
6738.5 1
6739.5 2
6740.5 0
6741.5 2
6742.5 -0.928571
6743.5 0
6744.5 -0.928571
6745.5 0.142857
6746.5 0
6747.5 -0.928571
6748.5 0
6749.5 2
6750.5 0
6751.5 -0.928571
6752.5 -0.928571
6753.5 1
6754.5 0
6755.5 0
6756.5 0
6757.5 0
6758.5 2
6759.5 -0.928571
6760.5 0
6761.5 -0.928571
6762.5 0
6763.5 0
6764.5 0.0714286
6765.5 0.0714286
6766.5 -0.928571
6767.5 -0.857143
6768.5 -0.928571
6769.5 -0.928571
6770.5 3
6771.5 3
6772.5 0
6773.5 0.0714286
6774.5 0
6775.5 0
6776.5 1
6777.5 -1.85714
6778.5 0
6779.5 0
6780.5 0
6781.5 1
6782.5 -1.85714
6783.5 0
6784.5 0
6785.5 -0.928571
6786.5 4
6787.5 0
6788.5 0
6789.5 0
6790.5 -0.928571
6791.5 1
6792.5 1
6793.5 2
6794.5 2
6795.5 1
6796.5 0
6797.5 0
6798.5 -0.928571
6799.5 0
6800.5 0
6801.5 1.07143
6802.5 -0.928571
6803.5 0
6804.5 -0.928571
6805.5 -0.928571
6806.5 0.0714286
6807.5 1
6808.5 -0.928571
6809.5 0
6810.5 1
6811.5 0
6812.5 0
6813.5 1
6814.5 -0.928571
6815.5 1
6816.5 0
6817.5 -0.928571
6818.5 1
6819.5 0
6820.5 1
6821.5 1
6822.5 0
6823.5 0
6824.5 1
6825.5 0
6826.5 0
6827.5 0
6828.5 0
6829.5 -0.928571
6830.5 0
6831.5 0
6832.5 0
6833.5 0
6834.5 0
6835.5 0
6836.5 0
6837.5 0
6838.5 -0.928571
6839.5 1
6840.5 0
6841.5 0
6842.5 -0.928571
6843.5 1
6844.5 0
6845.5 1
6846.5 0
6847.5 0
6848.5 0
6849.5 0
6850.5 0
6851.5 1
6852.5 0
6853.5 -0.928571
6854.5 -0.928571
6855.5 0
6856.5 0
6857.5 1
6858.5 0
6859.5 0
6860.5 -0.928571
6861.5 1
6862.5 0
6863.5 -0.928571
6864.5 0
6865.5 1
6866.5 0
6867.5 0
6868.5 0
6869.5 0
6870.5 0
6871.5 0
6872.5 1
6873.5 -0.928571
6874.5 1.07143
6875.5 -0.857143
6876.5 -1.85714
6877.5 0
6878.5 0.0714286
6879.5 1
6880.5 -0.928571
6881.5 1
6882.5 0
6883.5 -0.857143
6884.5 0
6885.5 -0.928571
6886.5 -0.928571
6887.5 1
6888.5 0.0714286
6889.5 0
6890.5 1
6891.5 1
6892.5 0.0714286
6893.5 -0.928571
6894.5 0
6895.5 1
6896.5 0.0714286
6897.5 0.0714286
6898.5 -0.928571
6899.5 -1.85714
6900.5 -1.85714
6901.5 0
6902.5 1.07143
6903.5 0
6904.5 0.0714286
6905.5 0
6906.5 0
6907.5 1
6908.5 -0.928571
6909.5 0.0714286
6910.5 2
6911.5 0.0714286
6912.5 1
6913.5 -0.928571
6914.5 1
6915.5 0
6916.5 1
6917.5 -0.928571
6918.5 -0.857143
6919.5 0.0714286
6920.5 0.0714286
6921.5 0
6922.5 0
6923.5 1
6924.5 0.0714286
6925.5 0
6926.5 0
6927.5 1
6928.5 1
6929.5 2
6930.5 -0.928571
6931.5 -1.85714
6932.5 -0.928571
6933.5 -3.71429
6934.5 1
6935.5 2
6936.5 -0.928571
6937.5 2
6938.5 2
6939.5 1
6940.5 1
6941.5 0
6942.5 4
6943.5 0
6944.5 1
6945.5 0.0714286
6946.5 0
6947.5 1.07143
6948.5 1
6949.5 -0.928571
6950.5 2
6951.5 1
6952.5 0.0714286
6953.5 0
6954.5 0
6955.5 -0.928571
6956.5 0.142857
6957.5 -0.928571
6958.5 1
6959.5 0
6960.5 1
6961.5 0
6962.5 -0.928571
6963.5 0
6964.5 1
6965.5 0
6966.5 0
6967.5 1
6968.5 1
6969.5 0
6970.5 -0.928571
6971.5 -0.928571
6972.5 1
6973.5 2
6974.5 -0.857143
6975.5 2
6976.5 0
6977.5 1
6978.5 2
6979.5 0
6980.5 0
6981.5 0
6982.5 0.0714286
6983.5 1.07143
6984.5 1
6985.5 0
6986.5 0
6987.5 0
6988.5 0
6989.5 0
6990.5 0
6991.5 -0.928571
6992.5 0.0714286
6993.5 -1.85714
6994.5 0.0714286
6995.5 0
6996.5 0
6997.5 1
6998.5 0
6999.5 0
7000.5 -0.928571
7001.5 0
7002.5 1
7003.5 0
7004.5 0
7005.5 2
7006.5 0
7007.5 0
7008.5 0
7009.5 0
7010.5 4
7011.5 -0.928571
7012.5 0
7013.5 -0.857143
7014.5 0
7015.5 -0.928571
7016.5 0.0714286
7017.5 0
7018.5 0.0714286
7019.5 -1.85714
7020.5 1
7021.5 1
7022.5 1
7023.5 -0.928571
7024.5 0
7025.5 1
7026.5 1
7027.5 1
7028.5 -0.928571
7029.5 0
7030.5 0
7031.5 0.0714286
7032.5 2
7033.5 0
7034.5 1
7035.5 1
7036.5 0
7037.5 -0.928571
7038.5 0.0714286
7039.5 0
7040.5 0
7041.5 1
7042.5 0
7043.5 0.0714286
7044.5 0.0714286
7045.5 1
7046.5 0
7047.5 0.0714286
7048.5 -0.928571
7049.5 0
7050.5 0
7051.5 0
7052.5 0
7053.5 -0.928571
7054.5 0
7055.5 1
7056.5 0
7057.5 0
7058.5 1
7059.5 1
7060.5 1
7061.5 1
7062.5 0
7063.5 0
7064.5 1.07143
7065.5 -1.78571
7066.5 -0.928571
7067.5 -0.928571
7068.5 0
7069.5 0
7070.5 0
7071.5 1
7072.5 0.0714286
7073.5 0
7074.5 -0.928571
7075.5 0
7076.5 0
7077.5 0
7078.5 1
7079.5 2
7080.5 1
7081.5 0
7082.5 1
7083.5 0
7084.5 0
7085.5 -0.928571
7086.5 0
7087.5 0.0714286
7088.5 -0.928571
7089.5 0
7090.5 0
7091.5 0
7092.5 0
7093.5 1
7094.5 1
7095.5 1
7096.5 0
7097.5 0
7098.5 2
7099.5 1
7100.5 -0.857143
7101.5 0
7102.5 0.0714286
7103.5 2
7104.5 0
7105.5 1
7106.5 0
7107.5 0
7108.5 -0.928571
7109.5 0
7110.5 -0.928571
7111.5 0
7112.5 0
7113.5 0
7114.5 1
7115.5 1
7116.5 0
7117.5 -0.928571
7118.5 0
7119.5 0
7120.5 0
7121.5 1.07143
7122.5 -2.78571
7123.5 -1.85714
7124.5 1
7125.5 0
7126.5 0
7127.5 0.0714286
7128.5 -0.928571
7129.5 0
7130.5 0
7131.5 1
7132.5 1
7133.5 1
7134.5 0.0714286
7135.5 1
7136.5 1.07143
7137.5 0
7138.5 0
7139.5 0
7140.5 -0.928571
7141.5 0
7142.5 1
7143.5 0
7144.5 0
7145.5 -1.85714
7146.5 0
7147.5 0
7148.5 0
7149.5 1
7150.5 -0.928571
7151.5 0
7152.5 0
7153.5 1
7154.5 1
7155.5 1
7156.5 1
7157.5 0
7158.5 0
7159.5 0
7160.5 0
7161.5 0
7162.5 0
7163.5 0.0714286
7164.5 -0.928571
7165.5 0
7166.5 0
7167.5 0
7168.5 0
7169.5 0
7170.5 0
7171.5 1
7172.5 0
7173.5 1
7174.5 -0.928571
7175.5 0.0714286
7176.5 1
7177.5 1
7178.5 0
7179.5 0
7180.5 1
7181.5 0
7182.5 0
7183.5 1
7184.5 1
7185.5 1
7186.5 -0.928571
7187.5 0
7188.5 0
7189.5 1
7190.5 -0.857143
7191.5 -0.928571
7192.5 0
7193.5 0
7194.5 0
7195.5 0
7196.5 1
7197.5 0
7198.5 -0.928571
7199.5 1
7200.5 0
7201.5 -1.85714
7202.5 0
7203.5 0.0714286
7204.5 0.142857
7205.5 3
7206.5 0.214286
7207.5 0.0714286
7208.5 2
7209.5 0
7210.5 1
7211.5 0
7212.5 2
7213.5 0
7214.5 -0.928571
7215.5 -0.928571
7216.5 0
7217.5 0.142857
7218.5 1
7219.5 0
7220.5 0
7221.5 0
7222.5 1
7223.5 1
7224.5 1
7225.5 -0.928571
7226.5 0
7227.5 -0.928571
7228.5 0
7229.5 0
7230.5 0
7231.5 0
7232.5 0.0714286
7233.5 0
7234.5 0
7235.5 0
7236.5 0
7237.5 0
7238.5 2.07143
7239.5 0
7240.5 2
7241.5 1.07143
7242.5 0
7243.5 0
7244.5 -0.857143
7245.5 0.142857
7246.5 0
7247.5 0
7248.5 1
7249.5 1
7250.5 0.0714286
7251.5 -0.928571
7252.5 1
7253.5 1
7254.5 -0.928571
7255.5 1
7256.5 0
7257.5 1
7258.5 2.07143
7259.5 -0.928571
7260.5 2
7261.5 0.0714286
7262.5 -0.928571
7263.5 1
7264.5 0.142857
7265.5 0.0714286
7266.5 -0.857143
7267.5 1.07143
7268.5 0
7269.5 0
7270.5 0
7271.5 1
7272.5 -2.78571
7273.5 -0.928571
7274.5 -0.928571
7275.5 0
7276.5 0
7277.5 -0.928571
7278.5 0
7279.5 1
7280.5 0.0714286
7281.5 1
7282.5 0
7283.5 0
7284.5 -0.928571
7285.5 -0.928571
7286.5 1
7287.5 1
7288.5 -0.928571
7289.5 -0.928571
7290.5 1
7291.5 0
7292.5 0
7293.5 0
7294.5 1
7295.5 0
7296.5 -0.928571
7297.5 0
7298.5 0.0714286
7299.5 0
7300.5 0
7301.5 0
7302.5 -0.928571
7303.5 2
7304.5 -0.928571
7305.5 0
7306.5 1
7307.5 1
7308.5 0
7309.5 0
7310.5 1
7311.5 0.0714286
7312.5 0.0714286
7313.5 1
7314.5 2
7315.5 -0.928571
7316.5 1
7317.5 -0.928571
7318.5 -0.928571
7319.5 -1.85714
7320.5 -0.857143
7321.5 1
7322.5 0.0714286
7323.5 0
7324.5 1
7325.5 -0.928571
7326.5 1
7327.5 -0.928571
7328.5 0
7329.5 1
7330.5 -0.928571
7331.5 0.0714286
7332.5 -0.928571
7333.5 0
7334.5 1
7335.5 -0.928571
7336.5 -0.928571
7337.5 0
7338.5 0
7339.5 0
7340.5 0
7341.5 1
7342.5 2
7343.5 0
7344.5 1
7345.5 1
7346.5 0
7347.5 0.0714286
7348.5 0
7349.5 0.0714286
7350.5 1
7351.5 1
7352.5 0
7353.5 -0.928571
7354.5 0
7355.5 2
7356.5 1
7357.5 -1.85714
7358.5 1
7359.5 2
7360.5 0
7361.5 0
7362.5 0
7363.5 -1.85714
7364.5 0
7365.5 0
7366.5 0
7367.5 0
7368.5 1
7369.5 0
7370.5 -1.85714
7371.5 1
7372.5 0
7373.5 0
7374.5 0
7375.5 -0.928571
7376.5 1
7377.5 0
7378.5 0
7379.5 0
7380.5 0
7381.5 0
7382.5 0
7383.5 0
7384.5 0
7385.5 0
7386.5 1
7387.5 0
7388.5 -0.928571
7389.5 0.0714286
7390.5 0
7391.5 0
7392.5 -0.928571
7393.5 2
7394.5 -0.928571
7395.5 -0.928571
7396.5 1
7397.5 1
7398.5 1
7399.5 0
7400.5 1
7401.5 0
7402.5 0
7403.5 -0.928571
7404.5 0.0714286
7405.5 0
7406.5 0
7407.5 0.0714286
7408.5 0.0714286
7409.5 0
7410.5 1
7411.5 1.07143
7412.5 1
7413.5 1
7414.5 0.0714286
7415.5 0.142857
7416.5 -0.928571
7417.5 0
7418.5 2.07143
7419.5 -0.928571
7420.5 0
7421.5 0
7422.5 0
7423.5 0
7424.5 0
7425.5 0
7426.5 0
7427.5 0
7428.5 0
7429.5 0
7430.5 0
7431.5 -0.928571
7432.5 1
7433.5 0
7434.5 0
7435.5 0
7436.5 0
7437.5 0
7438.5 0
7439.5 0
7440.5 0
7441.5 1
7442.5 1
7443.5 -0.928571
7444.5 0
7445.5 1
7446.5 0.0714286
7447.5 1
7448.5 0
7449.5 0
7450.5 -1.85714
7451.5 0
7452.5 0
7453.5 0
7454.5 0.0714286
7455.5 -0.928571
7456.5 -0.928571
7457.5 0
7458.5 0
7459.5 0
7460.5 0
7461.5 0
7462.5 1
7463.5 0
7464.5 0
7465.5 2
7466.5 -0.928571
7467.5 1
7468.5 1
7469.5 0
7470.5 1
7471.5 0
7472.5 1
7473.5 1
7474.5 -0.928571
7475.5 2
7476.5 1
7477.5 1
7478.5 0
7479.5 0
7480.5 -0.928571
7481.5 -0.928571
7482.5 0
7483.5 0.0714286
7484.5 0
7485.5 0
7486.5 1
7487.5 0
7488.5 -0.928571
7489.5 0
7490.5 0
7491.5 0
7492.5 0
7493.5 0
7494.5 0
7495.5 -0.928571
7496.5 -0.928571
7497.5 1
7498.5 -0.928571
7499.5 0
7500.5 0
7501.5 1
7502.5 0.0714286
7503.5 0
7504.5 0
7505.5 0
7506.5 0
7507.5 0
7508.5 0
7509.5 0
7510.5 0
7511.5 1
7512.5 0
7513.5 2
7514.5 0
7515.5 -0.928571
7516.5 0
7517.5 0
7518.5 1
7519.5 0
7520.5 0
7521.5 -0.928571
7522.5 0
7523.5 0
7524.5 1
7525.5 -0.928571
7526.5 0
7527.5 0
7528.5 1
7529.5 1
7530.5 2
7531.5 0
7532.5 0
7533.5 0
7534.5 0
7535.5 -0.928571
7536.5 -0.928571
7537.5 0
7538.5 1
7539.5 0
7540.5 1
7541.5 1
7542.5 0
7543.5 0
7544.5 0
7545.5 2
7546.5 1
7547.5 0.0714286
7548.5 2
7549.5 0
7550.5 0
7551.5 0
7552.5 0
7553.5 0
7554.5 1
7555.5 -1.85714
7556.5 -0.857143
7557.5 -0.928571
7558.5 -0.928571
7559.5 1
7560.5 0
7561.5 1
7562.5 0
7563.5 0
7564.5 1
7565.5 1
7566.5 0
7567.5 0
7568.5 0
7569.5 -0.928571
7570.5 -0.928571
7571.5 0
7572.5 0
7573.5 0
7574.5 0
7575.5 0
7576.5 0
7577.5 -1.85714
7578.5 0
7579.5 1
7580.5 0
7581.5 0
7582.5 0
7583.5 0.0714286
7584.5 0
7585.5 -0.928571
7586.5 0
7587.5 1
7588.5 0
7589.5 1
7590.5 1
7591.5 0
7592.5 0
7593.5 0
7594.5 0
7595.5 1
7596.5 0.0714286
7597.5 0
7598.5 0
7599.5 0
7600.5 0
7601.5 1
7602.5 2
7603.5 0
7604.5 1
7605.5 0
7606.5 0
7607.5 0
7608.5 1
7609.5 -0.857143
7610.5 0
7611.5 -1.85714
7612.5 2.07143
7613.5 0
7614.5 -0.928571
7615.5 0
7616.5 0
7617.5 1
7618.5 1
7619.5 0
7620.5 1
7621.5 1
7622.5 1
7623.5 0
7624.5 0
7625.5 0
7626.5 0
7627.5 0
7628.5 0
7629.5 0
7630.5 0
7631.5 -0.928571
7632.5 1
7633.5 1
7634.5 0.0714286
7635.5 1
7636.5 1
7637.5 0.0714286
7638.5 0
7639.5 0
7640.5 -0.928571
7641.5 0
7642.5 1
7643.5 -0.928571
7644.5 0
7645.5 0
7646.5 0
7647.5 0
7648.5 0
7649.5 0
7650.5 1
7651.5 0
7652.5 0
7653.5 -0.928571
7654.5 -1.85714
7655.5 1
7656.5 0.0714286
7657.5 0
7658.5 0
7659.5 0
7660.5 0
7661.5 -0.928571
7662.5 0
7663.5 0
7664.5 0
7665.5 0
7666.5 -0.928571
7667.5 1
7668.5 0
7669.5 -0.928571
7670.5 1
7671.5 0
7672.5 0
7673.5 0
7674.5 1
7675.5 1
7676.5 0
7677.5 0
7678.5 0.0714286
7679.5 1
7680.5 0
7681.5 0
7682.5 -0.928571
7683.5 -0.928571
7684.5 0
7685.5 -0.928571
7686.5 1
7687.5 1
7688.5 0
7689.5 0
7690.5 0
7691.5 1
7692.5 0
7693.5 0
7694.5 0
7695.5 0
7696.5 1
7697.5 0
7698.5 0
7699.5 0.0714286
7700.5 0.0714286
7701.5 0
7702.5 0
7703.5 0
7704.5 -0.928571
7705.5 0
7706.5 0
7707.5 1
7708.5 -0.857143
7709.5 2
7710.5 0
7711.5 0
7712.5 0
7713.5 0.0714286
7714.5 0
7715.5 0
7716.5 0
7717.5 0
7718.5 0
7719.5 0
7720.5 0
7721.5 1
7722.5 1
7723.5 -1.85714
7724.5 -0.928571
7725.5 -0.928571
7726.5 3
7727.5 0
7728.5 0
7729.5 -0.928571
7730.5 0
7731.5 0
7732.5 0
7733.5 0
7734.5 0
7735.5 0
7736.5 1
7737.5 0
7738.5 0.0714286
7739.5 0
7740.5 1
7741.5 1
7742.5 0
7743.5 0
7744.5 0
7745.5 0
7746.5 0
7747.5 0
7748.5 0
7749.5 0
7750.5 0
7751.5 0
7752.5 0
7753.5 0
7754.5 1
7755.5 0
7756.5 0
7757.5 0
7758.5 0
7759.5 0
7760.5 0
7761.5 0
7762.5 1
7763.5 0
7764.5 0
7765.5 0
7766.5 -0.928571
7767.5 1
7768.5 0
7769.5 1
7770.5 4
7771.5 0.0714286
7772.5 0.214286
7773.5 -2.71429
7774.5 0.214286
7775.5 0
7776.5 -0.928571
7777.5 0
7778.5 0
7779.5 0.0714286
7780.5 -1.85714
7781.5 0
7782.5 -0.928571
7783.5 0
7784.5 -0.928571
7785.5 0
7786.5 0
7787.5 0
7788.5 0.0714286
7789.5 0
7790.5 1
7791.5 0
7792.5 -0.928571
7793.5 -1.85714
7794.5 0.0714286
7795.5 0
7796.5 0
7797.5 0
7798.5 -0.928571
7799.5 -0.928571
7800.5 -0.928571
7801.5 -0.928571
7802.5 0
7803.5 0
7804.5 -0.928571
7805.5 0
7806.5 -0.928571
7807.5 -0.928571
7808.5 0
7809.5 0
7810.5 0
7811.5 -0.928571
7812.5 0
7813.5 -0.928571
7814.5 0
7815.5 0
7816.5 0
7817.5 0
7818.5 -0.928571
7819.5 0
7820.5 0
7821.5 0
7822.5 -0.928571
7823.5 0
7824.5 0
7825.5 1
7826.5 1
7827.5 0
7828.5 0
7829.5 0
7830.5 0.0714286
7831.5 0.0714286
7832.5 0
7833.5 0
7834.5 0
7835.5 0
7836.5 0
7837.5 0
7838.5 -0.928571
7839.5 0
7840.5 0
7841.5 1
7842.5 0
7843.5 0
7844.5 0
7845.5 1
7846.5 1
7847.5 0
7848.5 0
7849.5 1
7850.5 0
7851.5 0
7852.5 0
7853.5 0
7854.5 0
7855.5 0
7856.5 1
7857.5 0
7858.5 0
7859.5 0
7860.5 1
7861.5 0
7862.5 0
7863.5 -0.928571
7864.5 0
7865.5 0
7866.5 0
7867.5 1
7868.5 0
7869.5 0
7870.5 0
7871.5 0
7872.5 0
7873.5 1
7874.5 0
7875.5 0
7876.5 1
7877.5 0
7878.5 0
7879.5 0
7880.5 0
7881.5 0
7882.5 -0.928571
7883.5 0
7884.5 0
7885.5 0
7886.5 0
7887.5 0
7888.5 1
7889.5 0
7890.5 0
7891.5 0
7892.5 0
7893.5 0
7894.5 1
7895.5 0
7896.5 0
7897.5 -0.928571
7898.5 -0.928571
7899.5 0
7900.5 1
7901.5 1
7902.5 0
7903.5 0
7904.5 0
7905.5 -0.928571
7906.5 0
7907.5 0
7908.5 0
7909.5 0
7910.5 0
7911.5 0
7912.5 1
7913.5 -0.928571
7914.5 0
7915.5 -1.85714
7916.5 0
7917.5 0
7918.5 0
7919.5 0
7920.5 -0.928571
7921.5 0.0714286
7922.5 0
7923.5 0
7924.5 0
7925.5 0
7926.5 0
7927.5 0
7928.5 0
7929.5 1
7930.5 0
7931.5 0
7932.5 0
7933.5 -0.928571
7934.5 0
7935.5 -0.928571
7936.5 1
7937.5 0
7938.5 0.0714286
7939.5 -0.928571
7940.5 -0.928571
7941.5 1
7942.5 0
7943.5 0
7944.5 0
7945.5 -0.928571
7946.5 1
7947.5 0
7948.5 0
7949.5 0
7950.5 1
7951.5 1.07143
7952.5 0
7953.5 0
7954.5 0
7955.5 0
7956.5 0
7957.5 0
7958.5 0
7959.5 0
7960.5 0
7961.5 0
7962.5 1
7963.5 0
7964.5 0
7965.5 1
7966.5 -1.78571
7967.5 1
7968.5 0
7969.5 1
7970.5 0.0714286
7971.5 0
7972.5 1
7973.5 0
7974.5 0
7975.5 0
7976.5 0.0714286
7977.5 0
7978.5 0
7979.5 0
7980.5 0
7981.5 0
7982.5 0
7983.5 1
7984.5 -0.928571
7985.5 2
7986.5 -0.928571
7987.5 1
7988.5 0
7989.5 0
7990.5 1
7991.5 0
7992.5 0
7993.5 1
7994.5 0
7995.5 -0.928571
7996.5 -0.928571
7997.5 -0.928571
7998.5 0
7999.5 0
8000.5 -0.928571
8001.5 0
8002.5 -0.928571
8003.5 0
8004.5 0
8005.5 0
8006.5 0
8007.5 0
8008.5 -1.85714
8009.5 -0.928571
8010.5 1
8011.5 0
8012.5 0
8013.5 0
8014.5 0
8015.5 0
8016.5 -0.928571
8017.5 0
8018.5 0.0714286
8019.5 0
8020.5 0
8021.5 0
8022.5 0
8023.5 1
8024.5 0
8025.5 0
8026.5 0
8027.5 0
8028.5 -0.928571
8029.5 0
8030.5 0
8031.5 0
8032.5 0
8033.5 0
8034.5 0
8035.5 0
8036.5 0
8037.5 0
8038.5 0
8039.5 0
8040.5 0
8041.5 0
8042.5 0
8043.5 1
8044.5 0
8045.5 0
8046.5 0
8047.5 0
8048.5 0
8049.5 0
8050.5 0
8051.5 0
8052.5 0
8053.5 0
8054.5 0
8055.5 0
8056.5 0
8057.5 0
8058.5 1
8059.5 -0.928571
8060.5 0
8061.5 0
8062.5 0
8063.5 0
8064.5 1
8065.5 0
8066.5 0
8067.5 0
8068.5 0
8069.5 0
8070.5 0
8071.5 0
8072.5 0
8073.5 -0.928571
8074.5 0
8075.5 -0.928571
8076.5 1
8077.5 -0.928571
8078.5 0
8079.5 0
8080.5 0
8081.5 1
8082.5 0
8083.5 0
8084.5 0
8085.5 -0.928571
8086.5 -0.857143
8087.5 0
8088.5 0
8089.5 0
8090.5 0
8091.5 -0.928571
8092.5 0
8093.5 0
8094.5 0
8095.5 0
8096.5 0
8097.5 0
8098.5 0
8099.5 0
8100.5 0
8101.5 0
8102.5 0
8103.5 0
8104.5 0
8105.5 0
8106.5 0
8107.5 0
8108.5 0
8109.5 0
8110.5 -0.928571
8111.5 -0.928571
8112.5 0
8113.5 -0.928571
8114.5 0
8115.5 0
8116.5 0
8117.5 0
8118.5 0
8119.5 0
8120.5 0
8121.5 0
8122.5 1
8123.5 0
8124.5 0
8125.5 1
8126.5 0
8127.5 -0.928571
8128.5 0
8129.5 0
8130.5 0
8131.5 0
8132.5 0
8133.5 0
8134.5 0
8135.5 0
8136.5 0
8137.5 0
8138.5 0
8139.5 0
8140.5 1
8141.5 0
8142.5 0
8143.5 0
8144.5 -0.928571
8145.5 0
8146.5 -0.928571
8147.5 1
8148.5 0
8149.5 0
8150.5 0
8151.5 0.0714286
8152.5 0
8153.5 0
8154.5 0.0714286
8155.5 0
8156.5 -0.928571
8157.5 -0.928571
8158.5 0
8159.5 0
8160.5 0
8161.5 0
8162.5 1
8163.5 0.0714286
8164.5 -1.85714
8165.5 0
8166.5 1
8167.5 0
8168.5 0
8169.5 0
8170.5 -0.928571
8171.5 1
8172.5 0
8173.5 0
8174.5 0
8175.5 0
8176.5 0
8177.5 0
8178.5 1
8179.5 0
8180.5 -0.928571
8181.5 0
8182.5 0
8183.5 0
8184.5 0
8185.5 0.0714286
8186.5 0
8187.5 0
8188.5 0
8189.5 0
8190.5 1
8191.5 1
8192.5 0
8193.5 0
8194.5 0
8195.5 0
8196.5 0
8197.5 0
8198.5 1
8199.5 0
8200.5 0
8201.5 -0.928571
8202.5 0
8203.5 0
8204.5 0
8205.5 0
8206.5 0.0714286
8207.5 0
8208.5 0
8209.5 0
8210.5 0
8211.5 0
8212.5 0
8213.5 1
8214.5 0
8215.5 0
8216.5 0
8217.5 0
8218.5 1
8219.5 0
8220.5 0
8221.5 0
8222.5 0
8223.5 0
8224.5 1
8225.5 0
8226.5 0
8227.5 0
8228.5 0
8229.5 0
8230.5 1
8231.5 -0.928571
8232.5 0
8233.5 0
8234.5 0
8235.5 1
8236.5 0
8237.5 0
8238.5 -0.928571
8239.5 0
8240.5 0
8241.5 0
8242.5 0.0714286
8243.5 0
8244.5 0
8245.5 0
8246.5 0
8247.5 0
8248.5 0
8249.5 0
8250.5 0
8251.5 0
8252.5 0
8253.5 0
8254.5 0
8255.5 0
8256.5 0
8257.5 1
8258.5 0
8259.5 0
8260.5 0
8261.5 0
8262.5 -0.928571
8263.5 0
8264.5 0
8265.5 0
8266.5 0
8267.5 0
8268.5 -0.928571
8269.5 0
8270.5 -0.928571
8271.5 -0.928571
8272.5 0
8273.5 0
8274.5 0
8275.5 0
8276.5 0
8277.5 0
8278.5 0
8279.5 0
8280.5 0
8281.5 0
8282.5 0
8283.5 1
8284.5 -0.928571
8285.5 0
8286.5 -0.928571
8287.5 0
8288.5 0
8289.5 1
8290.5 0
8291.5 0
8292.5 0
8293.5 -0.928571
8294.5 0
8295.5 0
8296.5 0
8297.5 0
8298.5 0
8299.5 1
8300.5 0
8301.5 0
8302.5 -0.928571
8303.5 0
8304.5 0
8305.5 0
8306.5 0
8307.5 0
8308.5 0
8309.5 0
8310.5 -0.928571
8311.5 0
8312.5 0
8313.5 0
8314.5 0
8315.5 0
8316.5 0
8317.5 0
8318.5 0
8319.5 0
8320.5 0
8321.5 -0.928571
8322.5 -0.928571
8323.5 0
8324.5 0
8325.5 -0.928571
8326.5 0
8327.5 0
8328.5 0
8329.5 0
8330.5 0
8331.5 0
8332.5 0
8333.5 -1.85714
8334.5 -0.928571
8335.5 0
8336.5 0
8337.5 0
8338.5 -0.928571
8339.5 0
8340.5 -0.928571
8341.5 0
8342.5 0
8343.5 1
8344.5 2
8345.5 -0.928571
8346.5 -0.928571
8347.5 0
8348.5 0
8349.5 0.0714286
8350.5 0
8351.5 0
8352.5 -0.928571
8353.5 0
8354.5 0
8355.5 0
8356.5 -0.928571
8357.5 0
8358.5 0
8359.5 0
8360.5 0
8361.5 0
8362.5 1
8363.5 0
8364.5 2
8365.5 0
8366.5 0
8367.5 0
8368.5 -0.928571
8369.5 1
8370.5 0
8371.5 0
8372.5 0
8373.5 0
8374.5 0
8375.5 0
8376.5 0
8377.5 -0.928571
8378.5 -0.928571
8379.5 0
8380.5 -0.928571
8381.5 0
8382.5 -0.928571
8383.5 0
8384.5 0
8385.5 -0.928571
8386.5 0
8387.5 0
8388.5 0
8389.5 0
8390.5 0
8391.5 0
8392.5 0
8393.5 0
8394.5 0
8395.5 0
8396.5 0
8397.5 0.0714286
8398.5 0
8399.5 0
8400.5 0
8401.5 0
8402.5 -0.928571
8403.5 0
8404.5 0
8405.5 0.0714286
8406.5 0
8407.5 0
8408.5 0
8409.5 1
8410.5 0
8411.5 0
8412.5 1
8413.5 0
8414.5 -0.928571
8415.5 0
8416.5 0
8417.5 0
8418.5 0
8419.5 0
8420.5 0
8421.5 0
8422.5 0
8423.5 -0.928571
8424.5 0
8425.5 1
8426.5 0
8427.5 0
8428.5 0
8429.5 0
8430.5 0
8431.5 0
8432.5 0
8433.5 0
8434.5 0
8435.5 0
8436.5 0
8437.5 0.0714286
8438.5 0
8439.5 0
8440.5 0
8441.5 0
8442.5 -0.928571
8443.5 0
8444.5 0
8445.5 0
8446.5 0
8447.5 0
8448.5 0
8449.5 0
8450.5 0
8451.5 0
8452.5 0
8453.5 0
8454.5 0
8455.5 0
8456.5 0
8457.5 1
8458.5 0
8459.5 0
8460.5 0
8461.5 1
8462.5 0
8463.5 -0.928571
8464.5 0
8465.5 0
8466.5 0
8467.5 0
8468.5 0
8469.5 0
8470.5 0
8471.5 0
8472.5 0
8473.5 0
8474.5 1
8475.5 0
8476.5 0
8477.5 0
8478.5 0
8479.5 0
8480.5 0
8481.5 0
8482.5 0
8483.5 0
8484.5 1
8485.5 0
8486.5 1
8487.5 0
8488.5 0
8489.5 0
8490.5 0
8491.5 0
8492.5 0
8493.5 0
8494.5 0
8495.5 0
8496.5 0
8497.5 0
8498.5 0
8499.5 0
8500.5 0
8501.5 0
8502.5 0
8503.5 1
8504.5 0
8505.5 0
8506.5 0
8507.5 0
8508.5 0
8509.5 0
8510.5 0
8511.5 0
8512.5 0
8513.5 0
8514.5 0
8515.5 0
8516.5 0
8517.5 0
8518.5 0
8519.5 0
8520.5 0
8521.5 0
8522.5 0
8523.5 1
8524.5 0
8525.5 1
8526.5 0
8527.5 0
8528.5 0
8529.5 0
8530.5 0
8531.5 0.0714286
8532.5 0
8533.5 0
8534.5 0
8535.5 0
8536.5 0
8537.5 0
8538.5 1
8539.5 -1.85714
8540.5 0
8541.5 1
8542.5 0
8543.5 0
8544.5 1
8545.5 -0.928571
8546.5 0
8547.5 0
8548.5 0
8549.5 1
8550.5 0
8551.5 0
8552.5 0
8553.5 0
8554.5 0
8555.5 0
8556.5 0
8557.5 0
8558.5 0
8559.5 0
8560.5 0
8561.5 0
8562.5 1
8563.5 0
8564.5 0
8565.5 0
8566.5 0
8567.5 0
8568.5 0
8569.5 1
8570.5 0
8571.5 0
8572.5 0
8573.5 0
8574.5 -0.928571
8575.5 0
8576.5 -0.928571
8577.5 0
8578.5 1
8579.5 0
8580.5 0
8581.5 0
8582.5 0
8583.5 0
8584.5 -0.928571
8585.5 0
8586.5 0
8587.5 0
8588.5 1
8589.5 1
8590.5 -0.928571
8591.5 0
8592.5 0
8593.5 0
8594.5 0
8595.5 1
8596.5 0
8597.5 0
8598.5 0
8599.5 -0.928571
8600.5 0
8601.5 0
8602.5 0
8603.5 1
8604.5 0
8605.5 0
8606.5 -0.928571
8607.5 0
8608.5 1
8609.5 0
8610.5 0
8611.5 0
8612.5 -0.928571
8613.5 0
8614.5 0
8615.5 0
8616.5 1
8617.5 1
8618.5 0
8619.5 0
8620.5 -0.928571
8621.5 0
8622.5 0
8623.5 0
8624.5 0.0714286
8625.5 0
8626.5 -0.928571
8627.5 -0.928571
8628.5 -0.928571
8629.5 0
8630.5 0
8631.5 0
8632.5 0
8633.5 0
8634.5 0
8635.5 0
8636.5 1
8637.5 0
8638.5 0
8639.5 0
8640.5 0
8641.5 0
8642.5 0
8643.5 0
8644.5 1
8645.5 0
8646.5 0
8647.5 0
8648.5 0
8649.5 0
8650.5 0
8651.5 0
8652.5 0
8653.5 0
8654.5 0
8655.5 0
8656.5 0
8657.5 0
8658.5 0
8659.5 0
8660.5 0
8661.5 0
8662.5 0
8663.5 0
8664.5 0
8665.5 0
8666.5 0
8667.5 0
8668.5 0
8669.5 0
8670.5 0
8671.5 0
8672.5 0
8673.5 1
8674.5 0
8675.5 -0.928571
8676.5 0
8677.5 1
8678.5 0
8679.5 0
8680.5 -0.928571
8681.5 0
8682.5 0
8683.5 0
8684.5 0
8685.5 0
8686.5 0
8687.5 0
8688.5 0
8689.5 0
8690.5 -0.928571
8691.5 0
8692.5 0
8693.5 0
8694.5 0
8695.5 0
8696.5 0
8697.5 0
8698.5 0
8699.5 0
8700.5 0
8701.5 0
8702.5 0
8703.5 0
8704.5 0
8705.5 0
8706.5 0
8707.5 0
8708.5 0
8709.5 0
8710.5 0
8711.5 0
8712.5 0.0714286
8713.5 0
8714.5 0
8715.5 0
8716.5 0
8717.5 -0.928571
8718.5 0
8719.5 0
8720.5 0
8721.5 0
8722.5 0
8723.5 0
8724.5 0
8725.5 -0.928571
8726.5 0
8727.5 -0.928571
8728.5 0
8729.5 0
8730.5 0
8731.5 0
8732.5 0
8733.5 0
8734.5 0
8735.5 1
8736.5 0
8737.5 0
8738.5 0
8739.5 1
8740.5 -0.928571
8741.5 0
8742.5 0
8743.5 0
8744.5 0
8745.5 0
8746.5 -0.928571
8747.5 0
8748.5 0
8749.5 0
8750.5 0
8751.5 0
8752.5 0
8753.5 0
8754.5 0
8755.5 0
8756.5 0
8757.5 0
8758.5 0
8759.5 0
8760.5 0
8761.5 0
8762.5 -0.928571
8763.5 1
8764.5 0
8765.5 0
8766.5 -0.928571
8767.5 0
8768.5 0
8769.5 0
8770.5 0
8771.5 0
8772.5 0
8773.5 0
8774.5 0
8775.5 0
8776.5 1
8777.5 0
8778.5 1
8779.5 0
8780.5 0
8781.5 0
8782.5 0
8783.5 0
8784.5 0
8785.5 0
8786.5 1
8787.5 0
8788.5 0
8789.5 0
8790.5 0
8791.5 0
8792.5 0
8793.5 0
8794.5 0
8795.5 1
8796.5 0
8797.5 0
8798.5 0
8799.5 0
8800.5 0
8801.5 1
8802.5 0
8803.5 0
8804.5 0
8805.5 0
8806.5 0
8807.5 0
8808.5 0
8809.5 0
8810.5 0
8811.5 0
8812.5 1
8813.5 0
8814.5 0
8815.5 0
8816.5 0
8817.5 0
8818.5 0
8819.5 0
8820.5 0
8821.5 0
8822.5 0
8823.5 0
8824.5 0
8825.5 0
8826.5 0
8827.5 1
8828.5 0
8829.5 0
8830.5 0
8831.5 0
8832.5 0
8833.5 0
8834.5 0
8835.5 0
8836.5 0
8837.5 0
8838.5 0
8839.5 -0.928571
8840.5 0
8841.5 0
8842.5 0
8843.5 0
8844.5 -0.928571
8845.5 0
8846.5 0
8847.5 0
8848.5 0
8849.5 -0.928571
8850.5 -0.928571
8851.5 0
8852.5 0
8853.5 0
8854.5 0
8855.5 -0.928571
8856.5 1
8857.5 0
8858.5 0
8859.5 0
8860.5 0
8861.5 0
8862.5 0
8863.5 0
8864.5 1
8865.5 0
8866.5 0
8867.5 0
8868.5 0
8869.5 0
8870.5 -0.928571
8871.5 0
8872.5 0
8873.5 0
8874.5 0
8875.5 0
8876.5 -0.928571
8877.5 -0.928571
8878.5 0
8879.5 0
8880.5 0
8881.5 0
8882.5 -0.928571
8883.5 -0.928571
8884.5 0
8885.5 0
8886.5 0
8887.5 0
8888.5 0
8889.5 0
8890.5 0
8891.5 0
8892.5 0
8893.5 0
8894.5 0
8895.5 0
8896.5 0
8897.5 0
8898.5 0
8899.5 0
8900.5 0
8901.5 0
8902.5 0
8903.5 0
8904.5 1
8905.5 0
8906.5 0
8907.5 0
8908.5 0
8909.5 0
8910.5 0
8911.5 0
8912.5 -0.928571
8913.5 0
8914.5 0
8915.5 0
8916.5 0
8917.5 0
8918.5 0
8919.5 1
8920.5 0
8921.5 0
8922.5 0
8923.5 0
8924.5 0
8925.5 0
8926.5 0
8927.5 0
8928.5 0
8929.5 0
8930.5 0
8931.5 0
8932.5 0
8933.5 0
8934.5 0
8935.5 0
8936.5 0
8937.5 0
8938.5 0
8939.5 0
8940.5 0
8941.5 0
8942.5 0
8943.5 0
8944.5 0
8945.5 0
8946.5 0
8947.5 0
8948.5 0
8949.5 0
8950.5 0
8951.5 0
8952.5 -0.928571
8953.5 0
8954.5 0
8955.5 0
8956.5 0
8957.5 0
8958.5 0
8959.5 0
8960.5 0
8961.5 -0.928571
8962.5 -0.928571
8963.5 0
8964.5 0
8965.5 0
8966.5 0
8967.5 0
8968.5 0
8969.5 0
8970.5 0
8971.5 0
8972.5 0
8973.5 1
8974.5 0
8975.5 0
8976.5 0
8977.5 0
8978.5 0
8979.5 0
8980.5 0
8981.5 0
8982.5 0
8983.5 1
8984.5 0
8985.5 0
8986.5 0
8987.5 1
8988.5 0
8989.5 -0.928571
8990.5 0
8991.5 0
8992.5 0
8993.5 0
8994.5 0
8995.5 0
8996.5 0
8997.5 1
8998.5 0
8999.5 0
9000.5 0
9001.5 0
9002.5 -0.928571
9003.5 0
9004.5 0
9005.5 1
9006.5 0
9007.5 0
9008.5 0
9009.5 0
9010.5 0
9011.5 0
9012.5 -0.928571
9013.5 0
9014.5 0
9015.5 0
9016.5 0
9017.5 1
9018.5 0
9019.5 0
9020.5 0
9021.5 1
9022.5 0
9023.5 0
9024.5 0
9025.5 0
9026.5 0
9027.5 0
9028.5 0
9029.5 0
9030.5 0
9031.5 0
9032.5 0
9033.5 0
9034.5 0
9035.5 0
9036.5 0
9037.5 -0.928571
9038.5 -0.928571
9039.5 0
9040.5 0
9041.5 1
9042.5 0
9043.5 0
9044.5 0
9045.5 1
9046.5 0
9047.5 0
9048.5 0
9049.5 0
9050.5 0
9051.5 1
9052.5 0
9053.5 0
9054.5 0
9055.5 0
9056.5 0
9057.5 0
9058.5 0
9059.5 0
9060.5 0
9061.5 0
9062.5 0.0714286
9063.5 0
9064.5 0
9065.5 0
9066.5 -0.928571
9067.5 0
9068.5 0
9069.5 0
9070.5 0
9071.5 -0.928571
9072.5 1
9073.5 0
9074.5 0
9075.5 0
9076.5 0
9077.5 0
9078.5 0
9079.5 0
9080.5 0
9081.5 -0.928571
9082.5 0
9083.5 0
9084.5 0
9085.5 0
9086.5 -0.928571
9087.5 0
9088.5 1
9089.5 0
9090.5 -1.85714
9091.5 0
9092.5 0
9093.5 0
9094.5 0
9095.5 0
9096.5 0
9097.5 0
9098.5 -0.928571
9099.5 0
9100.5 0
9101.5 0
9102.5 0.0714286
9103.5 0
9104.5 0
9105.5 0
9106.5 0
9107.5 0
9108.5 0
9109.5 0
9110.5 1
9111.5 -0.928571
9112.5 0
9113.5 0
9114.5 0
9115.5 0
9116.5 0
9117.5 0
9118.5 0
9119.5 0
9120.5 0
9121.5 0
9122.5 0
9123.5 0
9124.5 0
9125.5 0
9126.5 1
9127.5 0
9128.5 0
9129.5 0
9130.5 1
9131.5 0
9132.5 0
9133.5 0
9134.5 0
9135.5 0
9136.5 0
9137.5 -0.928571
9138.5 0
9139.5 0
9140.5 -0.928571
9141.5 0
9142.5 0
9143.5 0
9144.5 0
9145.5 0
9146.5 -0.928571
9147.5 0
9148.5 0
9149.5 -0.928571
9150.5 0
9151.5 0
9152.5 0
9153.5 0
9154.5 0
9155.5 0
9156.5 0
9157.5 0
9158.5 0
9159.5 0
9160.5 0
9161.5 0
9162.5 0
9163.5 0
9164.5 0
9165.5 0
9166.5 0
9167.5 0
9168.5 0
9169.5 0
9170.5 0
9171.5 0
9172.5 0
9173.5 0
9174.5 -0.928571
9175.5 0
9176.5 0
9177.5 0
9178.5 0
9179.5 0
9180.5 0
9181.5 0
9182.5 0
9183.5 0
9184.5 -0.928571
9185.5 0
9186.5 1
9187.5 0
9188.5 0
9189.5 0
9190.5 0
9191.5 0
9192.5 -0.928571
9193.5 -0.928571
9194.5 0
9195.5 0
9196.5 0
9197.5 0
9198.5 1
9199.5 0
9200.5 0
9201.5 -0.928571
9202.5 -0.928571
9203.5 0
9204.5 0
9205.5 0
9206.5 0
9207.5 0
9208.5 0
9209.5 0
9210.5 0
9211.5 0
9212.5 -0.928571
9213.5 0
9214.5 0
9215.5 0
9216.5 0
9217.5 0
9218.5 1
9219.5 0
9220.5 0
9221.5 0
9222.5 0
9223.5 0
9224.5 0
9225.5 0
9226.5 0
9227.5 0
9228.5 0
9229.5 0
9230.5 0
9231.5 0
9232.5 0
9233.5 0
9234.5 0
9235.5 0
9236.5 0
9237.5 0
9238.5 1
9239.5 0
9240.5 1
9241.5 0
9242.5 0
9243.5 1
9244.5 0
9245.5 0
9246.5 0
9247.5 0
9248.5 0
9249.5 0
9250.5 -1.85714
9251.5 0
9252.5 0
9253.5 -0.928571
9254.5 0
9255.5 0
9256.5 1
9257.5 0
9258.5 0
9259.5 0
9260.5 0
9261.5 0
9262.5 0
9263.5 0
9264.5 0
9265.5 0
9266.5 0
9267.5 0
9268.5 0
9269.5 0
9270.5 0
9271.5 -0.928571
9272.5 0
9273.5 1
9274.5 0
9275.5 0
9276.5 0
9277.5 0
9278.5 0
9279.5 0
9280.5 0
9281.5 0
9282.5 -0.928571
9283.5 0
9284.5 0
9285.5 0
9286.5 0
9287.5 0
9288.5 0
9289.5 0
9290.5 0
9291.5 0
9292.5 -0.928571
9293.5 0
9294.5 0
9295.5 0
9296.5 0
9297.5 0
9298.5 0
9299.5 -0.928571
9300.5 0
9301.5 0
9302.5 1
9303.5 1
9304.5 0
9305.5 0
9306.5 0
9307.5 0
9308.5 0
9309.5 -0.928571
9310.5 0
9311.5 0
9312.5 0
9313.5 1
9314.5 -0.928571
9315.5 0
9316.5 0
9317.5 0
9318.5 0
9319.5 0
9320.5 0
9321.5 -0.928571
9322.5 0
9323.5 0
9324.5 0
9325.5 0
9326.5 0
9327.5 0
9328.5 0
9329.5 0
9330.5 0
9331.5 0
9332.5 0
9333.5 0
9334.5 1
9335.5 0
9336.5 0
9337.5 0
9338.5 0
9339.5 0
9340.5 0
9341.5 -0.928571
9342.5 0
9343.5 0
9344.5 0
9345.5 0
9346.5 0
9347.5 0
9348.5 0
9349.5 0
9350.5 0
9351.5 0
9352.5 0
9353.5 0
9354.5 0
9355.5 0
9356.5 0
9357.5 0
9358.5 0
9359.5 0
9360.5 0
9361.5 0
9362.5 0
9363.5 0
9364.5 1
9365.5 0
9366.5 0
9367.5 0
9368.5 0
9369.5 0
9370.5 0
9371.5 0
9372.5 -0.928571
9373.5 0
9374.5 0
9375.5 0
9376.5 0
9377.5 0
9378.5 0
9379.5 0
9380.5 0
9381.5 0
9382.5 0
9383.5 0
9384.5 0
9385.5 0
9386.5 0
9387.5 0
9388.5 0
9389.5 0
9390.5 0
9391.5 0
9392.5 0
9393.5 0
9394.5 0
9395.5 0
9396.5 0
9397.5 0
9398.5 0
9399.5 -0.928571
9400.5 0
9401.5 0
9402.5 0
9403.5 0
9404.5 0
9405.5 1
9406.5 0
9407.5 0
9408.5 0
9409.5 0
9410.5 0
9411.5 0
9412.5 0
9413.5 0
9414.5 0
9415.5 1
9416.5 0
9417.5 0
9418.5 0
9419.5 0
9420.5 0
9421.5 0
9422.5 0
9423.5 0
9424.5 0
9425.5 0
9426.5 0
9427.5 1
9428.5 0
9429.5 0
9430.5 0
9431.5 0
9432.5 0
9433.5 1
9434.5 0
9435.5 0
9436.5 0
9437.5 0
9438.5 0
9439.5 0
9440.5 0
9441.5 0
9442.5 0
9443.5 0
9444.5 0
9445.5 0
9446.5 -0.928571
9447.5 0
9448.5 0
9449.5 0
9450.5 0
9451.5 0
9452.5 0
9453.5 0
9454.5 0
9455.5 -0.928571
9456.5 0
9457.5 0
9458.5 0
9459.5 0
9460.5 0
9461.5 0
9462.5 1
9463.5 0
9464.5 -0.928571
9465.5 0
9466.5 1
9467.5 0
9468.5 0
9469.5 0
9470.5 0
9471.5 0
9472.5 -0.928571
9473.5 0
9474.5 0
9475.5 0
9476.5 0
9477.5 -0.928571
9478.5 0
9479.5 0
9480.5 0
9481.5 0
9482.5 0
9483.5 0
9484.5 0
9485.5 0
9486.5 -0.928571
9487.5 0
9488.5 0
9489.5 0
9490.5 0
9491.5 -0.928571
9492.5 0
9493.5 0
9494.5 0
9495.5 0
9496.5 0
9497.5 0
9498.5 0
9499.5 0
9500.5 0
9501.5 0
9502.5 0
9503.5 0
9504.5 0
9505.5 0
9506.5 0
9507.5 0
9508.5 0
9509.5 0
9510.5 0
9511.5 0
9512.5 0
9513.5 0
9514.5 0
9515.5 0
9516.5 -0.928571
9517.5 0
9518.5 0
9519.5 0
9520.5 0
9521.5 0
9522.5 0
9523.5 0
9524.5 0
9525.5 0
9526.5 0
9527.5 0
9528.5 0
9529.5 1
9530.5 0
9531.5 0
9532.5 0
9533.5 0
9534.5 0
9535.5 -0.928571
9536.5 -0.928571
9537.5 0
9538.5 0
9539.5 0
9540.5 0
9541.5 0
9542.5 0
9543.5 0
9544.5 -0.928571
9545.5 0
9546.5 0
9547.5 0
9548.5 0
9549.5 0
9550.5 1
9551.5 0
9552.5 0
9553.5 0
9554.5 -0.928571
9555.5 0
9556.5 0
9557.5 0
9558.5 0
9559.5 0
9560.5 0
9561.5 0
9562.5 0
9563.5 0
9564.5 0
9565.5 1
9566.5 0
9567.5 0
9568.5 0
9569.5 0
9570.5 0
9571.5 0
9572.5 0
9573.5 -0.928571
9574.5 0
9575.5 0
9576.5 0
9577.5 0
9578.5 0
9579.5 0
9580.5 0
9581.5 0
9582.5 0
9583.5 0
9584.5 0
9585.5 0
9586.5 0
9587.5 0
9588.5 0
9589.5 0
9590.5 0
9591.5 1
9592.5 -0.928571
9593.5 0
9594.5 0
9595.5 0
9596.5 -0.928571
9597.5 0
9598.5 0
9599.5 0
9600.5 0
9601.5 0
9602.5 0
9603.5 0
9604.5 0
9605.5 0
9606.5 0
9607.5 0
9608.5 0
9609.5 0
9610.5 0
9611.5 0
9612.5 -0.928571
9613.5 0
9614.5 0
9615.5 0
9616.5 0
9617.5 0
9618.5 0
9619.5 0
9620.5 0
9621.5 0
9622.5 0
9623.5 0
9624.5 0
9625.5 0
9626.5 0
9627.5 0
9628.5 0
9629.5 0
9630.5 0
9631.5 0
9632.5 0
9633.5 0
9634.5 0
9635.5 0
9636.5 0
9637.5 1
9638.5 0
9639.5 0
9640.5 0
9641.5 0
9642.5 0
9643.5 0
9644.5 0
9645.5 0
9646.5 0
9647.5 0
9648.5 -0.928571
9649.5 0
9650.5 0
9651.5 0
9652.5 0
9653.5 0
9654.5 0
9655.5 0
9656.5 0
9657.5 0
9658.5 0
9659.5 0
9660.5 0
9661.5 0
9662.5 0
9663.5 0
9664.5 0
9665.5 0
9666.5 0
9667.5 0
9668.5 0
9669.5 0
9670.5 0
9671.5 0
9672.5 0
9673.5 -0.928571
9674.5 0
9675.5 0
9676.5 0
9677.5 0
9678.5 0
9679.5 0
9680.5 1
9681.5 0
9682.5 1
9683.5 0
9684.5 0
9685.5 0
9686.5 0
9687.5 0
9688.5 0
9689.5 0
9690.5 0
9691.5 0
9692.5 0
9693.5 0
9694.5 1
9695.5 0
9696.5 0
9697.5 0
9698.5 1
9699.5 0
9700.5 0
9701.5 0
9702.5 0
9703.5 -0.928571
9704.5 0
9705.5 0
9706.5 0
9707.5 0
9708.5 0
9709.5 0
9710.5 0
9711.5 0
9712.5 0
9713.5 0
9714.5 1
9715.5 0
9716.5 0
9717.5 0
9718.5 0
9719.5 0
9720.5 0
9721.5 0
9722.5 0
9723.5 0
9724.5 1
9725.5 0
9726.5 0
9727.5 0
9728.5 0
9729.5 0
9730.5 0
9731.5 0
9732.5 0
9733.5 0
9734.5 0
9735.5 -0.928571
9736.5 0
9737.5 0
9738.5 0
9739.5 0
9740.5 0
9741.5 0
9742.5 0
9743.5 0
9744.5 0
9745.5 0
9746.5 0
9747.5 0
9748.5 0
9749.5 0
9750.5 0
9751.5 0
9752.5 0
9753.5 0
9754.5 0
9755.5 0
9756.5 0
9757.5 0
9758.5 0
9759.5 0
9760.5 0
9761.5 0
9762.5 0
9763.5 0
9764.5 0
9765.5 0
9766.5 0
9767.5 0
9768.5 -0.928571
9769.5 0
9770.5 0
9771.5 -0.928571
9772.5 0
9773.5 0
9774.5 0
9775.5 0
9776.5 0
9777.5 0
9778.5 1
9779.5 0
9780.5 0
9781.5 0
9782.5 0
9783.5 0
9784.5 0
9785.5 0
9786.5 0
9787.5 0
9788.5 0
9789.5 0
9790.5 0
9791.5 -0.928571
9792.5 0
9793.5 0
9794.5 0
9795.5 0
9796.5 -0.928571
9797.5 0
9798.5 0
9799.5 0
9800.5 0
9801.5 0
9802.5 0
9803.5 0
9804.5 0
9805.5 1
9806.5 0
9807.5 0
9808.5 0
9809.5 0
9810.5 0
9811.5 0
9812.5 0
9813.5 0
9814.5 -0.928571
9815.5 0
9816.5 0
9817.5 0
9818.5 0
9819.5 0
9820.5 0
9821.5 0
9822.5 0
9823.5 0
9824.5 0
9825.5 0
9826.5 0
9827.5 0
9828.5 0
9829.5 0
9830.5 0
9831.5 0
9832.5 0
9833.5 0
9834.5 0
9835.5 0
9836.5 0
9837.5 0
9838.5 0
9839.5 0
9840.5 0
9841.5 0
9842.5 0
9843.5 0
9844.5 0
9845.5 0
9846.5 0
9847.5 -0.928571
9848.5 0
9849.5 0
9850.5 0
9851.5 0
9852.5 0
9853.5 0
9854.5 0
9855.5 0
9856.5 0
9857.5 0
9858.5 0
9859.5 0
9860.5 0
9861.5 0
9862.5 0
9863.5 0
9864.5 0
9865.5 0
9866.5 0
9867.5 0
9868.5 0
9869.5 0
9870.5 0
9871.5 0
9872.5 0
9873.5 0
9874.5 0
9875.5 0
9876.5 0
9877.5 0
9878.5 0
9879.5 0
9880.5 0
9881.5 0
9882.5 0
9883.5 -0.928571
9884.5 0
9885.5 0
9886.5 0
9887.5 0
9888.5 0
9889.5 0
9890.5 0
9891.5 0
9892.5 0
9893.5 0
9894.5 -0.928571
9895.5 0
9896.5 0
9897.5 0
9898.5 0
9899.5 0
9900.5 0
9901.5 0
9902.5 0
9903.5 0
9904.5 0
9905.5 0
9906.5 0
9907.5 0
9908.5 0
9909.5 0
9910.5 0
9911.5 0
9912.5 0
9913.5 0
9914.5 0
9915.5 0
9916.5 0
9917.5 0
9918.5 0
9919.5 0
9920.5 0
9921.5 0
9922.5 0
9923.5 -0.928571
9924.5 0
9925.5 0
9926.5 0
9927.5 0
9928.5 0
9929.5 0
9930.5 0
9931.5 0
9932.5 0
9933.5 0
9934.5 0
9935.5 0
9936.5 0
9937.5 0
9938.5 0
9939.5 0
9940.5 0
9941.5 0
9942.5 0
9943.5 0
9944.5 0
9945.5 0
9946.5 0
9947.5 0
9948.5 0
9949.5 0
9950.5 0
9951.5 0
9952.5 0
9953.5 0
9954.5 0
9955.5 0
9956.5 0
9957.5 0
9958.5 0
9959.5 0
9960.5 0
9961.5 0
9962.5 0
9963.5 0
9964.5 0
9965.5 0
9966.5 0
9967.5 0
9968.5 0
9969.5 0
9970.5 0
9971.5 0
9972.5 0
9973.5 0
9974.5 0
9975.5 0
9976.5 0
9977.5 0
9978.5 0
9979.5 0
9980.5 0
9981.5 0
9982.5 0
9983.5 0
9984.5 0
9985.5 0
9986.5 0
9987.5 0
9988.5 0
9989.5 0
9990.5 0
9991.5 0
9992.5 0
9993.5 0
9994.5 0
9995.5 0
9996.5 0
9997.5 0
9998.5 0
9999.5 0
10000.5 0
10001.5 0
10002.5 0
10003.5 0
10004.5 0
10005.5 0
10006.5 0
10007.5 0
10008.5 0
10009.5 0
10010.5 0
10011.5 0
10012.5 0
10013.5 0
10014.5 0
10015.5 0
10016.5 0
10017.5 0
10018.5 0
10019.5 0
10020.5 0
10021.5 0
10022.5 0
10023.5 0
10024.5 0
10025.5 0
10026.5 0
10027.5 0
10028.5 0
10029.5 0
10030.5 0
10031.5 0
10032.5 0
10033.5 0
10034.5 0
10035.5 0
10036.5 0
10037.5 0
10038.5 0
10039.5 0
10040.5 0
10041.5 0
10042.5 0
10043.5 0
10044.5 0
10045.5 0
10046.5 0
10047.5 0
10048.5 0
10049.5 0
10050.5 0
10051.5 0
10052.5 0
10053.5 0
10054.5 0
10055.5 0
10056.5 0
10057.5 0
10058.5 0
10059.5 0
10060.5 0
10061.5 0
10062.5 0
10063.5 0
10064.5 0
10065.5 0
10066.5 0
10067.5 0
10068.5 0
10069.5 0
10070.5 0
10071.5 0
10072.5 0
10073.5 0
10074.5 0
10075.5 0
10076.5 0
10077.5 0
10078.5 0
10079.5 0
10080.5 0
10081.5 0
10082.5 0
10083.5 0
10084.5 0
10085.5 0
10086.5 0
10087.5 0
10088.5 0
10089.5 1
10090.5 0
10091.5 0
10092.5 0
10093.5 0
10094.5 0
10095.5 0
10096.5 0
10097.5 0
10098.5 0
10099.5 0
10100.5 0
10101.5 0
10102.5 0
10103.5 0
10104.5 -0.928571
10105.5 0
10106.5 0
10107.5 0
10108.5 0
10109.5 0
10110.5 0
10111.5 0
10112.5 0
10113.5 0
10114.5 0
10115.5 0
10116.5 0
10117.5 0
10118.5 0
10119.5 0
10120.5 0
10121.5 0
10122.5 0
10123.5 0
10124.5 0
10125.5 0
10126.5 0
10127.5 0
10128.5 0
10129.5 0
10130.5 0
10131.5 0
10132.5 0
10133.5 0
10134.5 0
10135.5 0
10136.5 0
10137.5 0
10138.5 0
10139.5 0
10140.5 0
10141.5 0
10142.5 0
10143.5 0
10144.5 0
10145.5 0
10146.5 0
10147.5 0
10148.5 0
10149.5 0
10150.5 0
10151.5 0
10152.5 0
10153.5 0
10154.5 0
10155.5 0
10156.5 0
10157.5 0
10158.5 0
10159.5 0
10160.5 0
10161.5 0
10162.5 0
10163.5 0
10164.5 0
10165.5 0
10166.5 0
10167.5 0
10168.5 0
10169.5 0
10170.5 0
10171.5 0
10172.5 0
10173.5 0
10174.5 0
10175.5 0
10176.5 0
10177.5 0
10178.5 0
10179.5 0
10180.5 0
10181.5 0
10182.5 0
10183.5 0
10184.5 0
10185.5 0
10186.5 0
10187.5 0
10188.5 0
10189.5 0
10190.5 0
10191.5 0
10192.5 0
10193.5 0
10194.5 -0.928571
10195.5 0
10196.5 0
10197.5 0
10198.5 0
10199.5 0
10200.5 0
10201.5 0
10202.5 0
10203.5 0
10204.5 0
10205.5 0
10206.5 0
10207.5 0
10208.5 0
10209.5 0
10210.5 0
10211.5 0
10212.5 0
10213.5 0
10214.5 0
10215.5 0
10216.5 0
10217.5 0
10218.5 0
10219.5 0
10220.5 0
10221.5 0
10222.5 0
10223.5 0
10224.5 0
10225.5 0
10226.5 0
10227.5 0
10228.5 0
10229.5 0
10230.5 0
10231.5 0
10232.5 0
10233.5 0
10234.5 0
10235.5 0
10236.5 0
10237.5 0
10238.5 0
10239.5 0
10240.5 0
10241.5 0
10242.5 0
10243.5 0
10244.5 0
10245.5 0
10246.5 0
10247.5 0
10248.5 0
10249.5 0
10250.5 0
10251.5 0
10252.5 0
10253.5 0.0714286
10254.5 0
10255.5 0
10256.5 0
10257.5 0
10258.5 0
10259.5 0
10260.5 0
10261.5 0
10262.5 0
10263.5 0
10264.5 0
10265.5 0
10266.5 0
10267.5 0
10268.5 0
10269.5 0
10270.5 0
10271.5 0
10272.5 0
10273.5 0
10274.5 0
10275.5 0
10276.5 0
10277.5 0
10278.5 0
10279.5 0
10280.5 0
10281.5 0
10282.5 0
10283.5 0
10284.5 0
10285.5 1
10286.5 0
10287.5 0
10288.5 0
10289.5 0
10290.5 0
10291.5 0
10292.5 0
10293.5 0
10294.5 0
10295.5 0
10296.5 0
10297.5 0
10298.5 0
10299.5 0
10300.5 0
10301.5 0
10302.5 0
10303.5 0
10304.5 0
10305.5 0
10306.5 0
10307.5 0
10308.5 0
10309.5 0
10310.5 -0.928571
10311.5 0
10312.5 0
10313.5 0
10314.5 0
10315.5 0
10316.5 0
10317.5 0
10318.5 0
10319.5 0
10320.5 0
10321.5 0
10322.5 0
10323.5 0
10324.5 0
10325.5 0
10326.5 0
10327.5 0
10328.5 0
10329.5 0
10330.5 0
10331.5 0
10332.5 0
10333.5 0
10334.5 0
10335.5 0
10336.5 0
10337.5 1
10338.5 0
10339.5 0
10340.5 0
10341.5 0
10342.5 0
10343.5 0
10344.5 0
10345.5 0
10346.5 0
10347.5 0
10348.5 0
10349.5 0
10350.5 0
10351.5 0
10352.5 0
10353.5 0
10354.5 0
10355.5 0
10356.5 0
10357.5 0
10358.5 0
10359.5 0
10360.5 0
10361.5 0
10362.5 0
10363.5 0
10364.5 0
10365.5 0
10366.5 0
10367.5 0
10368.5 0
10369.5 0
10370.5 0
10371.5 0
10372.5 0
10373.5 0
10374.5 0
10375.5 0
10376.5 1
10377.5 0
10378.5 0
10379.5 0
10380.5 0
10381.5 0
10382.5 0
10383.5 0
10384.5 0
10385.5 0
10386.5 0
10387.5 0
10388.5 -0.928571
10389.5 0
10390.5 -0.928571
10391.5 0
10392.5 -0.928571
10393.5 0
10394.5 0
10395.5 0
10396.5 0
10397.5 0
10398.5 0
10399.5 0
10400.5 0
10401.5 0
10402.5 0
10403.5 0
10404.5 0
10405.5 0
10406.5 0
10407.5 0
10408.5 0
10409.5 0
10410.5 0
10411.5 0
10412.5 0
10413.5 0
10414.5 0
10415.5 0
10416.5 0
10417.5 0
10418.5 0
10419.5 0
10420.5 0
10421.5 0
10422.5 0
10423.5 0
10424.5 0
10425.5 0
10426.5 0
10427.5 0
10428.5 0
10429.5 0
10430.5 0
10431.5 0
10432.5 0
10433.5 0
10434.5 0
10435.5 0
10436.5 0
10437.5 0
10438.5 0
10439.5 0
10440.5 0
10441.5 0
10442.5 0
10443.5 0
10444.5 0
10445.5 0
10446.5 0
10447.5 0
10448.5 0
10449.5 0
10450.5 0
10451.5 0
10452.5 0
10453.5 0
10454.5 0
10455.5 0
10456.5 0
10457.5 0
10458.5 0
10459.5 0
10460.5 0
10461.5 0
10462.5 0
10463.5 0
10464.5 0
10465.5 0
10466.5 0
10467.5 0
10468.5 0
10469.5 0
10470.5 0
10471.5 0
10472.5 0
10473.5 0
10474.5 0
10475.5 0
10476.5 0
10477.5 0
10478.5 0
10479.5 0
10480.5 0
10481.5 0
10482.5 0
10483.5 0
10484.5 0
10485.5 0
10486.5 0
10487.5 0
10488.5 0
10489.5 0
10490.5 0
10491.5 0
10492.5 0
10493.5 0
10494.5 0
10495.5 0
10496.5 0
10497.5 0
10498.5 0
10499.5 0
10500.5 0
10501.5 0
10502.5 0
10503.5 0
10504.5 0
10505.5 0
10506.5 0
10507.5 0
10508.5 0
10509.5 0
10510.5 0
10511.5 0
10512.5 0
10513.5 0
10514.5 0
10515.5 0
10516.5 0
10517.5 0
10518.5 -0.928571
10519.5 0
10520.5 0
10521.5 0
10522.5 0
10523.5 0
10524.5 0
10525.5 0
10526.5 0
10527.5 0
10528.5 0
10529.5 0
10530.5 0
10531.5 0
10532.5 0
10533.5 0
10534.5 0
10535.5 0
10536.5 0
10537.5 0
10538.5 0
10539.5 0
10540.5 0
10541.5 0
10542.5 0
10543.5 0
10544.5 0
10545.5 0
10546.5 0
10547.5 0
10548.5 0
10549.5 0
10550.5 0
10551.5 0
10552.5 0
10553.5 0
10554.5 0
10555.5 0
10556.5 0
10557.5 0
10558.5 0
10559.5 0
10560.5 0
10561.5 0
10562.5 0
10563.5 0
10564.5 0
10565.5 0
10566.5 0
10567.5 0
10568.5 0
10569.5 0
10570.5 0
10571.5 0
10572.5 0
10573.5 0
10574.5 0
10575.5 0
10576.5 0
10577.5 0
10578.5 0
10579.5 0
10580.5 0
10581.5 0
10582.5 0
10583.5 0
10584.5 0
10585.5 0
10586.5 0
10587.5 0
10588.5 0
10589.5 0
10590.5 0
10591.5 0
10592.5 0
10593.5 0
10594.5 0
10595.5 0
10596.5 0
10597.5 0
10598.5 0
10599.5 0
10600.5 0
10601.5 0
10602.5 0
10603.5 0
10604.5 0
10605.5 0
10606.5 0
10607.5 0
10608.5 0
10609.5 0
10610.5 0
10611.5 0
10612.5 0
10613.5 0
10614.5 0
10615.5 0
10616.5 0
10617.5 0
10618.5 0
10619.5 0
10620.5 0
10621.5 0
10622.5 0
10623.5 0
10624.5 0
10625.5 0
10626.5 0
10627.5 0
10628.5 0
10629.5 0
10630.5 0
10631.5 0
10632.5 0
10633.5 0
10634.5 0
10635.5 0
10636.5 0
10637.5 0
10638.5 0
10639.5 0
10640.5 0
10641.5 0
10642.5 0
10643.5 0
10644.5 0
10645.5 0
10646.5 0
10647.5 0
10648.5 0
10649.5 0
10650.5 0
10651.5 0
10652.5 0
10653.5 0
10654.5 0
10655.5 0
10656.5 0
10657.5 0
10658.5 0
10659.5 0
10660.5 0
10661.5 0
10662.5 0
10663.5 0
10664.5 0
10665.5 0
10666.5 0
10667.5 0
10668.5 0
10669.5 0
10670.5 0
10671.5 0
10672.5 0
10673.5 0
10674.5 0
10675.5 0
10676.5 0
10677.5 0
10678.5 0
10679.5 0
10680.5 0
10681.5 0
10682.5 0
10683.5 0
10684.5 0
10685.5 0
10686.5 0
10687.5 0
10688.5 0
10689.5 0
10690.5 0
10691.5 0
10692.5 0
10693.5 0
10694.5 0
10695.5 0
10696.5 0
10697.5 0
10698.5 0
10699.5 0
10700.5 0
10701.5 0
10702.5 0
10703.5 0
10704.5 0
10705.5 0
10706.5 0
10707.5 0
10708.5 0
10709.5 2
10710.5 0
10711.5 0
10712.5 0
10713.5 0
10714.5 0
10715.5 0
10716.5 0
10717.5 0
10718.5 0
10719.5 0
10720.5 0
10721.5 0
10722.5 0
10723.5 0
10724.5 0
10725.5 0
10726.5 0
10727.5 0
10728.5 1
10729.5 0
10730.5 0
10731.5 0
10732.5 0
10733.5 0
10734.5 0
10735.5 0
10736.5 0
10737.5 0
10738.5 0
10739.5 0
10740.5 0
10741.5 0
10742.5 0
10743.5 0
10744.5 0
10745.5 0
10746.5 0
10747.5 0
10748.5 0
10749.5 0
10750.5 0
10751.5 0
10752.5 0
10753.5 0
10754.5 0
10755.5 0
10756.5 0
10757.5 0
10758.5 0
10759.5 0
10760.5 0
10761.5 0
10762.5 0
10763.5 0
10764.5 0
10765.5 0
10766.5 0
10767.5 0
10768.5 0
10769.5 0
10770.5 0
10771.5 0
10772.5 0
10773.5 0
10774.5 0
10775.5 0
10776.5 0
10777.5 0
10778.5 0
10779.5 0
10780.5 0
10781.5 0
10782.5 0
10783.5 0
10784.5 0
10785.5 0
10786.5 0
10787.5 0
10788.5 0
10789.5 0
10790.5 0
10791.5 0
10792.5 0
10793.5 0
10794.5 0
10795.5 0
10796.5 0
10797.5 0
10798.5 0
10799.5 0
10800.5 0
10801.5 0
10802.5 0
10803.5 0
10804.5 0
10805.5 0
10806.5 0
10807.5 0
10808.5 0
10809.5 0
10810.5 0
10811.5 0
10812.5 0
10813.5 0
10814.5 0
10815.5 0
10816.5 0
10817.5 0
10818.5 0
10819.5 0
10820.5 -0.928571
10821.5 0
10822.5 0
10823.5 1
10824.5 0
10825.5 0
10826.5 0
10827.5 0
10828.5 0
10829.5 0
10830.5 0
10831.5 0
10832.5 0
10833.5 0
10834.5 0
10835.5 0
10836.5 0
10837.5 0
10838.5 0
10839.5 0
10840.5 0
10841.5 0
10842.5 0
10843.5 0
10844.5 0
10845.5 0
10846.5 0
10847.5 0
10848.5 0
10849.5 0
10850.5 0
10851.5 0
10852.5 0
10853.5 0
10854.5 0
10855.5 0
10856.5 0
10857.5 0
10858.5 0
10859.5 0
10860.5 0
10861.5 0
10862.5 0
10863.5 0
10864.5 0
10865.5 0
10866.5 0
10867.5 0
10868.5 0
10869.5 0
10870.5 0
10871.5 0
10872.5 0
10873.5 0
10874.5 0
10875.5 0
10876.5 0
10877.5 0
10878.5 0
10879.5 0
10880.5 0
10881.5 0
10882.5 0
10883.5 0
10884.5 0
10885.5 0
10886.5 0
10887.5 0
10888.5 0
10889.5 0
10890.5 0
10891.5 0
10892.5 0
10893.5 0
10894.5 0
10895.5 0
10896.5 0
10897.5 0
10898.5 0
10899.5 0
10900.5 0
10901.5 0
10902.5 0
10903.5 0
10904.5 0
10905.5 0
10906.5 0
10907.5 0
10908.5 0
10909.5 0
10910.5 0
10911.5 0
10912.5 0
10913.5 0
10914.5 0
10915.5 0
10916.5 0
10917.5 0
10918.5 0
10919.5 0
10920.5 0
10921.5 0
10922.5 0
10923.5 0
10924.5 0
10925.5 0
10926.5 0
10927.5 0
10928.5 0
10929.5 0
10930.5 0
10931.5 0
10932.5 0
10933.5 0
10934.5 0
10935.5 0
10936.5 0
10937.5 0
10938.5 0
10939.5 0
10940.5 0
10941.5 0
10942.5 0
10943.5 0
10944.5 0
10945.5 0
10946.5 0
10947.5 0
10948.5 0
10949.5 0
10950.5 0
10951.5 0
10952.5 0
10953.5 0
10954.5 0
10955.5 0
10956.5 0
10957.5 0
10958.5 0
10959.5 0
10960.5 0
10961.5 0
10962.5 0
10963.5 0
10964.5 0
10965.5 0
10966.5 0
10967.5 0
10968.5 0
10969.5 0
10970.5 0
10971.5 0
10972.5 0
10973.5 0
10974.5 0
10975.5 0
10976.5 0
10977.5 0
10978.5 0
10979.5 0
10980.5 0
10981.5 0
10982.5 0
10983.5 0
10984.5 0
10985.5 0
10986.5 0
10987.5 0
10988.5 0
10989.5 0
10990.5 0
10991.5 0
10992.5 0
10993.5 0
10994.5 0
10995.5 0
10996.5 0
10997.5 0
10998.5 0
10999.5 0
11000.5 0
11001.5 0
11002.5 0
11003.5 0
11004.5 0
11005.5 0
11006.5 0
11007.5 0
11008.5 0
11009.5 0
11010.5 0
11011.5 0
11012.5 0
11013.5 0
11014.5 0
11015.5 0
11016.5 0
11017.5 -0.928571
11018.5 0
11019.5 0
11020.5 0
11021.5 0
11022.5 0
11023.5 0
11024.5 0
11025.5 0
11026.5 0
11027.5 0
11028.5 0
11029.5 0
11030.5 0
11031.5 0
11032.5 0
11033.5 0
11034.5 0
11035.5 0
11036.5 0
11037.5 0
11038.5 0
11039.5 0
11040.5 0
11041.5 0
11042.5 0
11043.5 0
11044.5 0
11045.5 0
11046.5 0
11047.5 0
11048.5 0
11049.5 0
11050.5 0
11051.5 0
11052.5 0
11053.5 0
11054.5 0
11055.5 0
11056.5 0
11057.5 0
11058.5 0
11059.5 0
11060.5 0
11061.5 0
11062.5 0
11063.5 0
11064.5 0
11065.5 0
11066.5 0
11067.5 1
11068.5 0
11069.5 0
11070.5 0
11071.5 0
11072.5 0
11073.5 0
11074.5 0
11075.5 0
11076.5 0
11077.5 0
11078.5 0
11079.5 0
11080.5 0
11081.5 0
11082.5 0
11083.5 0
11084.5 0
11085.5 0
11086.5 0
11087.5 0
11088.5 0
11089.5 0
11090.5 0
11091.5 0
11092.5 0
11093.5 0
11094.5 0
11095.5 0
11096.5 0
11097.5 0
11098.5 0
11099.5 0
11100.5 0
11101.5 0
11102.5 0
11103.5 0
11104.5 0
11105.5 0
11106.5 0
11107.5 0
11108.5 0
11109.5 0
11110.5 0
11111.5 0
11112.5 0
11113.5 0
11114.5 0
11115.5 0
11116.5 0
11117.5 0
11118.5 0
11119.5 0
11120.5 0
11121.5 0
11122.5 0
11123.5 0
11124.5 0
11125.5 0
11126.5 0
11127.5 0
11128.5 0
11129.5 0
11130.5 0
11131.5 0
11132.5 0
11133.5 0
11134.5 0
11135.5 0
11136.5 0
11137.5 0
11138.5 0
11139.5 0
11140.5 0
11141.5 0
11142.5 0
11143.5 0
11144.5 0
11145.5 0
11146.5 0
11147.5 0
11148.5 0
11149.5 0
11150.5 0
11151.5 0
11152.5 0
11153.5 0
11154.5 0
11155.5 0
11156.5 0
11157.5 0
11158.5 0
11159.5 0
11160.5 0
11161.5 0
11162.5 0
11163.5 0
11164.5 0
11165.5 0
11166.5 0
11167.5 -0.928571
11168.5 0
11169.5 0
11170.5 0
11171.5 0
11172.5 0
11173.5 0
11174.5 0
11175.5 0
11176.5 0
11177.5 0
11178.5 0
11179.5 0
11180.5 0
11181.5 0
11182.5 0
11183.5 0
11184.5 0
11185.5 0
11186.5 0
11187.5 0
11188.5 0
11189.5 0
11190.5 0
11191.5 0
11192.5 0
11193.5 0
11194.5 0
11195.5 0
11196.5 0
11197.5 0
11198.5 0
11199.5 0
11200.5 0
11201.5 0
11202.5 0
11203.5 0
11204.5 0
11205.5 0
11206.5 0
11207.5 0
11208.5 0
11209.5 0
11210.5 0
11211.5 0
11212.5 0
11213.5 0
11214.5 0
11215.5 0
11216.5 0
11217.5 0
11218.5 0
11219.5 0
11220.5 0
11221.5 0
11222.5 0
11223.5 0
11224.5 0
11225.5 0
11226.5 0
11227.5 0
11228.5 0
11229.5 0
11230.5 0
11231.5 0
11232.5 0
11233.5 0
11234.5 0
11235.5 0
11236.5 0
11237.5 0
11238.5 0
11239.5 0
11240.5 0
11241.5 0
11242.5 0
11243.5 0
11244.5 0
11245.5 0
11246.5 0
11247.5 0
11248.5 0
11249.5 0
11250.5 0
11251.5 0
11252.5 0
11253.5 0
11254.5 0
11255.5 0
11256.5 0
11257.5 0
11258.5 0
11259.5 0
11260.5 0
11261.5 0
11262.5 0
11263.5 0
11264.5 0
11265.5 0
11266.5 0
11267.5 0
11268.5 0
11269.5 0
11270.5 0
11271.5 0
11272.5 0
11273.5 0
11274.5 0
11275.5 0
11276.5 0
11277.5 0
11278.5 0
11279.5 0
11280.5 0
11281.5 0
11282.5 0
11283.5 0
11284.5 0
11285.5 0
11286.5 0
11287.5 0
11288.5 0
11289.5 0
11290.5 0
11291.5 0
11292.5 0
11293.5 0
11294.5 0
11295.5 0
11296.5 0
11297.5 0
11298.5 0
11299.5 0
11300.5 0
11301.5 0
11302.5 0
11303.5 0
11304.5 0
11305.5 0
11306.5 0
11307.5 0
11308.5 0
11309.5 0
11310.5 0
11311.5 0
11312.5 0
11313.5 0
11314.5 0
11315.5 0
11316.5 0
11317.5 0
11318.5 0
11319.5 0
11320.5 0
11321.5 0
11322.5 0
11323.5 0
11324.5 0
11325.5 0
11326.5 0
11327.5 0
11328.5 0
11329.5 0
11330.5 0
11331.5 0
11332.5 0
11333.5 0
11334.5 0
11335.5 0
11336.5 0
11337.5 0
11338.5 0
11339.5 0
11340.5 0
11341.5 0
11342.5 0
11343.5 0
11344.5 0
11345.5 0
11346.5 0
11347.5 1
11348.5 0
11349.5 0
11350.5 0
11351.5 0
11352.5 0
11353.5 0
11354.5 0
11355.5 0
11356.5 0
11357.5 0
11358.5 0
11359.5 0
11360.5 0
11361.5 0
11362.5 0
11363.5 0
11364.5 0
11365.5 0
11366.5 0
11367.5 0
11368.5 0
11369.5 0
11370.5 0
11371.5 0
11372.5 0
11373.5 0
11374.5 0
11375.5 0
11376.5 0
11377.5 0
11378.5 0
11379.5 0
11380.5 0
11381.5 0
11382.5 0
11383.5 0
11384.5 0
11385.5 0
11386.5 0
11387.5 0
11388.5 0
11389.5 0
11390.5 0
11391.5 0
11392.5 0
11393.5 0
11394.5 0
11395.5 0
11396.5 0
11397.5 0
11398.5 0
11399.5 0
11400.5 0
11401.5 0
11402.5 0
11403.5 0
11404.5 0
11405.5 0
11406.5 0
11407.5 0
11408.5 0
11409.5 0
11410.5 0
11411.5 0
11412.5 0
11413.5 0
11414.5 0
11415.5 0
11416.5 0
11417.5 0
11418.5 0
11419.5 0
11420.5 0
11421.5 0
11422.5 0
11423.5 0
11424.5 0
11425.5 0
11426.5 0
11427.5 0
11428.5 0
11429.5 0
11430.5 0
11431.5 0
11432.5 0
11433.5 0
11434.5 0
11435.5 0
11436.5 1
11437.5 0
11438.5 0
11439.5 0
11440.5 0
11441.5 0
11442.5 0
11443.5 0
11444.5 0
11445.5 0
11446.5 0
11447.5 0
11448.5 0
11449.5 0
11450.5 0
11451.5 0
11452.5 0
11453.5 0
11454.5 0
11455.5 0
11456.5 0
11457.5 0
11458.5 0
11459.5 0
11460.5 0
11461.5 0
11462.5 0
11463.5 0
11464.5 0
11465.5 0
11466.5 0
11467.5 0
11468.5 0
11469.5 0
11470.5 0
11471.5 0
11472.5 0
11473.5 0
11474.5 0
11475.5 0
11476.5 0
11477.5 0
11478.5 0
11479.5 0
11480.5 0
11481.5 0
11482.5 0
11483.5 0
11484.5 0
11485.5 0
11486.5 0
11487.5 0
11488.5 0
11489.5 0
11490.5 0
11491.5 0
11492.5 0
11493.5 0
11494.5 0
11495.5 0
11496.5 0
11497.5 0
11498.5 0
11499.5 0
11500.5 0
11501.5 0
11502.5 0
11503.5 0
11504.5 0
11505.5 0
11506.5 0
11507.5 0
11508.5 0
11509.5 0
11510.5 0
11511.5 0
11512.5 0
11513.5 0
11514.5 0
11515.5 0
11516.5 0
11517.5 0
11518.5 0
11519.5 0
11520.5 0
11521.5 0
11522.5 0
11523.5 0
11524.5 0
11525.5 0
11526.5 0
11527.5 0
11528.5 0
11529.5 0
11530.5 0
11531.5 0
11532.5 0
11533.5 0
11534.5 0
11535.5 0
11536.5 0
11537.5 0
11538.5 0
11539.5 0
11540.5 0
11541.5 0
11542.5 0
11543.5 0
11544.5 0
11545.5 0
11546.5 0
11547.5 0
11548.5 0
11549.5 0
11550.5 0
11551.5 0
11552.5 0
11553.5 0
11554.5 0
11555.5 0
11556.5 0
11557.5 0
11558.5 0
11559.5 0
11560.5 0
11561.5 0
11562.5 0
11563.5 0
11564.5 0
11565.5 0
11566.5 1
11567.5 0
11568.5 0
11569.5 0
11570.5 0
11571.5 0
11572.5 0
11573.5 0
11574.5 0
11575.5 0
11576.5 0
11577.5 0
11578.5 0
11579.5 0
11580.5 0
11581.5 0
11582.5 0
11583.5 0
11584.5 0
11585.5 0
11586.5 0
11587.5 0
11588.5 0
11589.5 0
11590.5 0
11591.5 0
11592.5 0
11593.5 0
11594.5 0
11595.5 0
11596.5 0
11597.5 0
11598.5 0
11599.5 0
11600.5 0
11601.5 0
11602.5 0
11603.5 0
11604.5 0
11605.5 0
11606.5 0
11607.5 0
11608.5 0
11609.5 0
11610.5 0
11611.5 0
11612.5 0
11613.5 0
11614.5 0
11615.5 0
11616.5 0
11617.5 0
11618.5 0
11619.5 0
11620.5 0
11621.5 0
11622.5 0
11623.5 0
11624.5 0
11625.5 0
11626.5 0
11627.5 0
11628.5 0
11629.5 0
11630.5 0
11631.5 0
11632.5 0
11633.5 0
11634.5 0
11635.5 0
11636.5 0
11637.5 0
11638.5 0
11639.5 0
11640.5 0
11641.5 0
11642.5 0
11643.5 0
11644.5 0
11645.5 0
11646.5 0
11647.5 0
11648.5 0
11649.5 0
11650.5 0
11651.5 0
11652.5 0
11653.5 0
11654.5 0
11655.5 0
11656.5 0
11657.5 0
11658.5 0
11659.5 0
11660.5 0
11661.5 0
11662.5 0
11663.5 0
11664.5 0
11665.5 0
11666.5 0
11667.5 0
11668.5 0
11669.5 0
11670.5 0
11671.5 0
11672.5 0
11673.5 0
11674.5 0
11675.5 0
11676.5 0
11677.5 0
11678.5 0
11679.5 0
11680.5 0
11681.5 0
11682.5 0
11683.5 0
11684.5 0
11685.5 0
11686.5 0
11687.5 0
11688.5 0
11689.5 0
11690.5 0
11691.5 0
11692.5 0
11693.5 0
11694.5 0
11695.5 0
11696.5 0
11697.5 0
11698.5 0
11699.5 0
11700.5 0
11701.5 0
11702.5 0
11703.5 0
11704.5 0
11705.5 0
11706.5 0
11707.5 0
11708.5 0
11709.5 0
11710.5 0
11711.5 0
11712.5 0
11713.5 0
11714.5 0
11715.5 0
11716.5 0
11717.5 0
11718.5 0
11719.5 0
11720.5 0
11721.5 0
11722.5 0
11723.5 0
11724.5 0
11725.5 0
11726.5 0
11727.5 0
11728.5 0
11729.5 0
11730.5 0
11731.5 0
11732.5 0
11733.5 0
11734.5 0
11735.5 0
11736.5 0
11737.5 0
11738.5 0
11739.5 0
11740.5 0
11741.5 0
11742.5 0
11743.5 0
11744.5 0
11745.5 0
11746.5 0
11747.5 0
11748.5 0
11749.5 0
11750.5 0
11751.5 0
11752.5 0
11753.5 0
11754.5 0
11755.5 0
11756.5 0
11757.5 0
11758.5 0
11759.5 0
11760.5 0
11761.5 0
11762.5 0
11763.5 0
11764.5 0
11765.5 0
11766.5 0
11767.5 0
11768.5 0
11769.5 0
11770.5 0
11771.5 0
11772.5 0
11773.5 0
11774.5 0
11775.5 0
11776.5 0
11777.5 0
11778.5 0
11779.5 0
11780.5 0
11781.5 0
11782.5 0
11783.5 0
11784.5 0
11785.5 0
11786.5 0
11787.5 0
11788.5 0
11789.5 0
11790.5 0
11791.5 0
11792.5 0
11793.5 0
11794.5 0
11795.5 0
11796.5 0
11797.5 0
11798.5 0
11799.5 0
11800.5 0
11801.5 1
11802.5 0
11803.5 0
11804.5 0
11805.5 0
11806.5 0
11807.5 0
11808.5 0
11809.5 0
11810.5 0
11811.5 0
11812.5 0
11813.5 0
11814.5 0
11815.5 0
11816.5 0
11817.5 0
11818.5 0
11819.5 0
11820.5 0
11821.5 0
11822.5 0
11823.5 0
11824.5 0
11825.5 0
11826.5 0
11827.5 0
11828.5 0
11829.5 0
11830.5 0
11831.5 0
11832.5 0
11833.5 0
11834.5 0
11835.5 0
11836.5 0
11837.5 0
11838.5 0
11839.5 0
11840.5 0
11841.5 0
11842.5 0
11843.5 0
11844.5 0
11845.5 0
11846.5 0
11847.5 0
11848.5 0
11849.5 0
11850.5 0
11851.5 0
11852.5 0
11853.5 0
11854.5 0
11855.5 0
11856.5 0
11857.5 0
11858.5 0
11859.5 0
11860.5 0
11861.5 0
11862.5 0
11863.5 0
11864.5 0
11865.5 0
11866.5 0
11867.5 0
11868.5 0
11869.5 0
11870.5 0
11871.5 0
11872.5 1
11873.5 0
11874.5 0
11875.5 0
11876.5 0
11877.5 0
11878.5 0
11879.5 0
11880.5 0
11881.5 0
11882.5 0
11883.5 0
11884.5 0
11885.5 0
11886.5 0
11887.5 0
11888.5 0
11889.5 0
11890.5 0
11891.5 0
11892.5 0
11893.5 0
11894.5 0
11895.5 0
11896.5 0
11897.5 0
11898.5 0
11899.5 0
11900.5 0
11901.5 0
11902.5 0
11903.5 0
11904.5 0
11905.5 0
11906.5 0
11907.5 0
11908.5 0
11909.5 0
11910.5 0
11911.5 0
11912.5 0
11913.5 0
11914.5 0
11915.5 0
11916.5 0
11917.5 0
11918.5 0
11919.5 0
11920.5 0
11921.5 0
11922.5 0
11923.5 0
11924.5 0
11925.5 0
11926.5 0
11927.5 0
11928.5 0
11929.5 0
11930.5 0
11931.5 0
11932.5 0
11933.5 0
11934.5 0
11935.5 0
11936.5 0
11937.5 0
11938.5 0
11939.5 0
11940.5 0
11941.5 0
11942.5 0
11943.5 0
11944.5 0
11945.5 0
11946.5 0
11947.5 0
11948.5 0
11949.5 0
11950.5 0
11951.5 0
11952.5 0
11953.5 0
11954.5 0
11955.5 0
11956.5 0
11957.5 0
11958.5 0
11959.5 0
11960.5 0
11961.5 0
11962.5 0
11963.5 0
11964.5 0
11965.5 0
11966.5 0
11967.5 0
11968.5 0
11969.5 0
11970.5 0
11971.5 0
11972.5 0
11973.5 0
11974.5 0
11975.5 0
11976.5 0
11977.5 0
11978.5 0
11979.5 0
11980.5 0
11981.5 0
11982.5 0
11983.5 0
11984.5 0
11985.5 0
11986.5 0
11987.5 0
11988.5 0
11989.5 0
11990.5 0
11991.5 0
11992.5 0
11993.5 0
11994.5 0
11995.5 0
11996.5 0
11997.5 0
11998.5 0
11999.5 0
