# EGG_ProjY_E2178.5(4.5)_B2160.0(2.0)_B2205.5(1.5)
# X axis : Energy (keV) [Y axis]
# Y axis : Counts/1 keV
# N Bins : 12000
# X Min : 0
# X Max : 12000
# X value at the center of the bins
0.5 0
1.5 0
2.5 0
3.5 0
4.5 0
5.5 1.57143
6.5 -10.8571
7.5 6.57143
8.5 -21.1429
9.5 0.428572
10.5 -19.2857
11.5 10.7143
12.5 -1.85714
13.5 31.8571
14.5 7.71429
15.5 5.42857
16.5 55.2857
17.5 7.57143
18.5 88.1429
19.5 50.5714
20.5 155.857
21.5 59.5714
22.5 157.571
23.5 97.8572
24.5 180.429
25.5 179
26.5 292
27.5 228
28.5 115
29.5 311.571
30.5 371.143
31.5 71.5715
32.5 482
33.5 359
34.5 419.857
35.5 245.286
36.5 334.571
37.5 509.143
38.5 508.714
39.5 585.429
40.5 578
41.5 607
42.5 862.714
43.5 846.857
44.5 551.143
45.5 621.571
46.5 488.143
47.5 631.429
48.5 676.429
49.5 448.286
50.5 612.714
51.5 493.571
52.5 405.429
53.5 436.143
54.5 498.857
55.5 509.143
56.5 416.429
57.5 497.571
58.5 502.857
59.5 582.571
60.5 365
61.5 242.714
62.5 175.571
63.5 101.143
64.5 401.429
65.5 397.571
66.5 386.143
67.5 647.286
68.5 338.429
69.5 597.857
70.5 485.286
71.5 541.429
72.5 674.714
73.5 450.571
74.5 688.714
75.5 1025
76.5 858.429
77.5 1039.43
78.5 641.286
79.5 760.857
80.5 731.571
81.5 395.571
82.5 346.714
83.5 517.571
84.5 358
85.5 521.857
86.5 583
87.5 838
88.5 568.286
89.5 327.857
90.5 631
91.5 280.429
92.5 285.143
93.5 447.429
94.5 455.143
95.5 602.143
96.5 390.714
97.5 511
98.5 608.857
99.5 572
100.5 552.286
101.5 508.714
102.5 476
103.5 417.143
104.5 552.143
105.5 780.714
106.5 539.571
107.5 626
108.5 522.143
109.5 563
110.5 396.286
111.5 548.143
112.5 516.286
113.5 709.857
114.5 552.286
115.5 581
116.5 611.571
117.5 717.143
118.5 936.286
119.5 420
120.5 569.857
121.5 497.143
122.5 683.714
123.5 630
124.5 867.429
125.5 679
126.5 464.857
127.5 664.429
128.5 585.571
129.5 597.286
130.5 449.857
131.5 584
132.5 591.429
133.5 448.286
134.5 463.857
135.5 586
136.5 481.286
137.5 319.572
138.5 267.286
139.5 451.572
140.5 481.572
141.5 588.429
142.5 604.286
143.5 619.429
144.5 453.143
145.5 811.571
146.5 615.572
147.5 675
148.5 503.143
149.5 660.714
150.5 823.572
151.5 557.143
152.5 788.714
153.5 545.857
154.5 702
155.5 753.572
156.5 819
157.5 912
158.5 683.286
159.5 896
160.5 686.714
161.5 598.857
162.5 748.143
163.5 778.143
164.5 814.286
165.5 701.429
166.5 707.572
167.5 722.143
168.5 633.143
169.5 747
170.5 704.429
171.5 601.143
172.5 718.286
173.5 1240.86
174.5 1611.86
175.5 1283.14
176.5 817.714
177.5 802.714
178.5 675.857
179.5 666.714
180.5 937
181.5 947.857
182.5 1046.29
183.5 677
184.5 669.857
185.5 717.572
186.5 767
187.5 788.286
188.5 795.857
189.5 706.572
190.5 583.572
191.5 937.429
192.5 879
193.5 720.714
194.5 832.286
195.5 758.429
196.5 862.857
197.5 944.572
198.5 1044.86
199.5 968
200.5 1171
201.5 997.714
202.5 747.857
203.5 884.286
204.5 782.714
205.5 725.572
206.5 804.429
207.5 684.714
208.5 674
209.5 855.429
210.5 671.286
211.5 740.429
212.5 726.286
213.5 635
214.5 573.429
215.5 706.857
216.5 610.429
217.5 684.857
218.5 614.857
219.5 644
220.5 610
221.5 553.429
222.5 667.714
223.5 875.572
224.5 639.429
225.5 622.857
226.5 569.143
227.5 755.143
228.5 686
229.5 561.572
230.5 476.714
231.5 539.857
232.5 843.143
233.5 715.714
234.5 933.572
235.5 798.429
236.5 977.143
237.5 984.714
238.5 927.143
239.5 741.714
240.5 619.572
241.5 917.857
242.5 637.429
243.5 1011.71
244.5 877.857
245.5 795
246.5 893
247.5 777.286
248.5 1043.86
249.5 944.571
250.5 913.286
251.5 1079.14
252.5 1101
253.5 991.714
254.5 1085.29
255.5 892.857
256.5 882.571
257.5 886
258.5 974.143
259.5 967.571
260.5 761.571
261.5 635
262.5 745.571
263.5 923.857
264.5 707.143
265.5 627.857
266.5 673.857
267.5 481
268.5 330.143
269.5 316.571
270.5 476.571
271.5 474.286
272.5 514.571
273.5 510
274.5 568.143
275.5 490
276.5 578.857
277.5 484.429
278.5 630.143
279.5 609.143
280.5 605.857
281.5 555.571
282.5 450
283.5 632.286
284.5 493.714
285.5 376.143
286.5 573.286
287.5 555.857
288.5 592.714
289.5 744.143
290.5 755.571
291.5 666.143
292.5 836.143
293.5 680.143
294.5 652.429
295.5 874.714
296.5 538.429
297.5 444
298.5 704.429
299.5 399.429
300.5 383.286
301.5 472.429
302.5 463
303.5 492
304.5 604.286
305.5 327.429
306.5 381.857
307.5 349.571
308.5 499.286
309.5 477
310.5 260.286
311.5 29.1429
312.5 -55.2857
313.5 208
314.5 140
315.5 465.429
316.5 649.571
317.5 456.143
318.5 644.857
319.5 400.571
320.5 742.429
321.5 396.429
322.5 413
323.5 436.429
324.5 700.143
325.5 1060.57
326.5 941.571
327.5 799
328.5 748.143
329.5 630.714
330.5 589.143
331.5 497.857
332.5 602.143
333.5 632.286
334.5 819.143
335.5 1038.29
336.5 909.571
337.5 1031.29
338.5 1022.71
339.5 1230.43
340.5 1121.14
341.5 940.143
342.5 1080.86
343.5 785.286
344.5 722.714
345.5 725.429
346.5 704.286
347.5 727.143
348.5 750.857
349.5 865.143
350.5 827.571
351.5 683.286
352.5 689.429
353.5 646.857
354.5 559.714
355.5 429.143
356.5 71.4286
357.5 -176.571
358.5 -260.429
359.5 -145
360.5 88.7143
361.5 327.571
362.5 402.571
363.5 326.857
364.5 663.143
365.5 221.143
366.5 253.429
367.5 522
368.5 260.714
369.5 255.286
370.5 346.429
371.5 363.857
372.5 261.143
373.5 449.286
374.5 271.143
375.5 452.857
376.5 548.143
377.5 392.571
378.5 575.286
379.5 479.857
380.5 422.429
381.5 342
382.5 419.857
383.5 439.714
384.5 338.429
385.5 261.143
386.5 371
387.5 384.429
388.5 500.714
389.5 407.286
390.5 397
391.5 475.143
392.5 345
393.5 400
394.5 512.429
395.5 457.714
396.5 459.714
397.5 388.571
398.5 455.571
399.5 554.143
400.5 626
401.5 813
402.5 2137.86
403.5 5851
404.5 6204
405.5 2376.29
406.5 773.286
407.5 401
408.5 160.571
409.5 376.143
410.5 219.143
411.5 -8.14282
412.5 31.2858
413.5 142.714
414.5 169.571
415.5 81.1429
416.5 269.714
417.5 399.857
418.5 390
419.5 429.143
420.5 379.714
421.5 489.714
422.5 402.286
423.5 348.571
424.5 405
425.5 370.571
426.5 516.286
427.5 572.714
428.5 378.714
429.5 347.143
430.5 525.714
431.5 517.857
432.5 474.143
433.5 575.571
434.5 530
435.5 727.571
436.5 658.714
437.5 733.143
438.5 617.143
439.5 709.143
440.5 608.857
441.5 670.571
442.5 608.286
443.5 478
444.5 341
445.5 438.429
446.5 230.143
447.5 260.714
448.5 137.143
449.5 163.429
450.5 270
451.5 122.143
452.5 197.143
453.5 246.857
454.5 128.571
455.5 62.7143
456.5 239
457.5 59.7143
458.5 79.5715
459.5 110.571
460.5 138.857
461.5 310.857
462.5 387.571
463.5 456.429
464.5 360.143
465.5 148.429
466.5 364
467.5 322
468.5 352.286
469.5 257.571
470.5 296.143
471.5 362
472.5 463.143
473.5 300.143
474.5 486.429
475.5 457
476.5 539.429
477.5 540.143
478.5 380.571
479.5 389.143
480.5 258
481.5 235.286
482.5 313.571
483.5 308.429
484.5 308.143
485.5 374.429
486.5 193.571
487.5 296.571
488.5 290.714
489.5 346.714
490.5 391.857
491.5 278.429
492.5 332.143
493.5 265.143
494.5 239.143
495.5 149
496.5 163.286
497.5 257.429
498.5 271
499.5 384.286
500.5 385
501.5 372
502.5 264.857
503.5 480.143
504.5 394.286
505.5 564.286
506.5 560.143
507.5 1009.14
508.5 2068.71
509.5 3548.86
510.5 4520.71
511.5 3413.86
512.5 2119.43
513.5 785.286
514.5 202
515.5 133.857
516.5 48.4286
517.5 52.2857
518.5 138.429
519.5 102.143
520.5 92.1429
521.5 260.714
522.5 225.714
523.5 373.143
524.5 366.714
525.5 184.286
526.5 212
527.5 255.857
528.5 256
529.5 251.286
530.5 113.429
531.5 316.286
532.5 268.857
533.5 456.571
534.5 364.571
535.5 212.857
536.5 398.857
537.5 463.143
538.5 356
539.5 508.714
540.5 604.571
541.5 690.429
542.5 613.714
543.5 560.429
544.5 597.143
545.5 439.143
546.5 468.571
547.5 441.571
548.5 346.143
549.5 387.286
550.5 267.286
551.5 296.571
552.5 340.286
553.5 269.143
554.5 365.571
555.5 333.286
556.5 285
557.5 281.286
558.5 97.2857
559.5 60.2857
560.5 -12.7143
561.5 -52.1428
562.5 46.1429
563.5 69.2857
564.5 162.857
565.5 106.714
566.5 377.286
567.5 210.286
568.5 257.286
569.5 425.857
570.5 346.857
571.5 313.429
572.5 355.429
573.5 200.571
574.5 221.143
575.5 275
576.5 234.143
577.5 348.143
578.5 319.429
579.5 258.286
580.5 339.286
581.5 727.429
582.5 2371
583.5 4299.86
584.5 2743.29
585.5 854.429
586.5 247.857
587.5 181
588.5 302
589.5 276.143
590.5 233
591.5 160.714
592.5 343.857
593.5 183.143
594.5 231.143
595.5 352.429
596.5 105.714
597.5 228.143
598.5 209.286
599.5 285.143
600.5 304.286
601.5 256.429
602.5 149.714
603.5 206.286
604.5 245.714
605.5 373.857
606.5 294
607.5 225.714
608.5 197.714
609.5 171.857
610.5 259.857
611.5 169.571
612.5 149.143
613.5 265.143
614.5 215
615.5 161.286
616.5 275.429
617.5 267.286
618.5 259.143
619.5 268.143
620.5 294.143
621.5 344.143
622.5 421
623.5 315.286
624.5 240.143
625.5 277
626.5 452.714
627.5 1285.43
628.5 2339.86
629.5 1681.57
630.5 596.714
631.5 170.286
632.5 233
633.5 211.714
634.5 282
635.5 229.429
636.5 -113.571
637.5 -413.571
638.5 -217
639.5 79.2857
640.5 167.714
641.5 189.714
642.5 144
643.5 245.143
644.5 172.286
645.5 186.429
646.5 228.714
647.5 198.857
648.5 107.714
649.5 227
650.5 249.143
651.5 550.429
652.5 373.286
653.5 172.143
654.5 202.857
655.5 333.429
656.5 187.571
657.5 196.286
658.5 163
659.5 115.143
660.5 307.143
661.5 238.143
662.5 317.857
663.5 632.429
664.5 1128.43
665.5 1094.29
666.5 800.571
667.5 572.857
668.5 366.143
669.5 278.714
670.5 283.857
671.5 308.857
672.5 168.857
673.5 367.143
674.5 315.714
675.5 161.571
676.5 244.857
677.5 132.857
678.5 130.143
679.5 249.714
680.5 135
681.5 163.286
682.5 111
683.5 155.429
684.5 52.7143
685.5 175.714
686.5 334
687.5 442.857
688.5 201.286
689.5 296.429
690.5 194.571
691.5 90.2857
692.5 237
693.5 211.714
694.5 306.571
695.5 258.143
696.5 128.429
697.5 199
698.5 316.857
699.5 159.429
700.5 206.286
701.5 201
702.5 110.286
703.5 147.429
704.5 257
705.5 168.714
706.5 105.143
707.5 243.429
708.5 111.143
709.5 200.143
710.5 262
711.5 255.286
712.5 301.143
713.5 264.714
714.5 258
715.5 175.714
716.5 216
717.5 277.714
718.5 243.429
719.5 249
720.5 230.429
721.5 294
722.5 178.714
723.5 206.857
724.5 284.571
725.5 233.714
726.5 189.286
727.5 243.429
728.5 211
729.5 205.857
730.5 220
731.5 223.857
732.5 183.429
733.5 219.286
734.5 259.143
735.5 189.429
736.5 221.286
737.5 177.714
738.5 207.857
739.5 64.7143
740.5 104.143
741.5 81.4286
742.5 -17.4286
743.5 140.286
744.5 114.429
745.5 207.429
746.5 206.286
747.5 199
748.5 145.143
749.5 165
750.5 304.714
751.5 199
752.5 199
753.5 180.429
754.5 290
755.5 182.714
756.5 301.714
757.5 151
758.5 305.286
759.5 1144
760.5 2856.14
761.5 3273
762.5 1321.14
763.5 598
764.5 391
765.5 444.143
766.5 368.286
767.5 307.143
768.5 257
769.5 378.857
770.5 402.571
771.5 334.714
772.5 262
773.5 277.429
774.5 242.143
775.5 197.429
776.5 303
777.5 189.143
778.5 220.714
779.5 342.714
780.5 99.1429
781.5 233.857
782.5 189
783.5 195.571
784.5 56.5714
785.5 79.8572
786.5 115.429
787.5 45.5715
788.5 100
789.5 140.143
790.5 116.286
791.5 278.857
792.5 314.429
793.5 128.714
794.5 195.143
795.5 170.429
796.5 246.429
797.5 104.143
798.5 49.1429
799.5 208
800.5 103.857
801.5 180
802.5 250.429
803.5 183.143
804.5 141.857
805.5 56.5715
806.5 -122.429
807.5 -167
808.5 -12.8571
809.5 229.429
810.5 173.286
811.5 247.714
812.5 322.714
813.5 349.571
814.5 437.143
815.5 227.429
816.5 321.429
817.5 273.857
818.5 249.143
819.5 248.143
820.5 110.429
821.5 176.571
822.5 170.143
823.5 203.429
824.5 289.429
825.5 245.286
826.5 227
827.5 187.143
828.5 194.286
829.5 242
830.5 186.286
831.5 70
832.5 205.714
833.5 76.5714
834.5 194.143
835.5 185.857
836.5 232.286
837.5 314.286
838.5 156.857
839.5 205.286
840.5 236.286
841.5 169.714
842.5 166.429
843.5 205.143
844.5 97.5714
845.5 162.714
846.5 201.714
847.5 158.429
848.5 275.429
849.5 124.429
850.5 272.429
851.5 324.429
852.5 177.857
853.5 245
854.5 283.571
855.5 332.857
856.5 327.714
857.5 272
858.5 252.429
859.5 200.429
860.5 236.143
861.5 330.714
862.5 259
863.5 232.286
864.5 302.571
865.5 406.857
866.5 247.714
867.5 936.143
868.5 1970.14
869.5 2535.14
870.5 1534.86
871.5 602
872.5 232.857
873.5 278.714
874.5 188
875.5 228.571
876.5 18.8572
877.5 20.1429
878.5 45.5715
879.5 43.7143
880.5 214.429
881.5 240.857
882.5 256
883.5 241.571
884.5 244.714
885.5 279
886.5 263.857
887.5 62
888.5 207.143
889.5 105.286
890.5 147
891.5 322.857
892.5 213.429
893.5 194.857
894.5 252.857
895.5 299.286
896.5 244.857
897.5 295.286
898.5 283.857
899.5 210.429
900.5 146.857
901.5 252
902.5 194.857
903.5 335.143
904.5 348.143
905.5 317.857
906.5 226.857
907.5 347.429
908.5 278
909.5 195.429
910.5 243
911.5 282.857
912.5 191.571
913.5 324.857
914.5 217
915.5 289
916.5 154
917.5 249
918.5 293.571
919.5 179.429
920.5 365.714
921.5 267.429
922.5 221.429
923.5 212.286
924.5 280
925.5 266.286
926.5 279.429
927.5 176.286
928.5 196.571
929.5 187.429
930.5 248.286
931.5 300.714
932.5 188.857
933.5 308.571
934.5 321.714
935.5 265.571
936.5 217.857
937.5 346.571
938.5 167.714
939.5 329.429
940.5 279.429
941.5 200.571
942.5 199
943.5 265.143
944.5 174.143
945.5 212.571
946.5 113.571
947.5 195
948.5 229.429
949.5 238.286
950.5 258.143
951.5 178.429
952.5 165.143
953.5 260.429
954.5 258.143
955.5 249.571
956.5 166.571
957.5 190.571
958.5 201.571
959.5 92.5714
960.5 130.143
961.5 258.714
962.5 194.857
963.5 248.857
964.5 261.571
965.5 212.143
966.5 54.5715
967.5 159.571
968.5 36.7143
969.5 85.8572
970.5 179.286
971.5 204.857
972.5 232.143
973.5 210.429
974.5 297.143
975.5 131.857
976.5 315.429
977.5 132.571
978.5 181.286
979.5 162.429
980.5 114.714
981.5 131.714
982.5 57
983.5 10
984.5 152.429
985.5 204.143
986.5 157.429
987.5 100.429
988.5 173.143
989.5 156.143
990.5 247.286
991.5 193.857
992.5 170.429
993.5 180.143
994.5 108.571
995.5 130.571
996.5 196.571
997.5 82.4286
998.5 143.571
999.5 369.571
1000.5 781
1001.5 1443.29
1002.5 1479.29
1003.5 624
1004.5 292.857
1005.5 297.429
1006.5 89
1007.5 174.429
1008.5 144.429
1009.5 140.857
1010.5 154.143
1011.5 110.143
1012.5 108.714
1013.5 93
1014.5 141.857
1015.5 96.2857
1016.5 128.143
1017.5 191.857
1018.5 201.429
1019.5 167.143
1020.5 191.286
1021.5 196.714
1022.5 305.429
1023.5 485.143
1024.5 919.143
1025.5 680.857
1026.5 265.571
1027.5 103.429
1028.5 152.286
1029.5 100.286
1030.5 81.7143
1031.5 209
1032.5 86.2857
1033.5 138
1034.5 142.143
1035.5 155
1036.5 142.143
1037.5 119.286
1038.5 158.429
1039.5 36.4286
1040.5 239.857
1041.5 149.714
1042.5 63.1429
1043.5 222
1044.5 157.286
1045.5 128.286
1046.5 187.714
1047.5 172.143
1048.5 48.8572
1049.5 32
1050.5 -40.4286
1051.5 85.8572
1052.5 157.714
1053.5 147.143
1054.5 202.143
1055.5 176.286
1056.5 201.286
1057.5 34.2857
1058.5 140.571
1059.5 183.714
1060.5 199
1061.5 234.857
1062.5 136.429
1063.5 163.429
1064.5 111.429
1065.5 138.286
1066.5 93.1429
1067.5 213.143
1068.5 47.8572
1069.5 68.5714
1070.5 145
1071.5 102.143
1072.5 193.857
1073.5 102.714
1074.5 22.8572
1075.5 96.1429
1076.5 120.857
1077.5 206.857
1078.5 228.714
1079.5 202.714
1080.5 62.8572
1081.5 117.857
1082.5 139.143
1083.5 60.5714
1084.5 130.857
1085.5 99.7143
1086.5 196.429
1087.5 293.571
1088.5 368.143
1089.5 347
1090.5 415.857
1091.5 369.143
1092.5 229.714
1093.5 206
1094.5 62.8572
1095.5 110.714
1096.5 148.857
1097.5 165.429
1098.5 134.857
1099.5 109.429
1100.5 125
1101.5 135.857
1102.5 162.714
1103.5 128.571
1104.5 133.143
1105.5 85.5714
1106.5 55.8572
1107.5 187.571
1108.5 116.571
1109.5 77
1110.5 143.714
1111.5 7.85715
1112.5 12
1113.5 99.7143
1114.5 151.857
1115.5 202.143
1116.5 70.7143
1117.5 63.1429
1118.5 111.429
1119.5 17.7143
1120.5 55.5714
1121.5 193.857
1122.5 258.429
1123.5 552.857
1124.5 1931.57
1125.5 4085.14
1126.5 4237.86
1127.5 2172.29
1128.5 630.857
1129.5 202.143
1130.5 143.857
1131.5 171.286
1132.5 123.286
1133.5 145.571
1134.5 126.286
1135.5 91.5714
1136.5 101.143
1137.5 155.714
1138.5 146.714
1139.5 159
1140.5 115.286
1141.5 122.571
1142.5 140
1143.5 117
1144.5 96.4286
1145.5 150
1146.5 115.286
1147.5 147.429
1148.5 79.1429
1149.5 128
1150.5 105.143
1151.5 97.2857
1152.5 132.429
1153.5 226.429
1154.5 1517.29
1155.5 4491
1156.5 9866.86
1157.5 10166.3
1158.5 4166.43
1159.5 1062
1160.5 316.857
1161.5 129.714
1162.5 122.714
1163.5 70.4286
1164.5 44
1165.5 169.286
1166.5 79.1429
1167.5 71.2857
1168.5 115.286
1169.5 81.7143
1170.5 20.8572
1171.5 136.571
1172.5 61.4286
1173.5 106.143
1174.5 36.4286
1175.5 96
1176.5 19.5714
1177.5 78.5714
1178.5 97.5714
1179.5 98.8571
1180.5 46.2857
1181.5 80.5714
1182.5 3.42858
1183.5 114.571
1184.5 79.4286
1185.5 84.4286
1186.5 85.2857
1187.5 108.143
1188.5 160.143
1189.5 75
1190.5 116.429
1191.5 5.71429
1192.5 103.857
1193.5 95.1429
1194.5 83
1195.5 73.2857
1196.5 40.4286
1197.5 60.2857
1198.5 51.2857
1199.5 88.8571
1200.5 65.4286
1201.5 45
1202.5 104.429
1203.5 56.5714
1204.5 176.571
1205.5 83.7143
1206.5 148.714
1207.5 77.4286
1208.5 62.2857
1209.5 21.1429
1210.5 79.7143
1211.5 111.286
1212.5 88.1429
1213.5 117.714
1214.5 85
1215.5 114
1216.5 111.286
1217.5 95.5714
1218.5 46.4286
1219.5 86.8571
1220.5 33
1221.5 125
1222.5 116.143
1223.5 21.1429
1224.5 37.2857
1225.5 73.8572
1226.5 19.2857
1227.5 -1.85713
1228.5 55.7143
1229.5 57
1230.5 87.5714
1231.5 109.714
1232.5 86.4286
1233.5 70.2857
1234.5 79.4286
1235.5 44.7143
1236.5 8.71429
1237.5 65.1429
1238.5 38.4286
1239.5 15.7143
1240.5 32.1429
1241.5 86.4286
1242.5 87.4286
1243.5 84.1429
1244.5 -2.42856
1245.5 46.4286
1246.5 79.1429
1247.5 135.429
1248.5 89.1429
1249.5 66.2857
1250.5 76.7143
1251.5 80.5714
1252.5 84.7143
1253.5 99.1429
1254.5 53.1429
1255.5 157
1256.5 84
1257.5 104.429
1258.5 40.1429
1259.5 99.7143
1260.5 163.714
1261.5 99
1262.5 49
1263.5 2.28572
1264.5 42.1429
1265.5 82.5714
1266.5 122.429
1267.5 105.429
1268.5 -31
1269.5 39.8571
1270.5 48.8571
1271.5 132.571
1272.5 79.1429
1273.5 82
1274.5 53.1429
1275.5 71
1276.5 58.2857
1277.5 79.1429
1278.5 -16.1428
1279.5 -8.71428
1280.5 63.5714
1281.5 57.4286
1282.5 56.7143
1283.5 122.429
1284.5 209.286
1285.5 89.7143
1286.5 49.8571
1287.5 28.2857
1288.5 68.7143
1289.5 61.4286
1290.5 86.2857
1291.5 86
1292.5 105.143
1293.5 134.429
1294.5 65
1295.5 63.5714
1296.5 80.7143
1297.5 56.1429
1298.5 77.4286
1299.5 36.4286
1300.5 27.4286
1301.5 89.8571
1302.5 21.2857
1303.5 74.7143
1304.5 56.4286
1305.5 157.286
1306.5 426
1307.5 1267.14
1308.5 2817.86
1309.5 3025.86
1310.5 1564.43
1311.5 277.429
1312.5 -63.2857
1313.5 39.1429
1314.5 49.1429
1315.5 60
1316.5 81.8571
1317.5 72.5714
1318.5 32
1319.5 95.1429
1320.5 56.8571
1321.5 -11
1322.5 37.7143
1323.5 69.2857
1324.5 3.00001
1325.5 16.2857
1326.5 54.7143
1327.5 52.1429
1328.5 -2.42856
1329.5 129.143
1330.5 77.8571
1331.5 93.5714
1332.5 29
1333.5 62.7143
1334.5 74.2857
1335.5 44
1336.5 30.5714
1337.5 6.31809e-06
1338.5 72
1339.5 67.2857
1340.5 29.1429
1341.5 49.1429
1342.5 71.1429
1343.5 62.1429
1344.5 78.5714
1345.5 39.5714
1346.5 63
1347.5 63.8571
1348.5 57.2857
1349.5 61.8571
1350.5 66.1429
1351.5 38.8571
1352.5 59.1429
1353.5 0.285722
1354.5 75.1429
1355.5 52.7143
1356.5 43.4286
1357.5 61.1429
1358.5 121.571
1359.5 68
1360.5 60.7143
1361.5 46.5714
1362.5 -29.5714
1363.5 17.7143
1364.5 13.8571
1365.5 -11.2857
1366.5 41.1429
1367.5 101.571
1368.5 5.42858
1369.5 -33
1370.5 35.1429
1371.5 118.429
1372.5 7.85715
1373.5 1.28572
1374.5 91.8571
1375.5 46.2857
1376.5 130.857
1377.5 38.8571
1378.5 40
1379.5 6.57143
1380.5 72.4286
1381.5 70.2857
1382.5 35.8571
1383.5 97.7143
1384.5 12.4286
1385.5 66.4286
1386.5 73
1387.5 137
1388.5 174.714
1389.5 101.571
1390.5 76.1429
1391.5 73.1429
1392.5 58.5714
1393.5 31.5714
1394.5 9.00001
1395.5 35.1429
1396.5 11
1397.5 57.5714
1398.5 -30.8571
1399.5 83.5714
1400.5 105
1401.5 74.5714
1402.5 76.2857
1403.5 68.5714
1404.5 60.1429
1405.5 38.5714
1406.5 63.4286
1407.5 119.429
1408.5 21
1409.5 6.71429
1410.5 20.4286
1411.5 38.4286
1412.5 -15.7143
1413.5 62
1414.5 77.4286
1415.5 132
1416.5 93.4286
1417.5 21.5714
1418.5 66
1419.5 8.71429
1420.5 33.7143
1421.5 38.7143
1422.5 37.7143
1423.5 76.7143
1424.5 87.4286
1425.5 160.429
1426.5 377.714
1427.5 1077.57
1428.5 1546.43
1429.5 1175.57
1430.5 449.143
1431.5 139.429
1432.5 61.8571
1433.5 66.5714
1434.5 130.571
1435.5 50.8571
1436.5 70.1429
1437.5 41.4286
1438.5 38.5714
1439.5 96.5714
1440.5 125.286
1441.5 64.2857
1442.5 86
1443.5 122.857
1444.5 28.8571
1445.5 58
1446.5 78
1447.5 66
1448.5 102.429
1449.5 53.8571
1450.5 73.4286
1451.5 78.1429
1452.5 -10.7143
1453.5 89.1429
1454.5 52.5714
1455.5 19
1456.5 -7.57142
1457.5 -18
1458.5 69.4286
1459.5 -23.2857
1460.5 68.4286
1461.5 56.7143
1462.5 2.42858
1463.5 67.1429
1464.5 94.4286
1465.5 64
1466.5 21.7143
1467.5 76.2857
1468.5 94.1429
1469.5 -17.5714
1470.5 53.1429
1471.5 69
1472.5 62.7143
1473.5 29.8571
1474.5 36.4286
1475.5 65.7143
1476.5 44.4286
1477.5 -5.28571
1478.5 27
1479.5 -8.99999
1480.5 79.4286
1481.5 50.1429
1482.5 88.2857
1483.5 -48.2857
1484.5 81.5714
1485.5 52.2857
1486.5 71.2857
1487.5 34.4286
1488.5 45.2857
1489.5 48.2857
1490.5 -1.28571
1491.5 47.7143
1492.5 107.714
1493.5 4.71429
1494.5 97.2857
1495.5 47.5714
1496.5 172.143
1497.5 54.5714
1498.5 306.571
1499.5 430.286
1500.5 309.857
1501.5 60
1502.5 69
1503.5 29.7143
1504.5 37.2857
1505.5 74.7143
1506.5 107.571
1507.5 87.2857
1508.5 76.8571
1509.5 27.5714
1510.5 77.8571
1511.5 59.5714
1512.5 4.71429
1513.5 30.4286
1514.5 69.4286
1515.5 -19.4286
1516.5 68
1517.5 121
1518.5 70.2857
1519.5 70.8571
1520.5 41.2857
1521.5 39
1522.5 108.429
1523.5 23
1524.5 94.5714
1525.5 61
1526.5 25.8571
1527.5 13
1528.5 67.2857
1529.5 84.7143
1530.5 17.8571
1531.5 34.7143
1532.5 48.8571
1533.5 31.2857
1534.5 68.4286
1535.5 28.7143
1536.5 16.1429
1537.5 26.2857
1538.5 -9.42856
1539.5 -158.429
1540.5 -17.8571
1541.5 29
1542.5 50.7143
1543.5 42.2857
1544.5 28.8571
1545.5 9.57143
1546.5 54.5714
1547.5 42.7143
1548.5 61.1429
1549.5 50.5714
1550.5 56.4286
1551.5 87.7143
1552.5 63.8571
1553.5 45.2857
1554.5 46.8571
1555.5 57.2857
1556.5 3.28572
1557.5 53.7143
1558.5 37.7143
1559.5 23.7143
1560.5 32.1429
1561.5 15.8571
1562.5 23.2857
1563.5 90.2857
1564.5 63.2857
1565.5 101.143
1566.5 127.143
1567.5 93.1429
1568.5 54.2857
1569.5 71.2857
1570.5 12.4286
1571.5 40.5714
1572.5 61.1429
1573.5 35.5714
1574.5 27.1429
1575.5 47.2857
1576.5 42
1577.5 25.2857
1578.5 62.4286
1579.5 82.1429
1580.5 50.2857
1581.5 93.7143
1582.5 30.1429
1583.5 135.571
1584.5 29.4286
1585.5 22.8571
1586.5 90.8571
1587.5 176
1588.5 219.429
1589.5 247.286
1590.5 195
1591.5 120.143
1592.5 39.4286
1593.5 78.2857
1594.5 4.88758e-06
1595.5 8.28572
1596.5 25
1597.5 -3.14285
1598.5 92.2857
1599.5 73.5714
1600.5 52.5714
1601.5 80.4286
1602.5 68.7143
1603.5 49.7143
1604.5 71.8571
1605.5 116.857
1606.5 59.1429
1607.5 67.7143
1608.5 56.8571
1609.5 -12
1610.5 37.2857
1611.5 37.4286
1612.5 71.4286
1613.5 31.4286
1614.5 33.1429
1615.5 37.1429
1616.5 93.1429
1617.5 -20
1618.5 75.4286
1619.5 121.571
1620.5 15.7143
1621.5 29.1429
1622.5 100.143
1623.5 147
1624.5 200.286
1625.5 83.5714
1626.5 150.714
1627.5 47
1628.5 35.5714
1629.5 169
1630.5 232
1631.5 175.143
1632.5 71.8572
1633.5 34.7143
1634.5 48.2857
1635.5 39
1636.5 77.1429
1637.5 65.5714
1638.5 16.1429
1639.5 69
1640.5 -27.2857
1641.5 7.42858
1642.5 -17.7143
1643.5 23
1644.5 38.4286
1645.5 121.429
1646.5 72.7143
1647.5 27.4286
1648.5 -17.4286
1649.5 -4.57142
1650.5 76.5714
1651.5 59.5714
1652.5 29.4286
1653.5 48.4286
1654.5 26.1429
1655.5 -11.2857
1656.5 91.4286
1657.5 21.2857
1658.5 -23.5714
1659.5 7.71429
1660.5 66.5714
1661.5 62.5714
1662.5 35.1429
1663.5 47.7143
1664.5 87.1429
1665.5 82
1666.5 -33
1667.5 5.85715
1668.5 76.2857
1669.5 92
1670.5 34.7143
1671.5 -18.2857
1672.5 62
1673.5 2.57143
1674.5 -7.42857
1675.5 74.8571
1676.5 34.2857
1677.5 63.1429
1678.5 -0.428567
1679.5 -22.2857
1680.5 54.5714
1681.5 24.7143
1682.5 76.2857
1683.5 63
1684.5 94.8571
1685.5 57.7143
1686.5 96
1687.5 12.2857
1688.5 42.5714
1689.5 115
1690.5 75.8571
1691.5 21.8571
1692.5 48.2857
1693.5 39
1694.5 53.8571
1695.5 67.1429
1696.5 72.4286
1697.5 56.1429
1698.5 82
1699.5 9.57143
1700.5 23
1701.5 17.1429
1702.5 69
1703.5 72.1429
1704.5 47.2857
1705.5 5.14286
1706.5 27.7143
1707.5 53
1708.5 34
1709.5 8.00001
1710.5 91.8571
1711.5 48.5714
1712.5 28.2857
1713.5 39
1714.5 104.857
1715.5 34.8571
1716.5 22.8571
1717.5 72.8571
1718.5 85.7143
1719.5 -7.28571
1720.5 35
1721.5 50.2857
1722.5 8.42858
1723.5 83.8571
1724.5 56.2857
1725.5 164.143
1726.5 -18.4286
1727.5 58
1728.5 72.5714
1729.5 61.5714
1730.5 89.1429
1731.5 55.2857
1732.5 148.714
1733.5 64.2857
1734.5 93.7143
1735.5 28.1429
1736.5 44.1429
1737.5 36
1738.5 110.143
1739.5 87.8571
1740.5 193.143
1741.5 308.429
1742.5 280.714
1743.5 193
1744.5 88
1745.5 27.8571
1746.5 67.1429
1747.5 77.1429
1748.5 44.2857
1749.5 -18.1429
1750.5 33.7143
1751.5 84.1429
1752.5 61.2857
1753.5 47.4286
1754.5 62.2857
1755.5 -17.5714
1756.5 25.5714
1757.5 66
1758.5 27.8571
1759.5 26.5714
1760.5 34.5714
1761.5 64.1429
1762.5 49.5714
1763.5 80.1429
1764.5 24
1765.5 56.5714
1766.5 100.286
1767.5 115.714
1768.5 91.1429
1769.5 68.4286
1770.5 62
1771.5 -16.8571
1772.5 -3.99999
1773.5 6.57143
1774.5 37.1429
1775.5 19.2857
1776.5 40.5714
1777.5 40.8571
1778.5 83
1779.5 72.2857
1780.5 43.5714
1781.5 71.8571
1782.5 106.143
1783.5 13.5714
1784.5 48.2857
1785.5 3.28572
1786.5 35.4286
1787.5 -6.42857
1788.5 17.8571
1789.5 18.1429
1790.5 73.2857
1791.5 58.8571
1792.5 97
1793.5 34.2857
1794.5 -4
1795.5 -7.42857
1796.5 24.4286
1797.5 10.8571
1798.5 27.7143
1799.5 77
1800.5 -13.8571
1801.5 34.4286
1802.5 41.7143
1803.5 35
1804.5 85.1429
1805.5 70.4286
1806.5 62.2857
1807.5 -8.42857
1808.5 81.2857
1809.5 -17.2857
1810.5 40.8571
1811.5 40.7143
1812.5 51.4286
1813.5 58.8571
1814.5 -25.4286
1815.5 60.1429
1816.5 87.8571
1817.5 39
1818.5 63.4286
1819.5 42.8571
1820.5 64.4286
1821.5 48
1822.5 8.85715
1823.5 84.7143
1824.5 5.57143
1825.5 76
1826.5 90
1827.5 93.5714
1828.5 38.4286
1829.5 78.7143
1830.5 57.2857
1831.5 23.7143
1832.5 -4.57142
1833.5 20.4286
1834.5 91.2857
1835.5 50.5714
1836.5 22.2857
1837.5 20.8571
1838.5 22.8571
1839.5 82.4286
1840.5 79.5714
1841.5 30.2857
1842.5 52.4286
1843.5 21.2857
1844.5 69.1429
1845.5 -5.71428
1846.5 62.4286
1847.5 38.5714
1848.5 71.2857
1849.5 43.2857
1850.5 44.1429
1851.5 115.429
1852.5 76.2857
1853.5 85
1854.5 78.8571
1855.5 22
1856.5 106.429
1857.5 78.4286
1858.5 78.7143
1859.5 53.1429
1860.5 62.8571
1861.5 135.571
1862.5 48.8571
1863.5 2.85715
1864.5 -0.28571
1865.5 14.7143
1866.5 52.8571
1867.5 68.2857
1868.5 24.5714
1869.5 34.4286
1870.5 100.857
1871.5 71.8572
1872.5 32.2857
1873.5 66.5714
1874.5 7.14286
1875.5 27.5714
1876.5 66.8571
1877.5 10
1878.5 56.8571
1879.5 31.5714
1880.5 29.7143
1881.5 45.8571
1882.5 117.857
1883.5 127
1884.5 241.429
1885.5 688.857
1886.5 1424.29
1887.5 1220.43
1888.5 701
1889.5 221.714
1890.5 64
1891.5 14
1892.5 92.5714
1893.5 57
1894.5 -0.999996
1895.5 25
1896.5 50.1429
1897.5 23.2857
1898.5 67.2857
1899.5 -12.8571
1900.5 47.8571
1901.5 78.1429
1902.5 43.4286
1903.5 45.2857
1904.5 24.4286
1905.5 14.5714
1906.5 69.8571
1907.5 45.5714
1908.5 15.5714
1909.5 40.7143
1910.5 21.7143
1911.5 65
1912.5 4.14286
1913.5 35
1914.5 22
1915.5 33.4286
1916.5 35.4286
1917.5 73.2857
1918.5 38.4286
1919.5 43
1920.5 74.5714
1921.5 22.8571
1922.5 26.2857
1923.5 64.8571
1924.5 25
1925.5 26.7143
1926.5 50
1927.5 49
1928.5 14
1929.5 9.14286
1930.5 33
1931.5 88.2857
1932.5 54.2857
1933.5 64.4286
1934.5 22.1429
1935.5 79.2857
1936.5 28.4286
1937.5 93.8571
1938.5 57.1429
1939.5 29
1940.5 20.2857
1941.5 -2.71428
1942.5 -30.1428
1943.5 -11.8571
1944.5 69.8571
1945.5 107
1946.5 86
1947.5 20
1948.5 28.4286
1949.5 59.4286
1950.5 23.5714
1951.5 2.57143
1952.5 51.5714
1953.5 42.5714
1954.5 48
1955.5 50
1956.5 43.8571
1957.5 220.143
1958.5 346.429
1959.5 256.143
1960.5 169.571
1961.5 92.2857
1962.5 69.4286
1963.5 50.1429
1964.5 94.5714
1965.5 9.57143
1966.5 23.4286
1967.5 54.7143
1968.5 23
1969.5 26
1970.5 40.4286
1971.5 15.5714
1972.5 42.2857
1973.5 46
1974.5 55.5714
1975.5 32.7143
1976.5 70.2857
1977.5 32.4286
1978.5 27.1429
1979.5 65.2857
1980.5 -23
1981.5 45.2857
1982.5 22.5714
1983.5 44.8571
1984.5 82.5714
1985.5 27.2857
1986.5 38.1429
1987.5 67.5714
1988.5 41.4286
1989.5 77.1429
1990.5 66
1991.5 12.1429
1992.5 -15.2857
1993.5 50.7143
1994.5 32.8571
1995.5 78.2857
1996.5 63.5714
1997.5 27.2857
1998.5 69.4286
1999.5 32.4286
2000.5 42
2001.5 6.42858
2002.5 -16
2003.5 69.2857
2004.5 23.1429
2005.5 68.8571
2006.5 51.4286
2007.5 -20.5714
2008.5 80.2857
2009.5 48.4286
2010.5 80.5714
2011.5 22.8571
2012.5 9.42858
2013.5 -28.5714
2014.5 59.8571
2015.5 30.2857
2016.5 53
2017.5 51.7143
2018.5 99
2019.5 34.1429
2020.5 24.7143
2021.5 -9.14285
2022.5 21.7143
2023.5 74
2024.5 46.5714
2025.5 72
2026.5 51.1429
2027.5 3
2028.5 16.7143
2029.5 88
2030.5 23.5714
2031.5 70.2857
2032.5 43.7143
2033.5 27.5714
2034.5 40.8571
2035.5 12.8571
2036.5 24.7143
2037.5 59.5714
2038.5 77.5714
2039.5 63.7143
2040.5 33.7143
2041.5 -12.5714
2042.5 45.8571
2043.5 38.8571
2044.5 21.2857
2045.5 -34.5714
2046.5 -35.2857
2047.5 -77.5714
2048.5 13.8571
2049.5 33.2857
2050.5 13.4286
2051.5 -16
2052.5 5.71429
2053.5 -19.5714
2054.5 13.8571
2055.5 -34
2056.5 37.7143
2057.5 7.57143
2058.5 8.71429
2059.5 24.4286
2060.5 8.14286
2061.5 23
2062.5 49
2063.5 37.2857
2064.5 42.2857
2065.5 28.7143
2066.5 -29.5714
2067.5 85.5714
2068.5 81.4286
2069.5 76.7143
2070.5 -1.28571
2071.5 62.5714
2072.5 67.7143
2073.5 40.5714
2074.5 56.7143
2075.5 70.1429
2076.5 66.5714
2077.5 29.4286
2078.5 62.7143
2079.5 37.4286
2080.5 85.5714
2081.5 30
2082.5 23.5714
2083.5 12
2084.5 65
2085.5 67.2857
2086.5 78.8571
2087.5 4.00001
2088.5 4.14286
2089.5 57.5714
2090.5 52.7143
2091.5 56.8571
2092.5 17.5714
2093.5 24.5714
2094.5 71.7143
2095.5 -10.8571
2096.5 20.1429
2097.5 41.2857
2098.5 87.1429
2099.5 23.8572
2100.5 71.8571
2101.5 -9.14285
2102.5 36.4286
2103.5 82.8571
2104.5 18.8571
2105.5 -17.4286
2106.5 85.4286
2107.5 15.7143
2108.5 -11.5714
2109.5 32.1429
2110.5 6.28572
2111.5 18.8571
2112.5 41
2113.5 49.8571
2114.5 189
2115.5 183.286
2116.5 193.143
2117.5 123.714
2118.5 79.5714
2119.5 1.42858
2120.5 69.8571
2121.5 17.7143
2122.5 23.4286
2123.5 57.8571
2124.5 71.5714
2125.5 47.8571
2126.5 5.71429
2127.5 33.8571
2128.5 62.2857
2129.5 27.4286
2130.5 5.71429
2131.5 9.57143
2132.5 33.5714
2133.5 54.4286
2134.5 25.4286
2135.5 5.71429
2136.5 37.8571
2137.5 51.4286
2138.5 41.1429
2139.5 12
2140.5 26
2141.5 51.4286
2142.5 36.5714
2143.5 29.1429
2144.5 43
2145.5 84.2857
2146.5 109.714
2147.5 165
2148.5 422.857
2149.5 869.429
2150.5 1173.29
2151.5 970
2152.5 407.857
2153.5 128.143
2154.5 2.42858
2155.5 33.1429
2156.5 46.4286
2157.5 68
2158.5 56.8571
2159.5 32.5714
2160.5 56.5714
2161.5 44.8571
2162.5 28
2163.5 44.4286
2164.5 13.1429
2165.5 -0.714282
2166.5 4.42858
2167.5 21.5714
2168.5 19.8571
2169.5 24.2857
2170.5 1.42857
2171.5 22
2172.5 30.2857
2173.5 22
2174.5 14.4286
2175.5 -2
2176.5 50.7143
2177.5 21
2178.5 -32.4286
2179.5 8.85715
2180.5 24.5714
2181.5 21.8571
2182.5 11
2183.5 28.7143
2184.5 59.2857
2185.5 30.7143
2186.5 118.429
2187.5 81
2188.5 54.7143
2189.5 113
2190.5 61
2191.5 29.7143
2192.5 58
2193.5 51.5714
2194.5 23.8571
2195.5 22.5714
2196.5 30.5714
2197.5 39.2857
2198.5 30.2857
2199.5 9.85715
2200.5 72.5714
2201.5 26.5714
2202.5 13.1429
2203.5 39.1429
2204.5 23.1429
2205.5 17.8571
2206.5 69.5714
2207.5 58.2857
2208.5 90.7143
2209.5 58
2210.5 -9.71428
2211.5 23.5714
2212.5 25.5714
2213.5 38.7143
2214.5 7.28572
2215.5 48.2857
2216.5 70.8571
2217.5 29.5714
2218.5 43.5714
2219.5 64.4286
2220.5 110.714
2221.5 52.5714
2222.5 72.5714
2223.5 48.8571
2224.5 36.5714
2225.5 -0.999996
2226.5 45.2857
2227.5 4.71429
2228.5 71.5714
2229.5 25.4286
2230.5 35.4286
2231.5 58.5714
2232.5 71.8571
2233.5 33.7143
2234.5 53.4286
2235.5 91.4286
2236.5 -3
2237.5 45.8571
2238.5 9.57143
2239.5 -7.85714
2240.5 45.1429
2241.5 26.4286
2242.5 21.2857
2243.5 42.5714
2244.5 37.2857
2245.5 2
2246.5 7.57143
2247.5 45.5714
2248.5 -23
2249.5 27.5714
2250.5 37.1429
2251.5 -2
2252.5 2.28572
2253.5 7.28572
2254.5 35.8571
2255.5 36.4286
2256.5 45.5714
2257.5 56.4286
2258.5 9
2259.5 30.8571
2260.5 17
2261.5 -12.4286
2262.5 18
2263.5 56.2857
2264.5 41.8571
2265.5 17.2857
2266.5 26.4286
2267.5 34.1429
2268.5 -2.28571
2269.5 83.4286
2270.5 58.2857
2271.5 36.4286
2272.5 43.8571
2273.5 28
2274.5 24
2275.5 2
2276.5 39.2857
2277.5 57.4286
2278.5 63.2857
2279.5 83.8571
2280.5 74.8571
2281.5 45.5714
2282.5 6.71429
2283.5 14.5714
2284.5 16.2857
2285.5 44
2286.5 77.7143
2287.5 3.57143
2288.5 19
2289.5 32
2290.5 53.4286
2291.5 39.2857
2292.5 -3.42857
2293.5 -2.71428
2294.5 44.1429
2295.5 38.5714
2296.5 -8.85714
2297.5 -0.714281
2298.5 3.85715
2299.5 -18.2857
2300.5 -126
2301.5 -98
2302.5 -42.4286
2303.5 -35.2857
2304.5 -0.142854
2305.5 35.4286
2306.5 28.1429
2307.5 31.5714
2308.5 41.5714
2309.5 64
2310.5 63.1429
2311.5 86.2857
2312.5 33.2857
2313.5 56.8571
2314.5 29
2315.5 -19.8571
2316.5 25.5714
2317.5 25.8571
2318.5 31.2857
2319.5 21
2320.5 31.4286
2321.5 84.4286
2322.5 40.1429
2323.5 22.7143
2324.5 -16
2325.5 24.5714
2326.5 -17.5714
2327.5 36.2857
2328.5 35.5714
2329.5 2.14286
2330.5 47.7143
2331.5 44
2332.5 50.1429
2333.5 38.5714
2334.5 38.2857
2335.5 28
2336.5 46.1429
2337.5 24.7143
2338.5 16.5714
2339.5 11.8571
2340.5 46.5714
2341.5 52.8571
2342.5 44.1429
2343.5 51.4286
2344.5 20.4286
2345.5 20.7143
2346.5 39.5714
2347.5 36.7143
2348.5 52.4286
2349.5 54.4286
2350.5 28.5714
2351.5 22.1429
2352.5 3.33786e-06
2353.5 82.5714
2354.5 6.85715
2355.5 26.5714
2356.5 68.5714
2357.5 29.7143
2358.5 9.71429
2359.5 37.7143
2360.5 18.5714
2361.5 21.2857
2362.5 -2.57143
2363.5 26.1429
2364.5 12.4286
2365.5 44.2857
2366.5 50.2857
2367.5 60
2368.5 5.85715
2369.5 21.1429
2370.5 -3.42857
2371.5 52
2372.5 25
2373.5 22.1429
2374.5 10.5714
2375.5 -7.57142
2376.5 8.71429
2377.5 10
2378.5 23.5714
2379.5 35.4286
2380.5 66.7143
2381.5 54.5714
2382.5 39
2383.5 20.7143
2384.5 -13.4286
2385.5 6.28572
2386.5 42.7143
2387.5 52.7143
2388.5 47
2389.5 35.2857
2390.5 53.1429
2391.5 28.4286
2392.5 34
2393.5 32.5714
2394.5 39.5714
2395.5 -9
2396.5 44
2397.5 86
2398.5 23.2857
2399.5 40.2857
2400.5 42
2401.5 48.8571
2402.5 49.7143
2403.5 52.5714
2404.5 2.28572
2405.5 0.857146
2406.5 -16.7143
2407.5 9.57143
2408.5 40.5714
2409.5 43
2410.5 12.2857
2411.5 3
2412.5 28.2857
2413.5 -7.14285
2414.5 18.1429
2415.5 55.1429
2416.5 20.2857
2417.5 11.5714
2418.5 19.7143
2419.5 4.57143
2420.5 40.2857
2421.5 21.5714
2422.5 74.7143
2423.5 54.7143
2424.5 56.5714
2425.5 21.7143
2426.5 -16.5714
2427.5 -22.2857
2428.5 29.8571
2429.5 32
2430.5 9
2431.5 32.4286
2432.5 36.8571
2433.5 29.2857
2434.5 -1.28571
2435.5 44.5714
2436.5 34.4286
2437.5 33.8571
2438.5 35.5714
2439.5 55.4286
2440.5 50.7143
2441.5 5.71429
2442.5 26
2443.5 13.7143
2444.5 44.1429
2445.5 124.143
2446.5 231
2447.5 231
2448.5 232.286
2449.5 120.714
2450.5 43.5714
2451.5 30
2452.5 5.42857
2453.5 37.7143
2454.5 27
2455.5 46.8571
2456.5 -13.7143
2457.5 43.1429
2458.5 21.8571
2459.5 33.4286
2460.5 1.14286
2461.5 17.2857
2462.5 26.1429
2463.5 42.5714
2464.5 38.1429
2465.5 67.2857
2466.5 27.5714
2467.5 -12.4286
2468.5 31.1429
2469.5 11.1429
2470.5 -7.85714
2471.5 -11.7143
2472.5 -6.85714
2473.5 -58.2857
2474.5 -34.4286
2475.5 -9.28571
2476.5 34.5714
2477.5 43.5714
2478.5 77.1429
2479.5 44.5714
2480.5 11.4286
2481.5 24.5714
2482.5 25.8571
2483.5 -16.5714
2484.5 60
2485.5 -5.85714
2486.5 26.2857
2487.5 11.2857
2488.5 38.2857
2489.5 26.4286
2490.5 -5.57142
2491.5 27
2492.5 33.1429
2493.5 25.4286
2494.5 37.7143
2495.5 -4.42857
2496.5 14.7143
2497.5 76.1429
2498.5 26.4286
2499.5 -1.71428
2500.5 6.57143
2501.5 36.7143
2502.5 7.28572
2503.5 8.42857
2504.5 38.1429
2505.5 -3.85714
2506.5 28
2507.5 10.5714
2508.5 20.8571
2509.5 22.7143
2510.5 12.5714
2511.5 23.5714
2512.5 47.2857
2513.5 5.14286
2514.5 22.7143
2515.5 18
2516.5 -10
2517.5 45.7143
2518.5 41.1429
2519.5 88.8572
2520.5 29
2521.5 11
2522.5 12.7143
2523.5 -9
2524.5 106.714
2525.5 89.1429
2526.5 259.714
2527.5 488.286
2528.5 837.571
2529.5 997
2530.5 655.714
2531.5 283.143
2532.5 84
2533.5 49.2857
2534.5 -17.4286
2535.5 -5
2536.5 28.4286
2537.5 19.7143
2538.5 25.4286
2539.5 1.14286
2540.5 -8.28571
2541.5 25.1429
2542.5 29
2543.5 33.2857
2544.5 34.2857
2545.5 38.5714
2546.5 43.8571
2547.5 -0.571425
2548.5 49.1429
2549.5 39.2857
2550.5 45.1429
2551.5 14.4286
2552.5 12.5714
2553.5 53.8571
2554.5 67.5714
2555.5 56.4286
2556.5 96.2857
2557.5 45.7143
2558.5 -16.2857
2559.5 12.1429
2560.5 6.28572
2561.5 -10.4286
2562.5 35.1429
2563.5 51
2564.5 25.7143
2565.5 7.14286
2566.5 62.4286
2567.5 59.2857
2568.5 66.7143
2569.5 17
2570.5 70.2857
2571.5 2.74181e-06
2572.5 36.4286
2573.5 20.7143
2574.5 5.28572
2575.5 5.14286
2576.5 11.5714
2577.5 53.4286
2578.5 16
2579.5 24.2857
2580.5 -44.5714
2581.5 -36.1429
2582.5 27.1429
2583.5 1.28572
2584.5 48.4286
2585.5 17.5714
2586.5 -14.2857
2587.5 14
2588.5 29.7143
2589.5 -29.4286
2590.5 8.14286
2591.5 -16.8571
2592.5 30.7143
2593.5 3.14286
2594.5 11.4286
2595.5 12.7143
2596.5 21.8571
2597.5 57
2598.5 42.8571
2599.5 -25.1429
2600.5 74.4286
2601.5 110.143
2602.5 44.7143
2603.5 57.7143
2604.5 16.1429
2605.5 31.8571
2606.5 43.8571
2607.5 56.7143
2608.5 56.5714
2609.5 -8.42857
2610.5 26.1429
2611.5 -17
2612.5 -44.2857
2613.5 14.5714
2614.5 -20.5714
2615.5 30.1429
2616.5 -43.5714
2617.5 -86.8571
2618.5 -144.857
2619.5 -194.714
2620.5 -85.8571
2621.5 -4.28571
2622.5 3.85715
2623.5 3.85715
2624.5 24.5714
2625.5 38.5714
2626.5 35.4286
2627.5 20.4286
2628.5 28.5714
2629.5 40.5714
2630.5 17.1429
2631.5 -21
2632.5 19.8571
2633.5 -3.28571
2634.5 27.8571
2635.5 33.5714
2636.5 56.7143
2637.5 -50.1429
2638.5 7.42857
2639.5 -12.1429
2640.5 46.8571
2641.5 22
2642.5 28.4286
2643.5 -1.57143
2644.5 2.57143
2645.5 5.85715
2646.5 0.285717
2647.5 -5.28571
2648.5 -13.1429
2649.5 12.5714
2650.5 -24.8571
2651.5 29.7143
2652.5 52.7143
2653.5 -1.42857
2654.5 46.5714
2655.5 54
2656.5 89.1429
2657.5 101.429
2658.5 48.4286
2659.5 54
2660.5 21.5714
2661.5 40.2857
2662.5 34.8571
2663.5 58.4286
2664.5 31.7143
2665.5 28.8571
2666.5 18.8571
2667.5 71
2668.5 56.2857
2669.5 43.4286
2670.5 -12.4286
2671.5 8.42857
2672.5 -25.8571
2673.5 30.8571
2674.5 15.1429
2675.5 -33.5714
2676.5 39.4286
2677.5 28.8571
2678.5 -16.1429
2679.5 -4.57143
2680.5 22.7143
2681.5 19
2682.5 4.28572
2683.5 -47.8571
2684.5 5.14286
2685.5 -1.14285
2686.5 -0.142854
2687.5 -4.42857
2688.5 28.4286
2689.5 14.5714
2690.5 19.4286
2691.5 6.57143
2692.5 40.1429
2693.5 58.7143
2694.5 60.2857
2695.5 26.7143
2696.5 64.4286
2697.5 38.4286
2698.5 43.1429
2699.5 33.2857
2700.5 -0.142855
2701.5 28.7143
2702.5 31.4286
2703.5 7.28572
2704.5 37.7143
2705.5 40.7143
2706.5 17.1429
2707.5 19
2708.5 -14.1429
2709.5 15.1429
2710.5 -3.57143
2711.5 9
2712.5 15.8571
2713.5 25.1429
2714.5 43.1429
2715.5 53.4286
2716.5 15.2857
2717.5 32.1429
2718.5 23.2857
2719.5 13.5714
2720.5 28.1429
2721.5 52.8571
2722.5 -36.4286
2723.5 49
2724.5 43.7143
2725.5 42.4286
2726.5 65.5714
2727.5 35.7143
2728.5 21
2729.5 85.2857
2730.5 73.1429
2731.5 74.2857
2732.5 68.7143
2733.5 37.7143
2734.5 37.1429
2735.5 9.57143
2736.5 35.2857
2737.5 47.1429
2738.5 11.4286
2739.5 7.85715
2740.5 14.8571
2741.5 15.5714
2742.5 61.4286
2743.5 -26.1429
2744.5 13.5714
2745.5 31
2746.5 42.5714
2747.5 21.4286
2748.5 45
2749.5 26.1429
2750.5 9.71429
2751.5 37.5714
2752.5 12.7143
2753.5 36
2754.5 52.8571
2755.5 12.5714
2756.5 -11.5714
2757.5 -0.285711
2758.5 -6.42857
2759.5 31.2857
2760.5 -65.5714
2761.5 14.7143
2762.5 -12
2763.5 -6.71428
2764.5 23.7143
2765.5 9.28572
2766.5 23.1429
2767.5 20.2857
2768.5 43.8571
2769.5 -3.71428
2770.5 4.57143
2771.5 15.5714
2772.5 36.1429
2773.5 21.2857
2774.5 -0.571426
2775.5 13.5714
2776.5 -1.14285
2777.5 31.8571
2778.5 61.5714
2779.5 -3.28571
2780.5 21.5714
2781.5 38.4286
2782.5 9.57143
2783.5 -17
2784.5 4.42857
2785.5 -15.7143
2786.5 71.8571
2787.5 14.8571
2788.5 2.14286
2789.5 16.2857
2790.5 -0.85714
2791.5 51
2792.5 24.4286
2793.5 13.5714
2794.5 -25.1429
2795.5 -17.7143
2796.5 14.8571
2797.5 -6.42857
2798.5 -2.71428
2799.5 -31
2800.5 -42.5714
2801.5 10.2857
2802.5 83.4286
2803.5 -8.85714
2804.5 27.5714
2805.5 13.5714
2806.5 51.2857
2807.5 -9.57143
2808.5 -3
2809.5 -13.4286
2810.5 11.5714
2811.5 4.14286
2812.5 30.2857
2813.5 12.8571
2814.5 16.1429
2815.5 48.5714
2816.5 1.42858
2817.5 23.7143
2818.5 -0.428568
2819.5 10.2857
2820.5 38.4286
2821.5 10.1429
2822.5 -9.28571
2823.5 44.4286
2824.5 61.4286
2825.5 30
2826.5 10.1429
2827.5 -39.7143
2828.5 49.8571
2829.5 5.85715
2830.5 19.8571
2831.5 41.5714
2832.5 -23.2857
2833.5 7.14286
2834.5 24.1429
2835.5 40.2857
2836.5 34.2857
2837.5 18.7143
2838.5 53.7143
2839.5 -14.8571
2840.5 25.5714
2841.5 23.7143
2842.5 3.28572
2843.5 -59
2844.5 -26
2845.5 -21.8571
2846.5 15.2857
2847.5 26.7143
2848.5 0.285718
2849.5 15.8571
2850.5 46.1429
2851.5 -13.7143
2852.5 1.71429
2853.5 30
2854.5 6.14286
2855.5 15.5714
2856.5 3
2857.5 16.1429
2858.5 17.7143
2859.5 16.8571
2860.5 26.2857
2861.5 41
2862.5 37.1429
2863.5 6.28572
2864.5 14.5714
2865.5 2.71429
2866.5 43.1429
2867.5 47.8571
2868.5 10.7143
2869.5 30.2857
2870.5 -11.5714
2871.5 -8.57143
2872.5 31
2873.5 -2
2874.5 57
2875.5 -0.142855
2876.5 28.4286
2877.5 32.1429
2878.5 39.4286
2879.5 4.14286
2880.5 -12.5714
2881.5 52.5714
2882.5 27.7143
2883.5 41.8571
2884.5 22.4286
2885.5 38.8571
2886.5 25
2887.5 -1.28571
2888.5 16.4286
2889.5 27
2890.5 11.1429
2891.5 -11.8571
2892.5 -12.7143
2893.5 5.71429
2894.5 43.2857
2895.5 42
2896.5 15.1429
2897.5 27.5714
2898.5 41.7143
2899.5 -7.42857
2900.5 -7.85714
2901.5 22.5714
2902.5 3.28572
2903.5 -7
2904.5 28.4286
2905.5 39.2857
2906.5 39.5714
2907.5 59.2857
2908.5 0.857145
2909.5 48.2857
2910.5 24.7143
2911.5 34.7143
2912.5 22.5714
2913.5 13.5714
2914.5 -24.5714
2915.5 -9.28571
2916.5 19.4286
2917.5 -20.2857
2918.5 31.2857
2919.5 35.7143
2920.5 -4.85714
2921.5 -6.85714
2922.5 -1.57143
2923.5 45.5714
2924.5 16.4286
2925.5 18.2857
2926.5 -2.28571
2927.5 15.2857
2928.5 56.2857
2929.5 28
2930.5 38.2857
2931.5 21.4286
2932.5 44.1429
2933.5 15.4286
2934.5 4.57143
2935.5 15
2936.5 8.71429
2937.5 56
2938.5 9.85715
2939.5 24.1429
2940.5 52.4286
2941.5 77.2857
2942.5 49.5714
2943.5 29
2944.5 46.4286
2945.5 -21.2857
2946.5 98.8571
2947.5 18.2857
2948.5 20.4286
2949.5 23.5714
2950.5 -5.85714
2951.5 44.2857
2952.5 23.1429
2953.5 18.1429
2954.5 -4.57143
2955.5 -22.1429
2956.5 -11
2957.5 68.4286
2958.5 15.1429
2959.5 31.4286
2960.5 22.5714
2961.5 24.7143
2962.5 -10
2963.5 41.7143
2964.5 36.8571
2965.5 35.8571
2966.5 46.4286
2967.5 65.8571
2968.5 23.5714
2969.5 28
2970.5 31.7143
2971.5 -27
2972.5 17.5714
2973.5 -1.14285
2974.5 4.57143
2975.5 32
2976.5 32.1429
2977.5 43.5714
2978.5 13.4286
2979.5 -4.28571
2980.5 41.5714
2981.5 27.7143
2982.5 2.57143
2983.5 10.8571
2984.5 31.7143
2985.5 36.4286
2986.5 60.4286
2987.5 100.143
2988.5 109.143
2989.5 88.4286
2990.5 91.2857
2991.5 55.1429
2992.5 13.7143
2993.5 -0.714283
2994.5 36.2857
2995.5 -15.8571
2996.5 1.85715
2997.5 11
2998.5 49
2999.5 37.5714
3000.5 -1.57143
3001.5 -21.4286
3002.5 17.7143
3003.5 -2.14285
3004.5 19.1429
3005.5 -21.8571
3006.5 17.4286
3007.5 -16.1429
3008.5 38.2857
3009.5 10.5714
3010.5 -1.57143
3011.5 -2.85714
3012.5 31.1429
3013.5 4.28572
3014.5 23.1429
3015.5 -2.42857
3016.5 21.5714
3017.5 23.8571
3018.5 -3.42857
3019.5 38.4286
3020.5 48.8571
3021.5 5.14286
3022.5 21
3023.5 -1.57143
3024.5 12.7143
3025.5 37
3026.5 30.7143
3027.5 6.14286
3028.5 20.4286
3029.5 -17.4286
3030.5 13.1429
3031.5 36.1429
3032.5 -11.5714
3033.5 -21.4286
3034.5 22.8571
3035.5 0.571432
3036.5 -60.4286
3037.5 -42.8571
3038.5 -62.4286
3039.5 15.7143
3040.5 40.4286
3041.5 19
3042.5 51.8571
3043.5 28.4286
3044.5 42.5714
3045.5 -27
3046.5 22.5714
3047.5 18.4286
3048.5 17
3049.5 47.7143
3050.5 30.7143
3051.5 89.4286
3052.5 141.714
3053.5 75.8571
3054.5 34.8571
3055.5 17.5714
3056.5 49.7143
3057.5 30
3058.5 -5.85714
3059.5 12.4286
3060.5 21.1429
3061.5 33
3062.5 13.5714
3063.5 64.2857
3064.5 71.8571
3065.5 41.1429
3066.5 12.4286
3067.5 -8.28571
3068.5 27.5714
3069.5 38.7143
3070.5 25.5714
3071.5 -12.7143
3072.5 -0.142854
3073.5 -19.2857
3074.5 -21.7143
3075.5 10
3076.5 33
3077.5 20.5714
3078.5 28.4286
3079.5 68.2857
3080.5 14
3081.5 36.1429
3082.5 51.5714
3083.5 9.71429
3084.5 32.5714
3085.5 3.28572
3086.5 29.8571
3087.5 1.85714
3088.5 6.71429
3089.5 -10.2857
3090.5 22.1429
3091.5 46.1429
3092.5 23.2857
3093.5 26.7143
3094.5 -7.85714
3095.5 49
3096.5 9.42857
3097.5 -19.5714
3098.5 16.2857
3099.5 1.71429
3100.5 41.1429
3101.5 33.8571
3102.5 -30.8571
3103.5 32.8571
3104.5 29.8571
3105.5 15.4286
3106.5 1.42857
3107.5 25.4286
3108.5 22.5714
3109.5 97.2857
3110.5 103.286
3111.5 271.857
3112.5 304.714
3113.5 343.286
3114.5 196.429
3115.5 51.2857
3116.5 52.7143
3117.5 16.4286
3118.5 8
3119.5 9.57143
3120.5 18.1429
3121.5 16.4286
3122.5 10.1429
3123.5 41.4286
3124.5 -44.7143
3125.5 17.8571
3126.5 61.5714
3127.5 9.28572
3128.5 -6.85714
3129.5 34.8571
3130.5 -2
3131.5 32.2857
3132.5 3.57143
3133.5 24.4286
3134.5 58.5714
3135.5 15.7143
3136.5 38.4286
3137.5 33.7143
3138.5 21.4286
3139.5 23
3140.5 -0.428569
3141.5 9.85715
3142.5 0.571431
3143.5 -10.4286
3144.5 -14
3145.5 -28
3146.5 18.7143
3147.5 -7
3148.5 -36.1429
3149.5 -5.71428
3150.5 -36.7143
3151.5 -37.7143
3152.5 -1.42857
3153.5 -3.42857
3154.5 30.5714
3155.5 5.28572
3156.5 32.8571
3157.5 29.7143
3158.5 -21.4286
3159.5 38.4286
3160.5 -4.71428
3161.5 -15.4286
3162.5 14.8571
3163.5 2.14286
3164.5 2.28572
3165.5 28.2857
3166.5 36.1429
3167.5 29.8571
3168.5 25.8571
3169.5 -6.42857
3170.5 22.1429
3171.5 -0.571426
3172.5 23.1429
3173.5 28.7143
3174.5 70.7143
3175.5 102.571
3176.5 153.714
3177.5 85.7143
3178.5 44.5714
3179.5 4.85714
3180.5 3.14286
3181.5 1.42857
3182.5 8.42857
3183.5 21.1429
3184.5 16.5714
3185.5 -5.57143
3186.5 18.4286
3187.5 0.14286
3188.5 30.2857
3189.5 21.4286
3190.5 -2.57143
3191.5 -2.42857
3192.5 0.142859
3193.5 -21
3194.5 32
3195.5 20
3196.5 3.42857
3197.5 21.5714
3198.5 -46.5714
3199.5 14
3200.5 -11.7143
3201.5 -40.5714
3202.5 -9.57142
3203.5 0.857146
3204.5 -8.57143
3205.5 28
3206.5 21.1429
3207.5 17
3208.5 0.714288
3209.5 -39.2857
3210.5 29.7143
3211.5 38.1429
3212.5 -7.85714
3213.5 15.8571
3214.5 24.1429
3215.5 16.2857
3216.5 27.4286
3217.5 14.4286
3218.5 -0.142855
3219.5 9.71429
3220.5 60.4286
3221.5 41.8571
3222.5 19.7143
3223.5 -24.4286
3224.5 14.8571
3225.5 16.1429
3226.5 7.28572
3227.5 18.7143
3228.5 30.7143
3229.5 19.1429
3230.5 26.4286
3231.5 -14.8571
3232.5 -3
3233.5 8.57143
3234.5 20
3235.5 -27.8571
3236.5 -27.2857
3237.5 15.1429
3238.5 53.4286
3239.5 205.857
3240.5 303.714
3241.5 449.714
3242.5 493.857
3243.5 289.286
3244.5 120.857
3245.5 36.4286
3246.5 8.14286
3247.5 -24.1429
3248.5 11.5714
3249.5 47.4286
3250.5 -4.71428
3251.5 -11.5714
3252.5 15.8571
3253.5 16
3254.5 -1.42857
3255.5 19.7143
3256.5 22.2857
3257.5 23.7143
3258.5 26.2857
3259.5 14.7143
3260.5 -4.57143
3261.5 8.71429
3262.5 37.5714
3263.5 23.1429
3264.5 12.1429
3265.5 24.1429
3266.5 -15
3267.5 20.4286
3268.5 -17.7143
3269.5 52
3270.5 -11.1429
3271.5 3.14286
3272.5 -28
3273.5 -5.85714
3274.5 27.7143
3275.5 -23.5714
3276.5 61.7143
3277.5 11.4286
3278.5 -3.28571
3279.5 25.7143
3280.5 15.7143
3281.5 -14.7143
3282.5 28.4286
3283.5 -27
3284.5 56.7143
3285.5 -9.57143
3286.5 27.4286
3287.5 33
3288.5 -12.5714
3289.5 42.5714
3290.5 13.8571
3291.5 35.1429
3292.5 34
3293.5 31.8571
3294.5 -12.5714
3295.5 6
3296.5 25
3297.5 22
3298.5 -37
3299.5 32.1429
3300.5 1.28572
3301.5 55.2857
3302.5 0.714289
3303.5 -0.714283
3304.5 -8.85714
3305.5 59.1429
3306.5 31.1429
3307.5 -3
3308.5 58.1429
3309.5 -3.42857
3310.5 11.5714
3311.5 8.57143
3312.5 3
3313.5 -19
3314.5 -25.7143
3315.5 -4.85714
3316.5 -18.8571
3317.5 51.5714
3318.5 16
3319.5 13.1429
3320.5 24.8571
3321.5 22
3322.5 36.1429
3323.5 29
3324.5 26.1429
3325.5 39.7143
3326.5 12.4286
3327.5 -0.857141
3328.5 -3.71428
3329.5 23
3330.5 6.57143
3331.5 -3.57143
3332.5 41.5714
3333.5 11.2857
3334.5 39.4286
3335.5 21.7143
3336.5 19.8571
3337.5 51.7143
3338.5 80.2857
3339.5 84.7143
3340.5 25
3341.5 31
3342.5 40
3343.5 21.4286
3344.5 15.2857
3345.5 34.4286
3346.5 27
3347.5 7.28572
3348.5 21.4286
3349.5 0.142859
3350.5 4.28572
3351.5 13
3352.5 -5.28571
3353.5 2.71429
3354.5 37
3355.5 -17.1429
3356.5 37.1429
3357.5 8.71429
3358.5 1.14286
3359.5 -34.7143
3360.5 -6.85714
3361.5 -2.71428
3362.5 -21.8571
3363.5 9.57143
3364.5 31.7143
3365.5 22.5714
3366.5 1.28572
3367.5 -19.2857
3368.5 17.1429
3369.5 10.1429
3370.5 -6.28571
3371.5 -16.4286
3372.5 13.1429
3373.5 17.5714
3374.5 39.8571
3375.5 -16.8571
3376.5 14
3377.5 14.4286
3378.5 6.42857
3379.5 12.8571
3380.5 4.57143
3381.5 36.1429
3382.5 10.7143
3383.5 -6
3384.5 -0.714284
3385.5 18.8571
3386.5 2
3387.5 52.2857
3388.5 -8.42857
3389.5 9.28572
3390.5 1.57143
3391.5 1
3392.5 63.2857
3393.5 13.4286
3394.5 -29.5714
3395.5 -52
3396.5 -24
3397.5 -0.285712
3398.5 -5.71428
3399.5 6.14286
3400.5 11
3401.5 -11.8571
3402.5 -1.28571
3403.5 25.4286
3404.5 30.4286
3405.5 39.1429
3406.5 1.71429
3407.5 23.8571
3408.5 11.5714
3409.5 -3.42857
3410.5 2.42857
3411.5 4.57143
3412.5 47.8571
3413.5 5.42857
3414.5 -2
3415.5 44.2857
3416.5 -19.4286
3417.5 31.8571
3418.5 17.1429
3419.5 10.2857
3420.5 7.71429
3421.5 -7
3422.5 -35.1429
3423.5 -23.2857
3424.5 -85
3425.5 -77.2857
3426.5 -121.143
3427.5 -75.1429
3428.5 -163
3429.5 -11.7143
3430.5 9.14286
3431.5 10.1429
3432.5 50.2857
3433.5 25.7143
3434.5 18
3435.5 -5.14286
3436.5 26.2857
3437.5 6.57143
3438.5 8
3439.5 -43.5714
3440.5 -9.57143
3441.5 24.5714
3442.5 19.1429
3443.5 27
3444.5 22.5714
3445.5 34.8571
3446.5 -3.57143
3447.5 40.2857
3448.5 25.7143
3449.5 46.2857
3450.5 -10.4286
3451.5 -19.1429
3452.5 -7.71428
3453.5 -18.1429
3454.5 14
3455.5 18.5714
3456.5 35.2857
3457.5 33.7143
3458.5 -3.57143
3459.5 -4.85714
3460.5 5.85714
3461.5 44
3462.5 -3.14286
3463.5 26.7143
3464.5 0.857145
3465.5 20.4286
3466.5 -0.142855
3467.5 -1.14286
3468.5 2.42857
3469.5 -0.142855
3470.5 18.4286
3471.5 38.7143
3472.5 0.142859
3473.5 16.4286
3474.5 -5.28571
3475.5 -2.28571
3476.5 35.2857
3477.5 9.57143
3478.5 7
3479.5 19
3480.5 5
3481.5 34.4286
3482.5 37.2857
3483.5 22.8571
3484.5 0.285716
3485.5 19.1429
3486.5 58.5714
3487.5 -5.28571
3488.5 -20.8571
3489.5 -33.7143
3490.5 -9.28571
3491.5 -9
3492.5 -17.7143
3493.5 28.2857
3494.5 -13.2857
3495.5 8.85714
3496.5 23.4286
3497.5 55
3498.5 38.8571
3499.5 24.8571
3500.5 55.2857
3501.5 11.8571
3502.5 8.71429
3503.5 -18.8571
3504.5 44.5714
3505.5 -17.2857
3506.5 -4.42857
3507.5 47
3508.5 42.1429
3509.5 -49.4286
3510.5 45
3511.5 -9.14285
3512.5 26
3513.5 36.2857
3514.5 9.14286
3515.5 32
3516.5 -9
3517.5 3.71429
3518.5 4.71429
3519.5 -10.2857
3520.5 11.2857
3521.5 5.85714
3522.5 -10.4286
3523.5 2.71429
3524.5 13.4286
3525.5 -14.1429
3526.5 -2
3527.5 11.4286
3528.5 42.2857
3529.5 68.5714
3530.5 46.7143
3531.5 55.4286
3532.5 49.8571
3533.5 26
3534.5 41.7143
3535.5 9.14286
3536.5 -2.28571
3537.5 6
3538.5 46.4286
3539.5 48.1429
3540.5 0.142859
3541.5 5.85714
3542.5 13.8571
3543.5 47.1429
3544.5 8
3545.5 0.857145
3546.5 -22.8571
3547.5 10.8571
3548.5 8.42857
3549.5 53.4286
3550.5 -2.57143
3551.5 -12.2857
3552.5 2.42857
3553.5 14
3554.5 27.2857
3555.5 13.4286
3556.5 26.5714
3557.5 -16.5714
3558.5 9
3559.5 -6.71428
3560.5 31.1429
3561.5 3.28572
3562.5 40.7143
3563.5 13.4286
3564.5 28.4286
3565.5 -28.1429
3566.5 -15.4286
3567.5 24.8571
3568.5 18.2857
3569.5 -5.71428
3570.5 12.1429
3571.5 16.2857
3572.5 5.42857
3573.5 -17.2857
3574.5 20.7143
3575.5 27.1429
3576.5 3.71429
3577.5 12.4286
3578.5 -1.85714
3579.5 12
3580.5 29.1429
3581.5 24.8571
3582.5 -0.857141
3583.5 10.7143
3584.5 15
3585.5 11.5714
3586.5 52.4286
3587.5 17.1429
3588.5 -0.999997
3589.5 20.4286
3590.5 52.5714
3591.5 15.8571
3592.5 -4
3593.5 9.85714
3594.5 -2.57143
3595.5 28.2857
3596.5 29.4286
3597.5 -2
3598.5 28.1429
3599.5 23.8571
3600.5 -10.5714
3601.5 -16.8571
3602.5 -6.28571
3603.5 12.2857
3604.5 -14.5714
3605.5 -3.42857
3606.5 0.57143
3607.5 52
3608.5 26.8571
3609.5 43.8571
3610.5 -17.8571
3611.5 18.2857
3612.5 16.5714
3613.5 14.2857
3614.5 22.5714
3615.5 0.285716
3616.5 9.85714
3617.5 12.7143
3618.5 -4.85714
3619.5 -4.42857
3620.5 -11.7143
3621.5 38.5714
3622.5 20.4286
3623.5 -8.57143
3624.5 22.2857
3625.5 36
3626.5 -13.1429
3627.5 -1.85714
3628.5 8.57143
3629.5 1.28572
3630.5 3.85714
3631.5 -15.4286
3632.5 4.14286
3633.5 -9.71428
3634.5 -13.5714
3635.5 16.4286
3636.5 24.2857
3637.5 29.1429
3638.5 13.7143
3639.5 -0.285713
3640.5 13.7143
3641.5 16.7143
3642.5 28.8571
3643.5 5.42857
3644.5 31
3645.5 48.7143
3646.5 104.429
3647.5 111.571
3648.5 192.857
3649.5 156
3650.5 128.571
3651.5 50.4286
3652.5 20.5714
3653.5 14.4286
3654.5 30.5714
3655.5 22.4286
3656.5 24.7143
3657.5 -7.85714
3658.5 2.57143
3659.5 9.71429
3660.5 2.28572
3661.5 26.2857
3662.5 51.7143
3663.5 35.5714
3664.5 5
3665.5 23.5714
3666.5 1.14286
3667.5 10.5714
3668.5 25.7143
3669.5 1.66893e-06
3670.5 46.1429
3671.5 31.5714
3672.5 30.2857
3673.5 32
3674.5 16.8571
3675.5 17.1429
3676.5 31.7143
3677.5 -4.28571
3678.5 10.7143
3679.5 -14.8571
3680.5 -19.8571
3681.5 -36.5714
3682.5 -9.14286
3683.5 -5.71428
3684.5 1.85714
3685.5 -14.8571
3686.5 -25.5714
3687.5 1.85714
3688.5 34.1429
3689.5 -6.71428
3690.5 -2.57143
3691.5 19.1429
3692.5 14.1429
3693.5 -11.7143
3694.5 15.7143
3695.5 23.8571
3696.5 0.142859
3697.5 29.4286
3698.5 18.8571
3699.5 -15.4286
3700.5 2.57143
3701.5 -12
3702.5 12
3703.5 2.71429
3704.5 17.8571
3705.5 8.57143
3706.5 -0.285713
3707.5 6.42857
3708.5 4.28572
3709.5 24.5714
3710.5 9.85714
3711.5 44.5714
3712.5 -14.1429
3713.5 36.5714
3714.5 36.4286
3715.5 2.57143
3716.5 -7.85714
3717.5 31.5714
3718.5 34.7143
3719.5 12.5714
3720.5 46.5714
3721.5 61.8571
3722.5 -10.1429
3723.5 1.28572
3724.5 3.85715
3725.5 -49.8571
3726.5 -47.4286
3727.5 -12
3728.5 1.85714
3729.5 24.1429
3730.5 34.5714
3731.5 26
3732.5 0.857144
3733.5 30.7143
3734.5 -15.7143
3735.5 2.14286
3736.5 -9.28571
3737.5 10.8571
3738.5 1.14286
3739.5 2
3740.5 -12.7143
3741.5 28.2857
3742.5 -22.8571
3743.5 -8.42857
3744.5 4.42857
3745.5 7.28572
3746.5 -23.7143
3747.5 -4.42857
3748.5 -9.57143
3749.5 -9.57143
3750.5 15.5714
3751.5 -2.14286
3752.5 19.1429
3753.5 -12.2857
3754.5 -15.5714
3755.5 10.7143
3756.5 10.5714
3757.5 4.71429
3758.5 8.28572
3759.5 -20.7143
3760.5 14.5714
3761.5 -17.7143
3762.5 -0.42857
3763.5 5.57143
3764.5 30.1429
3765.5 -14.7143
3766.5 21.4286
3767.5 26.8571
3768.5 23
3769.5 -4.85714
3770.5 23.8571
3771.5 -17.8571
3772.5 32
3773.5 45.2857
3774.5 -13
3775.5 4.71429
3776.5 26.1429
3777.5 12.7143
3778.5 2.28572
3779.5 15.2857
3780.5 -15.8571
3781.5 3.85714
3782.5 4.85714
3783.5 -3.42857
3784.5 -6.57143
3785.5 48
3786.5 8.42857
3787.5 -11.2857
3788.5 -4.28571
3789.5 9.28572
3790.5 9.71429
3791.5 28.4286
3792.5 18.1429
3793.5 25.2857
3794.5 -20.8571
3795.5 -9.14286
3796.5 19.5714
3797.5 24.2857
3798.5 22.8571
3799.5 22.4286
3800.5 30.4286
3801.5 29.5714
3802.5 7.71429
3803.5 27.4286
3804.5 -14.4286
3805.5 18.4286
3806.5 -1.57143
3807.5 11.1429
3808.5 2.57143
3809.5 -26.2857
3810.5 -6.71428
3811.5 11.1429
3812.5 8.57143
3813.5 -2
3814.5 -4.85714
3815.5 -14
3816.5 -4.14286
3817.5 -3.42857
3818.5 -0.142856
3819.5 28.4286
3820.5 -16.7143
3821.5 5.71429
3822.5 18.8571
3823.5 25.1429
3824.5 43.2857
3825.5 22.5714
3826.5 28
3827.5 45.8571
3828.5 12
3829.5 11.1429
3830.5 1.57143
3831.5 27.2857
3832.5 53.1429
3833.5 -18.5714
3834.5 15.4286
3835.5 5.28572
3836.5 14.7143
3837.5 3.14286
3838.5 -13.5714
3839.5 5.28572
3840.5 19.7143
3841.5 15
3842.5 25.4286
3843.5 10
3844.5 8.14286
3845.5 18.7143
3846.5 35.7143
3847.5 29.7143
3848.5 49.4286
3849.5 26.7143
3850.5 3.28572
3851.5 -5.28571
3852.5 25.5714
3853.5 35.7143
3854.5 -0.857142
3855.5 11.1429
3856.5 8.42857
3857.5 25.7143
3858.5 21.5714
3859.5 -1.57143
3860.5 36.8571
3861.5 -15.2857
3862.5 32
3863.5 -25.5714
3864.5 35
3865.5 5.57143
3866.5 -33
3867.5 -4.57143
3868.5 -61.4286
3869.5 -72.7143
3870.5 -66.8571
3871.5 -45.8571
3872.5 -23.5714
3873.5 -18
3874.5 -27.7143
3875.5 -34.5714
3876.5 -14.1429
3877.5 -14.1429
3878.5 13.8571
3879.5 -7
3880.5 19.7143
3881.5 -19.5714
3882.5 9.42857
3883.5 12.4286
3884.5 26.2857
3885.5 -24.4286
3886.5 -8.71428
3887.5 17.5714
3888.5 8.85714
3889.5 6.28572
3890.5 -6.85714
3891.5 29
3892.5 19.1429
3893.5 7.28572
3894.5 2.14286
3895.5 12.1429
3896.5 14.4286
3897.5 15.8571
3898.5 16.1429
3899.5 0.857144
3900.5 37.5714
3901.5 31.5714
3902.5 13.7143
3903.5 -2.57143
3904.5 25.2857
3905.5 7.85714
3906.5 16.4286
3907.5 5.57143
3908.5 18.2857
3909.5 22.4286
3910.5 -6.57143
3911.5 6.42857
3912.5 25.7143
3913.5 38.1429
3914.5 -0.42857
3915.5 -1.14286
3916.5 13.8571
3917.5 15.2857
3918.5 3
3919.5 12
3920.5 -10.8571
3921.5 12.5714
3922.5 5
3923.5 -7.42857
3924.5 15.2857
3925.5 34.4286
3926.5 38.4286
3927.5 -11.1429
3928.5 13
3929.5 19.4286
3930.5 24.8571
3931.5 46.7143
3932.5 8.71429
3933.5 24
3934.5 14
3935.5 49.7143
3936.5 38.1429
3937.5 29
3938.5 8.42857
3939.5 -0.142856
3940.5 12.2857
3941.5 18
3942.5 6.71429
3943.5 19.5714
3944.5 34.5714
3945.5 22.8571
3946.5 26.8571
3947.5 20.5714
3948.5 38.5714
3949.5 29.2857
3950.5 -11.2857
3951.5 4.57143
3952.5 2.14286
3953.5 34.5714
3954.5 33.1429
3955.5 52.8571
3956.5 51.1429
3957.5 1.85715
3958.5 15.4286
3959.5 30.2857
3960.5 0.857144
3961.5 11.4286
3962.5 -5.14286
3963.5 20.4286
3964.5 7.14286
3965.5 12.7143
3966.5 5.85714
3967.5 13.2857
3968.5 -0.999998
3969.5 14.2857
3970.5 36.7143
3971.5 47.8571
3972.5 58.4286
3973.5 45
3974.5 18.1429
3975.5 21.4286
3976.5 20.5714
3977.5 44.8571
3978.5 28.5714
3979.5 8.42857
3980.5 23.2857
3981.5 -1.71428
3982.5 -0.142856
3983.5 3.71429
3984.5 14.1429
3985.5 -3.57143
3986.5 12.7143
3987.5 6.28572
3988.5 -12.1429
3989.5 -6.28571
3990.5 18
3991.5 -13.8571
3992.5 33.8571
3993.5 22.5714
3994.5 -6.42857
3995.5 -26
3996.5 12.2857
3997.5 -5.42857
3998.5 27.1429
3999.5 18.7143
4000.5 50.7143
4001.5 14.7143
4002.5 -1.14286
4003.5 3.14286
4004.5 -4.14286
4005.5 11.2857
4006.5 31.7143
4007.5 23.5714
4008.5 17.1429
4009.5 10.1429
4010.5 20.2857
4011.5 29.1429
4012.5 59.4286
4013.5 59.7143
4014.5 56.1429
4015.5 49.5714
4016.5 50.5714
4017.5 23.8571
4018.5 11.2857
4019.5 22
4020.5 20.4286
4021.5 14.2857
4022.5 29.5714
4023.5 -12.2857
4024.5 -3.42857
4025.5 -35.2857
4026.5 -33.1429
4027.5 -33.7143
4028.5 42
4029.5 33.8571
4030.5 -4.57143
4031.5 -5.28571
4032.5 9.28572
4033.5 50
4034.5 2.71429
4035.5 30.2857
4036.5 48.2857
4037.5 24.1429
4038.5 86
4039.5 86.5714
4040.5 104.571
4041.5 103.571
4042.5 99.2857
4043.5 86.2857
4044.5 72.2857
4045.5 16.2857
4046.5 18.8571
4047.5 7
4048.5 -3.42857
4049.5 1.28572
4050.5 30.8571
4051.5 -18.1429
4052.5 12.7143
4053.5 17.2857
4054.5 13.8571
4055.5 -14.4286
4056.5 14
4057.5 0.857144
4058.5 5.71429
4059.5 -26.7143
4060.5 25.2857
4061.5 12.7143
4062.5 11.8571
4063.5 -11.8571
4064.5 -19.8571
4065.5 21.4286
4066.5 11.2857
4067.5 -14.7143
4068.5 8.85714
4069.5 -9.71428
4070.5 13.5714
4071.5 9.71429
4072.5 -14.8571
4073.5 -0.285713
4074.5 15.5714
4075.5 -7.85714
4076.5 18.8571
4077.5 15.5714
4078.5 45
4079.5 -5.57143
4080.5 12.4286
4081.5 4
4082.5 18.2857
4083.5 -4.14286
4084.5 14.7143
4085.5 5.57143
4086.5 20.8571
4087.5 18.7143
4088.5 12.1429
4089.5 10.1429
4090.5 17.2857
4091.5 12.8571
4092.5 -17.1429
4093.5 9.42857
4094.5 26.5714
4095.5 25.5714
4096.5 14.1429
4097.5 1
4098.5 17.2857
4099.5 -8.14286
4100.5 28.5714
4101.5 24.7143
4102.5 9.71429
4103.5 5.14286
4104.5 23.7143
4105.5 8.71429
4106.5 38.8571
4107.5 -1.42857
4108.5 16.5714
4109.5 6
4110.5 19.2857
4111.5 15
4112.5 -1.28571
4113.5 8.42857
4114.5 51.2857
4115.5 -5.42857
4116.5 1.14286
4117.5 15.8571
4118.5 0.714287
4119.5 8.14286
4120.5 11.8571
4121.5 -5.42857
4122.5 32.4286
4123.5 4.14286
4124.5 1.3113e-06
4125.5 -12.7143
4126.5 18
4127.5 20.4286
4128.5 -15.4286
4129.5 16.7143
4130.5 1
4131.5 30.7143
4132.5 -2.71428
4133.5 -0.142856
4134.5 11.2857
4135.5 8.85714
4136.5 -5.14286
4137.5 5.42857
4138.5 -5.85714
4139.5 14.7143
4140.5 -12.4286
4141.5 -9.42857
4142.5 5.71429
4143.5 29.7143
4144.5 4.71429
4145.5 -7.42857
4146.5 10.8571
4147.5 46.8571
4148.5 39.8571
4149.5 25.2857
4150.5 8.85714
4151.5 20.5714
4152.5 28.1429
4153.5 30.2857
4154.5 22.1429
4155.5 -7.57143
4156.5 -4.14286
4157.5 18.4286
4158.5 6
4159.5 30.4286
4160.5 21.5714
4161.5 -0.714284
4162.5 3.85714
4163.5 11.1429
4164.5 4.85714
4165.5 20.2857
4166.5 19.7143
4167.5 -14.4286
4168.5 5.57143
4169.5 14.1429
4170.5 12.7143
4171.5 8.14286
4172.5 16.2857
4173.5 -14
4174.5 11.4286
4175.5 2.71429
4176.5 6.71429
4177.5 34.8571
4178.5 9.57143
4179.5 23
4180.5 9.42857
4181.5 5.71429
4182.5 21.2857
4183.5 8.28572
4184.5 6.85714
4185.5 22.2857
4186.5 -1.57143
4187.5 22.4286
4188.5 18.5714
4189.5 6
4190.5 10.2857
4191.5 -6.71428
4192.5 8.14286
4193.5 11.1429
4194.5 -29.2857
4195.5 14.7143
4196.5 16.4286
4197.5 1.71429
4198.5 9.85714
4199.5 10.1429
4200.5 -18.4286
4201.5 -12.4286
4202.5 11.8571
4203.5 3.71429
4204.5 -3.28571
4205.5 25.2857
4206.5 3.28572
4207.5 29
4208.5 -22
4209.5 22.4286
4210.5 14.5714
4211.5 18
4212.5 5
4213.5 15.5714
4214.5 24.5714
4215.5 59.2857
4216.5 39.5714
4217.5 50
4218.5 83.5714
4219.5 46.7143
4220.5 53.4286
4221.5 9
4222.5 27.5714
4223.5 8.28572
4224.5 3.42857
4225.5 -5.71428
4226.5 35.7143
4227.5 10.5714
4228.5 23.2857
4229.5 28.4286
4230.5 44
4231.5 27.1429
4232.5 -25.5714
4233.5 4.42857
4234.5 9.14286
4235.5 13.7143
4236.5 2.42857
4237.5 3
4238.5 13.5714
4239.5 8.14286
4240.5 1.19209e-06
4241.5 7.71429
4242.5 26.2857
4243.5 31.7143
4244.5 20
4245.5 42.7143
4246.5 6.42857
4247.5 0.57143
4248.5 35.1429
4249.5 5.85714
4250.5 30.1429
4251.5 22.8571
4252.5 35.4286
4253.5 35.8571
4254.5 14
4255.5 8.42857
4256.5 7.42857
4257.5 20.8571
4258.5 36.7143
4259.5 -7.42857
4260.5 -6.71428
4261.5 26.5714
4262.5 1.71429
4263.5 -2.42857
4264.5 -18.8571
4265.5 -0.142855
4266.5 0.142859
4267.5 -30.7143
4268.5 29.5714
4269.5 48.2857
4270.5 -5.14286
4271.5 -0.714285
4272.5 14.4286
4273.5 34.4286
4274.5 39
4275.5 4.42857
4276.5 16
4277.5 23
4278.5 10.5714
4279.5 27.1429
4280.5 4
4281.5 15
4282.5 11.1429
4283.5 32.8571
4284.5 45.8571
4285.5 28.1429
4286.5 18.1429
4287.5 28.5714
4288.5 7.14286
4289.5 11.4286
4290.5 14.7143
4291.5 -5.57143
4292.5 32.1429
4293.5 44
4294.5 19.8571
4295.5 16.8571
4296.5 0.142858
4297.5 44
4298.5 21.7143
4299.5 23.7143
4300.5 25.7143
4301.5 29.8571
4302.5 25.2857
4303.5 29.5714
4304.5 44.5714
4305.5 41.5714
4306.5 -3.42857
4307.5 12
4308.5 41.7143
4309.5 -10.4286
4310.5 34.4286
4311.5 1
4312.5 19.1429
4313.5 23.8571
4314.5 13.7143
4315.5 28
4316.5 9
4317.5 12.8571
4318.5 20.5714
4319.5 -13.1429
4320.5 6.42857
4321.5 -3.42857
4322.5 25
4323.5 9.28572
4324.5 18.4286
4325.5 21.4286
4326.5 43.5714
4327.5 17.2857
4328.5 21.5714
4329.5 26.5714
4330.5 4
4331.5 24.2857
4332.5 16.4286
4333.5 19.7143
4334.5 11.2857
4335.5 31.7143
4336.5 29.2857
4337.5 8.85714
4338.5 -0.571427
4339.5 24.5714
4340.5 3.57143
4341.5 20.1429
4342.5 25.1429
4343.5 5
4344.5 12.8571
4345.5 10.2857
4346.5 30.2857
4347.5 -8.28571
4348.5 6.14286
4349.5 14.8571
4350.5 6.14286
4351.5 42.5714
4352.5 25.5714
4353.5 30
4354.5 11.7143
4355.5 51.1429
4356.5 2.42857
4357.5 9.57143
4358.5 49.4286
4359.5 -5.85714
4360.5 0.714287
4361.5 22.8571
4362.5 20.2857
4363.5 14.4286
4364.5 18.2857
4365.5 9.28572
4366.5 2.57143
4367.5 31.4286
4368.5 14.7143
4369.5 29
4370.5 26.5714
4371.5 33.2857
4372.5 17
4373.5 46.8571
4374.5 41.4286
4375.5 33.2857
4376.5 53.2857
4377.5 -24.8571
4378.5 -8.14286
4379.5 -58
4380.5 -127.714
4381.5 -145.429
4382.5 -178.286
4383.5 -100.143
4384.5 -42.1429
4385.5 -29
4386.5 -21.8571
4387.5 23.7143
4388.5 17.4286
4389.5 28.5714
4390.5 15.8571
4391.5 -2.14286
4392.5 6
4393.5 6.42857
4394.5 27.8571
4395.5 45.1429
4396.5 0.714287
4397.5 6
4398.5 27.7143
4399.5 6.42857
4400.5 35.5714
4401.5 7.28572
4402.5 6.42857
4403.5 11.1429
4404.5 5.85714
4405.5 15
4406.5 13.2857
4407.5 3.85714
4408.5 29.1429
4409.5 10.4286
4410.5 38.4286
4411.5 5.85714
4412.5 5.57143
4413.5 -15.7143
4414.5 1.71429
4415.5 -1.14286
4416.5 -38.1429
4417.5 -8.71428
4418.5 21.4286
4419.5 10.1429
4420.5 -6.42857
4421.5 2.14286
4422.5 -6.42857
4423.5 21
4424.5 7.85714
4425.5 17.7143
4426.5 5.71429
4427.5 22.8571
4428.5 44.5714
4429.5 18.1429
4430.5 1.57143
4431.5 22.4286
4432.5 6.28572
4433.5 -2
4434.5 13.7143
4435.5 26
4436.5 28
4437.5 65.1429
4438.5 51
4439.5 103.429
4440.5 98.7143
4441.5 94.2857
4442.5 38.8571
4443.5 59.7143
4444.5 73.2857
4445.5 6.42857
4446.5 12.5714
4447.5 33
4448.5 -0.714285
4449.5 29.8571
4450.5 -17.4286
4451.5 16.2857
4452.5 17.7143
4453.5 47.4286
4454.5 -11.4286
4455.5 -24.4286
4456.5 16.4286
4457.5 30.4286
4458.5 24.4286
4459.5 19.8571
4460.5 41.4286
4461.5 1.28572
4462.5 5.57143
4463.5 -9.71428
4464.5 4.85714
4465.5 4.14286
4466.5 20.1429
4467.5 14.4286
4468.5 41.2857
4469.5 13.8571
4470.5 -15.4286
4471.5 7.85714
4472.5 45.7143
4473.5 25.4286
4474.5 29.7143
4475.5 16.5714
4476.5 -3.28571
4477.5 7
4478.5 25.4286
4479.5 15.7143
4480.5 25.2857
4481.5 18.8571
4482.5 8.14286
4483.5 12
4484.5 6
4485.5 -4
4486.5 -15
4487.5 -2.42857
4488.5 5.85714
4489.5 -5.71428
4490.5 16.8571
4491.5 16
4492.5 29.4286
4493.5 29.5714
4494.5 23.2857
4495.5 7.42857
4496.5 14.2857
4497.5 1.85714
4498.5 26
4499.5 14.8571
4500.5 32.4286
4501.5 28.1429
4502.5 30.7143
4503.5 39.7143
4504.5 28.1429
4505.5 33.4286
4506.5 -12.5714
4507.5 -14.8571
4508.5 17.1429
4509.5 8.28572
4510.5 4
4511.5 13.2857
4512.5 4.85714
4513.5 -6
4514.5 13.2857
4515.5 2.71429
4516.5 -12
4517.5 3.14286
4518.5 27.2857
4519.5 20.8571
4520.5 45.8571
4521.5 54.2857
4522.5 51.1429
4523.5 80.2857
4524.5 106.714
4525.5 116.714
4526.5 139.286
4527.5 130.571
4528.5 73.1429
4529.5 68.8571
4530.5 26.8571
4531.5 51.1429
4532.5 27
4533.5 32
4534.5 12.1429
4535.5 27.2857
4536.5 21.2857
4537.5 -0.999999
4538.5 25.8571
4539.5 16.8571
4540.5 1.07288e-06
4541.5 10.4286
4542.5 23
4543.5 4.42857
4544.5 36.7143
4545.5 18.8571
4546.5 52.1429
4547.5 74
4548.5 159.429
4549.5 244.571
4550.5 366
4551.5 443.429
4552.5 451.429
4553.5 320.429
4554.5 150
4555.5 100.143
4556.5 56.5714
4557.5 49.7143
4558.5 14.7143
4559.5 11.8571
4560.5 24.8571
4561.5 -19.2857
4562.5 -76.5714
4563.5 -45.1429
4564.5 -73.5714
4565.5 -44.8571
4566.5 -19.8571
4567.5 7.28572
4568.5 -1.14286
4569.5 -12.4286
4570.5 1.42857
4571.5 16.1429
4572.5 -4.71428
4573.5 -2.14286
4574.5 -16.7143
4575.5 28.7143
4576.5 17.1429
4577.5 33.5714
4578.5 7.85714
4579.5 24.7143
4580.5 15.7143
4581.5 35.2857
4582.5 15.2857
4583.5 37.5714
4584.5 15
4585.5 1.71429
4586.5 14.4286
4587.5 30.5714
4588.5 6.42857
4589.5 19
4590.5 13.7143
4591.5 -2
4592.5 20
4593.5 20.4286
4594.5 15
4595.5 35.8571
4596.5 14
4597.5 14.8571
4598.5 -1.28571
4599.5 37.7143
4600.5 -4.42857
4601.5 33.2857
4602.5 -0.285713
4603.5 -10.1429
4604.5 -11.8571
4605.5 -18.7143
4606.5 33.8571
4607.5 -21
4608.5 -8.28571
4609.5 34.7143
4610.5 16.4286
4611.5 18
4612.5 26.5714
4613.5 6.28572
4614.5 -9.14286
4615.5 22
4616.5 13.5714
4617.5 12
4618.5 -11.2857
4619.5 -0.999999
4620.5 21.4286
4621.5 0.57143
4622.5 43.4286
4623.5 10
4624.5 36.2857
4625.5 4.28572
4626.5 4.28572
4627.5 -0.999999
4628.5 31.2857
4629.5 8.71429
4630.5 16.7143
4631.5 13.8571
4632.5 14.7143
4633.5 15.1429
4634.5 15.1429
4635.5 18.1429
4636.5 16.4286
4637.5 -0.42857
4638.5 -5.57143
4639.5 20.1429
4640.5 41
4641.5 13.8571
4642.5 -20.1429
4643.5 22.2857
4644.5 35.1429
4645.5 23
4646.5 25.7143
4647.5 29
4648.5 -31
4649.5 6.28572
4650.5 30.7143
4651.5 6.28572
4652.5 19.2857
4653.5 29.2857
4654.5 28.1429
4655.5 27.5714
4656.5 10.2857
4657.5 -4.85714
4658.5 11.1429
4659.5 45.4286
4660.5 30.4286
4661.5 3.42857
4662.5 -5.85714
4663.5 19.2857
4664.5 18
4665.5 25
4666.5 35.5714
4667.5 20
4668.5 8.57143
4669.5 33.2857
4670.5 -0.999999
4671.5 7.57143
4672.5 12.1429
4673.5 11.5714
4674.5 22.1429
4675.5 15.7143
4676.5 8.42857
4677.5 19.2857
4678.5 5.28572
4679.5 13.2857
4680.5 23
4681.5 -31.2857
4682.5 12.8571
4683.5 11
4684.5 7.14286
4685.5 25.1429
4686.5 12.1429
4687.5 8
4688.5 17.2857
4689.5 -14.8571
4690.5 2.71429
4691.5 -9.28571
4692.5 13.1429
4693.5 0.857144
4694.5 -1.85714
4695.5 -13.4286
4696.5 36.7143
4697.5 20
4698.5 4
4699.5 31.2857
4700.5 21.5714
4701.5 6.42857
4702.5 11.7143
4703.5 7.85714
4704.5 8
4705.5 12.1429
4706.5 30
4707.5 6.14286
4708.5 -2.71428
4709.5 1.57143
4710.5 19.7143
4711.5 19.7143
4712.5 16.8571
4713.5 15.1429
4714.5 19.1429
4715.5 0.857144
4716.5 19
4717.5 32.8571
4718.5 27.8571
4719.5 23.7143
4720.5 -0.285713
4721.5 5
4722.5 22.8571
4723.5 40
4724.5 50.2857
4725.5 100.143
4726.5 110.571
4727.5 130.429
4728.5 142.714
4729.5 119.143
4730.5 63.1429
4731.5 50.4286
4732.5 20
4733.5 36
4734.5 27.8571
4735.5 37.1429
4736.5 10.4286
4737.5 27.1429
4738.5 22.8571
4739.5 23.1429
4740.5 7.28572
4741.5 20.1429
4742.5 16.7143
4743.5 -10.7143
4744.5 6.71429
4745.5 -0.42857
4746.5 -8.14286
4747.5 -14.1429
4748.5 29.8571
4749.5 1.43051e-06
4750.5 32.7143
4751.5 10.4286
4752.5 16.2857
4753.5 29
4754.5 56.5714
4755.5 13.4286
4756.5 3.85714
4757.5 18.8571
4758.5 18.7143
4759.5 11.2857
4760.5 41
4761.5 13.1429
4762.5 52.5714
4763.5 5.71429
4764.5 26
4765.5 16
4766.5 10.8571
4767.5 16.7143
4768.5 6.57143
4769.5 9.57143
4770.5 15.8571
4771.5 6.42857
4772.5 23.7143
4773.5 23.8571
4774.5 24.7143
4775.5 14.5714
4776.5 28.8571
4777.5 -3.14286
4778.5 43
4779.5 8.71429
4780.5 6.14286
4781.5 10
4782.5 2.85714
4783.5 16.4286
4784.5 2.57143
4785.5 8
4786.5 54.5714
4787.5 -11.5714
4788.5 14.8571
4789.5 30.5714
4790.5 -9.28571
4791.5 15.2857
4792.5 -2.28571
4793.5 6.14286
4794.5 7
4795.5 -1.85714
4796.5 20.5714
4797.5 7.28571
4798.5 12
4799.5 22
4800.5 0.285715
4801.5 13
4802.5 20.8571
4803.5 31
4804.5 -1.14286
4805.5 10.8571
4806.5 24.7143
4807.5 17.4286
4808.5 25
4809.5 18.2857
4810.5 5.57143
4811.5 15.7143
4812.5 13.1429
4813.5 8.42857
4814.5 20.7143
4815.5 26.5714
4816.5 10.5714
4817.5 -2.71428
4818.5 11.4286
4819.5 29.8571
4820.5 25.5714
4821.5 26.4286
4822.5 33
4823.5 31.4286
4824.5 15
4825.5 34
4826.5 4.85714
4827.5 -7.14286
4828.5 5.85714
4829.5 13.2857
4830.5 4.42857
4831.5 17.4286
4832.5 15.4286
4833.5 12.7143
4834.5 18.1429
4835.5 21
4836.5 17.2857
4837.5 0.857144
4838.5 4.85714
4839.5 26
4840.5 9.57143
4841.5 13.5714
4842.5 13.2857
4843.5 6.85714
4844.5 7
4845.5 13.1429
4846.5 15
4847.5 -8
4848.5 29
4849.5 19
4850.5 16.8571
4851.5 16.8571
4852.5 16.8571
4853.5 15.7143
4854.5 21.5714
4855.5 37.5714
4856.5 9.57143
4857.5 24
4858.5 7.71429
4859.5 1.42857
4860.5 3.85714
4861.5 9.85714
4862.5 19.1429
4863.5 18.4286
4864.5 24
4865.5 21.1429
4866.5 27.7143
4867.5 16.2857
4868.5 15.1429
4869.5 28.1429
4870.5 22.5714
4871.5 45.8571
4872.5 12.8571
4873.5 34.7143
4874.5 0.428573
4875.5 32.7143
4876.5 30.2857
4877.5 25.5714
4878.5 54.7143
4879.5 33.4286
4880.5 20
4881.5 35.2857
4882.5 20.2857
4883.5 37.7143
4884.5 71.7143
4885.5 73.8571
4886.5 54.7143
4887.5 51.4286
4888.5 37.1429
4889.5 30.2857
4890.5 26.5714
4891.5 13.2857
4892.5 34.1429
4893.5 -9.42857
4894.5 -15.5714
4895.5 19.5714
4896.5 25.5714
4897.5 3.57143
4898.5 19
4899.5 7.42857
4900.5 9.85714
4901.5 23.4286
4902.5 7.71429
4903.5 14.7143
4904.5 17.4286
4905.5 32.7143
4906.5 22
4907.5 4.28572
4908.5 2.42857
4909.5 27.5714
4910.5 20.2857
4911.5 4.14286
4912.5 5.57143
4913.5 -9
4914.5 24.1429
4915.5 3
4916.5 14.5714
4917.5 40.8571
4918.5 41.5714
4919.5 1.14286
4920.5 40.8571
4921.5 3.57143
4922.5 19.4286
4923.5 -8.28571
4924.5 10.8571
4925.5 24.7143
4926.5 11.1429
4927.5 -7.57143
4928.5 15.4286
4929.5 24.1429
4930.5 14.2857
4931.5 -0.857142
4932.5 24.8571
4933.5 26.5714
4934.5 13
4935.5 5.28572
4936.5 11.2857
4937.5 12.2857
4938.5 4
4939.5 1.85714
4940.5 26.7143
4941.5 48
4942.5 27.4286
4943.5 7.71429
4944.5 15.1429
4945.5 8.71429
4946.5 15.5714
4947.5 -4.57143
4948.5 13.5714
4949.5 5.85714
4950.5 14.2857
4951.5 16.7143
4952.5 10.1429
4953.5 9.71429
4954.5 -9.57143
4955.5 10.7143
4956.5 -11.5714
4957.5 32.1429
4958.5 8.85714
4959.5 1.14286
4960.5 -7.85714
4961.5 14.4286
4962.5 23.4286
4963.5 -12.8571
4964.5 48.8571
4965.5 28.8571
4966.5 15.8571
4967.5 25.5714
4968.5 29.8571
4969.5 21.2857
4970.5 1.57143
4971.5 21.7143
4972.5 27.7143
4973.5 21.5714
4974.5 14
4975.5 8.14286
4976.5 -7
4977.5 35
4978.5 25.1429
4979.5 21.4286
4980.5 22.2857
4981.5 13
4982.5 -8.71428
4983.5 13.1429
4984.5 -1.71428
4985.5 34.2857
4986.5 -0.571427
4987.5 -3.71428
4988.5 8.28572
4989.5 23.1429
4990.5 -6.57143
4991.5 26.2857
4992.5 40.7143
4993.5 16.2857
4994.5 31.2857
4995.5 15.2857
4996.5 11.5714
4997.5 18.7143
4998.5 15.8571
4999.5 15.1429
5000.5 -15.2857
5001.5 22
5002.5 -3.85714
5003.5 -16
5004.5 15.5714
5005.5 -7.57143
5006.5 -2.71428
5007.5 15.1429
5008.5 33.7143
5009.5 3.14286
5010.5 23.1429
5011.5 13.5714
5012.5 20.8571
5013.5 9.85714
5014.5 9
5015.5 29.5714
5016.5 22.4286
5017.5 16.8571
5018.5 3.57143
5019.5 8.85714
5020.5 2.71429
5021.5 16.4286
5022.5 12.8571
5023.5 -3.28571
5024.5 16.8571
5025.5 12.7143
5026.5 11
5027.5 2.57143
5028.5 23.1429
5029.5 13.7143
5030.5 22
5031.5 12.1429
5032.5 79.5714
5033.5 119.571
5034.5 197.714
5035.5 256.429
5036.5 359
5037.5 457.286
5038.5 397.714
5039.5 267
5040.5 128.571
5041.5 49.4286
5042.5 45.5714
5043.5 7.14286
5044.5 11.1429
5045.5 11.2857
5046.5 23.5714
5047.5 16.1429
5048.5 11
5049.5 -20.1429
5050.5 -4.14286
5051.5 12.8571
5052.5 11.4286
5053.5 10.7143
5054.5 -11.7143
5055.5 5.71429
5056.5 7.42857
5057.5 -12.4286
5058.5 5.71429
5059.5 12.1429
5060.5 0.142858
5061.5 28.4286
5062.5 15.4286
5063.5 5.42857
5064.5 5.85714
5065.5 -16.5714
5066.5 52.4286
5067.5 21.2857
5068.5 32
5069.5 7.28572
5070.5 7.57143
5071.5 -6.28571
5072.5 9
5073.5 32.2857
5074.5 10.1429
5075.5 1.57143
5076.5 14.7143
5077.5 -5.28571
5078.5 27.5714
5079.5 -1.71429
5080.5 10
5081.5 1
5082.5 28.2857
5083.5 -4.85714
5084.5 33.1429
5085.5 27.5714
5086.5 -8
5087.5 2.28572
5088.5 16.2857
5089.5 -16
5090.5 31
5091.5 20.8571
5092.5 22.5714
5093.5 27.8571
5094.5 16.2857
5095.5 16.1429
5096.5 7
5097.5 10
5098.5 1.71429
5099.5 -1.14286
5100.5 14
5101.5 39.1429
5102.5 4
5103.5 -6.85714
5104.5 9.14286
5105.5 -15.1429
5106.5 0.428572
5107.5 10.8571
5108.5 16.7143
5109.5 -7
5110.5 4.42857
5111.5 0.428572
5112.5 -7.57143
5113.5 -14.2857
5114.5 2
5115.5 -27
5116.5 16.8571
5117.5 23.2857
5118.5 26.2857
5119.5 -4.57143
5120.5 10.1429
5121.5 -3.42857
5122.5 21
5123.5 -21.2857
5124.5 19.8571
5125.5 20
5126.5 7.71429
5127.5 -12.7143
5128.5 16.2857
5129.5 26.4286
5130.5 19.8571
5131.5 11.7143
5132.5 27.1429
5133.5 8.42857
5134.5 16.8571
5135.5 -20.8571
5136.5 22.2857
5137.5 18
5138.5 15.4286
5139.5 7.28571
5140.5 6.71429
5141.5 -12.1429
5142.5 7
5143.5 14.5714
5144.5 16.1429
5145.5 2.28572
5146.5 13.5714
5147.5 3.71429
5148.5 13
5149.5 40.7143
5150.5 0.285715
5151.5 14.2857
5152.5 -2.57143
5153.5 6.71429
5154.5 4
5155.5 19
5156.5 -1.14286
5157.5 30.1429
5158.5 -0.285713
5159.5 -9.14286
5160.5 17.5714
5161.5 -17.8571
5162.5 -6.85714
5163.5 0.714287
5164.5 25.2857
5165.5 -4.14286
5166.5 22.8571
5167.5 48.1429
5168.5 11.2857
5169.5 10.5714
5170.5 0.285715
5171.5 32.8571
5172.5 0.857144
5173.5 17
5174.5 11.2857
5175.5 1.14286
5176.5 24.7143
5177.5 6.28571
5178.5 3.14286
5179.5 19
5180.5 7.14286
5181.5 23.5714
5182.5 -17.8571
5183.5 -2.57143
5184.5 -1.42857
5185.5 24.2857
5186.5 4
5187.5 -1.85714
5188.5 -5.14286
5189.5 7.15256e-07
5190.5 1.71429
5191.5 -2.71428
5192.5 -31.8571
5193.5 -62.5714
5194.5 -60.5714
5195.5 -54.8571
5196.5 -48.2857
5197.5 -36.5714
5198.5 -6.57143
5199.5 12.5714
5200.5 -5.57143
5201.5 -3.28571
5202.5 8.28572
5203.5 -0.285713
5204.5 -1.28571
5205.5 -4.14286
5206.5 13
5207.5 -3.14286
5208.5 8.14286
5209.5 -18.1429
5210.5 -6.71428
5211.5 3.28572
5212.5 -26
5213.5 -2.71428
5214.5 3.71429
5215.5 -0.999999
5216.5 12.4286
5217.5 -4.57143
5218.5 11.4286
5219.5 -10
5220.5 -7.28571
5221.5 7.15256e-07
5222.5 -0.857142
5223.5 -8.71428
5224.5 -6
5225.5 -2
5226.5 2.85714
5227.5 -16.7143
5228.5 17.1429
5229.5 17.1429
5230.5 27.7143
5231.5 30.5714
5232.5 33.7143
5233.5 35.8571
5234.5 69.1429
5235.5 141.286
5236.5 219
5237.5 298.571
5238.5 354.571
5239.5 464.714
5240.5 424
5241.5 358.857
5242.5 155.286
5243.5 49.4286
5244.5 4.42857
5245.5 9.85714
5246.5 -10.1429
5247.5 8
5248.5 4.85714
5249.5 -11.2857
5250.5 -11
5251.5 1.28571
5252.5 3.85714
5253.5 -12.7143
5254.5 -5.85714
5255.5 -25.1429
5256.5 -22.5714
5257.5 -28.8571
5258.5 -18.4286
5259.5 -17.7143
5260.5 -27.8571
5261.5 -20
5262.5 -31.1429
5263.5 -7
5264.5 -31.4286
5265.5 -24.8571
5266.5 -19.7143
5267.5 12.5714
5268.5 21.7143
5269.5 3.57143
5270.5 -9.57143
5271.5 19.5714
5272.5 4.14286
5273.5 -1.28571
5274.5 11.5714
5275.5 -7.28571
5276.5 -3
5277.5 19.1429
5278.5 21.2857
5279.5 32.7143
5280.5 10.5714
5281.5 11.2857
5282.5 -0.999999
5283.5 2.42857
5284.5 3.71429
5285.5 -0.714285
5286.5 -12.7143
5287.5 13
5288.5 0.285715
5289.5 -13.8571
5290.5 18.1429
5291.5 3.57143
5292.5 4.42857
5293.5 8.85714
5294.5 19.7143
5295.5 15.7143
5296.5 11.4286
5297.5 3.14286
5298.5 -0.571428
5299.5 -2.42857
5300.5 19
5301.5 7.14286
5302.5 -21.5714
5303.5 3.71429
5304.5 2.28572
5305.5 10.5714
5306.5 3.28572
5307.5 -7.42857
5308.5 0.714286
5309.5 2.85714
5310.5 5.28571
5311.5 8.57143
5312.5 4.28571
5313.5 -10.4286
5314.5 6.85714
5315.5 0.714286
5316.5 10.2857
5317.5 15.2857
5318.5 -3.42857
5319.5 15.1429
5320.5 14.7143
5321.5 23
5322.5 3
5323.5 -2.42857
5324.5 8.14286
5325.5 -8
5326.5 6.28571
5327.5 14
5328.5 10.5714
5329.5 -16.1429
5330.5 29.7143
5331.5 7.28571
5332.5 26
5333.5 12.4286
5334.5 -6.71429
5335.5 13.7143
5336.5 9
5337.5 18.2857
5338.5 -4.57143
5339.5 4.85714
5340.5 4.71429
5341.5 8.42857
5342.5 -9.28571
5343.5 6.28571
5344.5 4.57143
5345.5 7.42857
5346.5 -10.8571
5347.5 -2.85714
5348.5 6
5349.5 29.8571
5350.5 -16.1429
5351.5 26.2857
5352.5 31.7143
5353.5 9.42857
5354.5 41.5714
5355.5 50.5714
5356.5 3.71429
5357.5 12.2857
5358.5 -2.42857
5359.5 8.42857
5360.5 13.1429
5361.5 10.2857
5362.5 -1.14286
5363.5 3.57143
5364.5 -17.5714
5365.5 -20.4286
5366.5 3.28571
5367.5 -5.85714
5368.5 -3.28571
5369.5 -3.28571
5370.5 -0.714285
5371.5 -7.42857
5372.5 -6.14286
5373.5 1.85714
5374.5 12.5714
5375.5 10.7143
5376.5 16.4286
5377.5 0.285715
5378.5 0.857143
5379.5 -2.28571
5380.5 19.1429
5381.5 -13.1429
5382.5 10.7143
5383.5 18
5384.5 15.7143
5385.5 35.7143
5386.5 15.8571
5387.5 53.7143
5388.5 16.8571
5389.5 75.8571
5390.5 86.7143
5391.5 34.2857
5392.5 64.5714
5393.5 33.8571
5394.5 90.8571
5395.5 106.286
5396.5 121.571
5397.5 144.286
5398.5 106.857
5399.5 110.571
5400.5 52
5401.5 17.5714
5402.5 11.7143
5403.5 4.71429
5404.5 2.85714
5405.5 11.7143
5406.5 -14.8571
5407.5 2.85714
5408.5 18.7143
5409.5 -1.85714
5410.5 -10.2857
5411.5 0.285715
5412.5 -0.428571
5413.5 7.28571
5414.5 -3.57143
5415.5 4.14286
5416.5 -5.42857
5417.5 -25.1429
5418.5 -19.2857
5419.5 -5.42857
5420.5 -0.857142
5421.5 -8
5422.5 -19.2857
5423.5 5.57143
5424.5 1.28571
5425.5 -10.7143
5426.5 -6.71429
5427.5 1.57143
5428.5 -4.14286
5429.5 -7.14286
5430.5 2.71429
5431.5 3.42857
5432.5 -0.285714
5433.5 -7.42857
5434.5 -1.57143
5435.5 4.14286
5436.5 -0.142857
5437.5 6
5438.5 5.28571
5439.5 10
5440.5 -3.71429
5441.5 -6
5442.5 -5.14286
5443.5 8.85714
5444.5 15
5445.5 12.2857
5446.5 -10.2857
5447.5 28
5448.5 2.28571
5449.5 4
5450.5 23.7143
5451.5 -4
5452.5 29
5453.5 0.285715
5454.5 19
5455.5 0.714286
5456.5 6.85714
5457.5 7.57143
5458.5 9
5459.5 -7.28571
5460.5 9.42857
5461.5 -3.71429
5462.5 9.42857
5463.5 20
5464.5 12.1429
5465.5 -3.57143
5466.5 -2
5467.5 2.57143
5468.5 23.4286
5469.5 0.571429
5470.5 5
5471.5 12.7143
5472.5 11.1429
5473.5 1.57143
5474.5 -1.85714
5475.5 3.14286
5476.5 0.857144
5477.5 -1.71429
5478.5 -4
5479.5 6.71429
5480.5 14.8571
5481.5 -3.14286
5482.5 -5.42857
5483.5 -4.85714
5484.5 9.42857
5485.5 -7.14286
5486.5 -8.57143
5487.5 20.8571
5488.5 -7.57143
5489.5 -7.42857
5490.5 -2.85714
5491.5 -0.571427
5492.5 9.71429
5493.5 7.71429
5494.5 14.8571
5495.5 -0.999999
5496.5 14.5714
5497.5 16.4286
5498.5 -2.42857
5499.5 10.7143
5500.5 -14.2857
5501.5 -1.85714
5502.5 17.8571
5503.5 10.4286
5504.5 4.85714
5505.5 -3.57143
5506.5 3.57143
5507.5 -5.14286
5508.5 -8.71429
5509.5 1.14286
5510.5 -12.7143
5511.5 2.57143
5512.5 -13.7143
5513.5 -2.57143
5514.5 12.7143
5515.5 -8.14286
5516.5 10.8571
5517.5 17
5518.5 10.8571
5519.5 18.8571
5520.5 8.57143
5521.5 3
5522.5 -3.28571
5523.5 16.5714
5524.5 2.28571
5525.5 -10.4286
5526.5 -7.57143
5527.5 -5.28571
5528.5 4.71429
5529.5 7.57143
5530.5 11.5714
5531.5 -11.2857
5532.5 7.14286
5533.5 -23.2857
5534.5 -4.42857
5535.5 -3.71428
5536.5 0.428572
5537.5 0.857144
5538.5 1.57143
5539.5 6
5540.5 18.7143
5541.5 -4.42857
5542.5 9.42857
5543.5 9.28571
5544.5 11.5714
5545.5 6.42857
5546.5 -13
5547.5 10.7143
5548.5 17.2857
5549.5 13.2857
5550.5 -8.71429
5551.5 2.85714
5552.5 -5.42857
5553.5 4.85714
5554.5 -1.42857
5555.5 5.42857
5556.5 1
5557.5 -16
5558.5 20.2857
5559.5 -10
5560.5 -22.5714
5561.5 -1.42857
5562.5 -0.714285
5563.5 -19.4286
5564.5 -11.8571
5565.5 1
5566.5 -15.7143
5567.5 -12.4286
5568.5 -19.1429
5569.5 -5.57143
5570.5 -1
5571.5 14.7143
5572.5 3
5573.5 15.1429
5574.5 -3.42857
5575.5 0.142858
5576.5 9.71429
5577.5 9.28571
5578.5 23.1429
5579.5 18.8571
5580.5 23.1429
5581.5 -15.4286
5582.5 28.1429
5583.5 17
5584.5 12.5714
5585.5 -3.85714
5586.5 -3.42857
5587.5 -7.71429
5588.5 11.8571
5589.5 -2
5590.5 12.4286
5591.5 19.1429
5592.5 9
5593.5 -0.142856
5594.5 -0.714285
5595.5 23.1429
5596.5 21.4286
5597.5 17.1429
5598.5 9.42857
5599.5 24
5600.5 2.14286
5601.5 2.42857
5602.5 -4.42857
5603.5 -4
5604.5 -6.57143
5605.5 -5.28571
5606.5 5.28571
5607.5 -0.285714
5608.5 -9.28571
5609.5 3.14286
5610.5 -6.42857
5611.5 -9.71428
5612.5 -21.1429
5613.5 -16.1429
5614.5 -20.8571
5615.5 -22.5714
5616.5 5.57143
5617.5 -10
5618.5 -24.2857
5619.5 6.42857
5620.5 -7
5621.5 0.428572
5622.5 9.28571
5623.5 8.28571
5624.5 2.57143
5625.5 14.5714
5626.5 -19.2857
5627.5 12.5714
5628.5 -3.14286
5629.5 15.5714
5630.5 7.57143
5631.5 -2.85714
5632.5 0.142858
5633.5 -0.285714
5634.5 7.71429
5635.5 -2.42857
5636.5 -4.14286
5637.5 -2
5638.5 -10.1429
5639.5 8.42857
5640.5 3.42857
5641.5 11.4286
5642.5 14.2857
5643.5 14.8571
5644.5 7.42857
5645.5 17.4286
5646.5 11.1429
5647.5 0.142858
5648.5 16.8571
5649.5 -4.71429
5650.5 -9.42857
5651.5 2.14286
5652.5 4.57143
5653.5 22.2857
5654.5 -4.14286
5655.5 4
5656.5 -33.5714
5657.5 -11.4286
5658.5 -4
5659.5 -8.42857
5660.5 1.71429
5661.5 -13.7143
5662.5 0.428572
5663.5 -13.8571
5664.5 -21.7143
5665.5 -6.42857
5666.5 3.57143
5667.5 -5.42857
5668.5 6
5669.5 0.428572
5670.5 13.7143
5671.5 22.2857
5672.5 18.2857
5673.5 3.57143
5674.5 12.4286
5675.5 52
5676.5 43.2857
5677.5 61.8571
5678.5 64.2857
5679.5 31.4286
5680.5 22.7143
5681.5 10.7143
5682.5 13
5683.5 6.71429
5684.5 9.14286
5685.5 0.142858
5686.5 15.1429
5687.5 2.42857
5688.5 11.5714
5689.5 13.2857
5690.5 -0.571428
5691.5 -13.1429
5692.5 -0.285714
5693.5 -4.28571
5694.5 -2
5695.5 -0.571428
5696.5 -5.14286
5697.5 2.42857
5698.5 -8.14286
5699.5 1.57143
5700.5 0.285715
5701.5 -5.28571
5702.5 -4.42857
5703.5 -24.5714
5704.5 -2.42857
5705.5 12.4286
5706.5 -10.2857
5707.5 0.142858
5708.5 -10.5714
5709.5 -18.1429
5710.5 -2.71429
5711.5 -0.285714
5712.5 7.28571
5713.5 -6.42857
5714.5 -0.571428
5715.5 1
5716.5 12.1429
5717.5 2.71429
5718.5 -3.71429
5719.5 7.85714
5720.5 11.5714
5721.5 13.4286
5722.5 -3
5723.5 9
5724.5 28
5725.5 13
5726.5 0.285715
5727.5 -9
5728.5 7.71429
5729.5 8.71429
5730.5 -5.28571
5731.5 11.2857
5732.5 2.14286
5733.5 14.2857
5734.5 -0.999999
5735.5 1.28571
5736.5 10.7143
5737.5 -5.71429
5738.5 7.42857
5739.5 25
5740.5 7.14286
5741.5 11.5714
5742.5 -13.7143
5743.5 -9.14286
5744.5 -2.71429
5745.5 -3
5746.5 -11.1429
5747.5 -21.2857
5748.5 -3.28571
5749.5 25.7143
5750.5 -13.2857
5751.5 -19.4286
5752.5 -1.28571
5753.5 -30.8571
5754.5 -45.5714
5755.5 -14.2857
5756.5 -59.8571
5757.5 -36.5714
5758.5 -9.85714
5759.5 -10.7143
5760.5 -5.14286
5761.5 -19.4286
5762.5 -4.14286
5763.5 -0.714285
5764.5 18.5714
5765.5 6
5766.5 -2.14286
5767.5 5.71429
5768.5 11.4286
5769.5 -9.14286
5770.5 11.5714
5771.5 4.71429
5772.5 -4.71429
5773.5 15
5774.5 -6
5775.5 -5.14286
5776.5 16.4286
5777.5 12.5714
5778.5 5.71429
5779.5 4.57143
5780.5 1
5781.5 -8.57143
5782.5 17.4286
5783.5 0.428572
5784.5 3.71429
5785.5 5.85714
5786.5 0.428572
5787.5 19.7143
5788.5 28.5714
5789.5 40.5714
5790.5 -1.42857
5791.5 13.7143
5792.5 -3.71429
5793.5 0.285715
5794.5 8.28571
5795.5 13
5796.5 -2.28571
5797.5 4.71429
5798.5 4.14286
5799.5 2.71429
5800.5 -6
5801.5 -5.42857
5802.5 -4.42857
5803.5 -1.57143
5804.5 14.1429
5805.5 -4.14286
5806.5 -2.57143
5807.5 -1.42857
5808.5 0.142858
5809.5 -3.57143
5810.5 -0.142857
5811.5 -0.428571
5812.5 -3.14286
5813.5 1.42857
5814.5 8.71429
5815.5 2.85714
5816.5 11.7143
5817.5 2.71429
5818.5 -0.714285
5819.5 6.14286
5820.5 3.42857
5821.5 -8.57143
5822.5 12.4286
5823.5 -2
5824.5 4.57143
5825.5 9
5826.5 18.1429
5827.5 17.7143
5828.5 -6.85714
5829.5 6.28572
5830.5 -16
5831.5 7.42857
5832.5 -14.4286
5833.5 -5.28571
5834.5 -0.571428
5835.5 5
5836.5 -21.2857
5837.5 4.42857
5838.5 13.4286
5839.5 -1.71429
5840.5 4.42857
5841.5 -4.57143
5842.5 -4.71428
5843.5 13.4286
5844.5 -2.85714
5845.5 -1.85714
5846.5 0.142858
5847.5 4.28571
5848.5 1.85714
5849.5 14.4286
5850.5 5.85714
5851.5 -7
5852.5 -5.57143
5853.5 14.7143
5854.5 2.28571
5855.5 5.57143
5856.5 -10
5857.5 3.14286
5858.5 -12.2857
5859.5 11.5714
5860.5 4.42857
5861.5 8
5862.5 2.42857
5863.5 -7.85714
5864.5 -3.71429
5865.5 2.28571
5866.5 -1.71429
5867.5 -0.142857
5868.5 -9.28571
5869.5 -4
5870.5 -1.85714
5871.5 5.85714
5872.5 -4
5873.5 -5.28571
5874.5 -0.714285
5875.5 1
5876.5 -5.42857
5877.5 -5.85714
5878.5 1
5879.5 -13.7143
5880.5 -9.14286
5881.5 -17.7143
5882.5 9
5883.5 -1.42857
5884.5 22.1429
5885.5 1.14286
5886.5 -2.57143
5887.5 -6.42857
5888.5 -1.71429
5889.5 3.85714
5890.5 16.1429
5891.5 12.2857
5892.5 -2.71429
5893.5 4.28571
5894.5 11.5714
5895.5 31.1429
5896.5 35.2857
5897.5 83.2857
5898.5 145.571
5899.5 125.857
5900.5 172.714
5901.5 84
5902.5 87.7143
5903.5 33.5714
5904.5 38.8571
5905.5 16.1429
5906.5 12.1429
5907.5 27.4286
5908.5 16.5714
5909.5 24.2857
5910.5 5.85714
5911.5 35.2857
5912.5 6.42857
5913.5 4
5914.5 13.1429
5915.5 -4.57143
5916.5 -3
5917.5 -3.57143
5918.5 -4.14286
5919.5 -0.285714
5920.5 7.14286
5921.5 -6.57143
5922.5 -0.571428
5923.5 4
5924.5 -8.14286
5925.5 -1.71429
5926.5 -3
5927.5 -7.28571
5928.5 -4.14286
5929.5 0.857143
5930.5 -2.57143
5931.5 9.14286
5932.5 11.5714
5933.5 1.71429
5934.5 -16.2857
5935.5 0.285715
5936.5 3.57143
5937.5 -3.42857
5938.5 -7.28571
5939.5 -3.85714
5940.5 -1.57143
5941.5 2
5942.5 -9.28571
5943.5 7.28571
5944.5 -1
5945.5 -9
5946.5 5.57143
5947.5 7.42857
5948.5 0.285715
5949.5 4.71429
5950.5 -7.71429
5951.5 -17.4286
5952.5 5.85714
5953.5 -1.57143
5954.5 -2.28571
5955.5 -7.71429
5956.5 3
5957.5 -15.1429
5958.5 -1.71429
5959.5 4.57143
5960.5 -5.14286
5961.5 2.42857
5962.5 1.28571
5963.5 0.714286
5964.5 -4.71429
5965.5 6.42857
5966.5 -11.4286
5967.5 -1.71429
5968.5 -5.14286
5969.5 -12.1429
5970.5 0.285715
5971.5 -1.85714
5972.5 -0.714285
5973.5 15.5714
5974.5 4.71429
5975.5 -2.85714
5976.5 -3
5977.5 -8.14286
5978.5 7
5979.5 3
5980.5 5.85714
5981.5 0.428572
5982.5 10.1429
5983.5 -5.57143
5984.5 -2.28571
5985.5 0.285715
5986.5 1.71429
5987.5 -11.2857
5988.5 -3.42857
5989.5 -2.71429
5990.5 10.1429
5991.5 -12.5714
5992.5 4.14286
5993.5 9.57143
5994.5 -5.85714
5995.5 2.85714
5996.5 0.571429
5997.5 -0.285713
5998.5 6.85714
5999.5 -18.1429
6000.5 23.2857
6001.5 -18.8571
6002.5 5.42857
6003.5 -9.57143
6004.5 -4.42857
6005.5 -0.142857
6006.5 -7
6007.5 -4.57143
6008.5 10.2857
6009.5 -7.57143
6010.5 7.42857
6011.5 3.71429
6012.5 -8.42857
6013.5 -4.85714
6014.5 2.42857
6015.5 -1.57143
6016.5 6.57143
6017.5 -0.285714
6018.5 -0.714285
6019.5 4.42857
6020.5 -9.71429
6021.5 -2.28571
6022.5 5
6023.5 0.571429
6024.5 9
6025.5 -10.7143
6026.5 -1
6027.5 5.42857
6028.5 12.2857
6029.5 1.71429
6030.5 -8.71429
6031.5 5.57143
6032.5 12.5714
6033.5 8.34465e-07
6034.5 4.14286
6035.5 -3.57143
6036.5 -1.85714
6037.5 -7.28571
6038.5 18.4286
6039.5 -1.85714
6040.5 4.57143
6041.5 -5
6042.5 -0.428571
6043.5 5.42857
6044.5 -15.4286
6045.5 4
6046.5 -6.85714
6047.5 -3.71429
6048.5 2.42857
6049.5 -6
6050.5 -2.42857
6051.5 -8.14286
6052.5 1.71429
6053.5 2.28571
6054.5 7.57143
6055.5 -0.857143
6056.5 -2.28571
6057.5 -18.4286
6058.5 -10.4286
6059.5 -7.14286
6060.5 -8
6061.5 1.57143
6062.5 -3.42857
6063.5 3.28571
6064.5 3
6065.5 -3.14286
6066.5 -6.14286
6067.5 4.71429
6068.5 4.57143
6069.5 -5.57143
6070.5 -7.42857
6071.5 -3.85714
6072.5 -2.14286
6073.5 -0.285714
6074.5 -2.57143
6075.5 12.4286
6076.5 0.857143
6077.5 -10.5714
6078.5 -16.4286
6079.5 1.85714
6080.5 4.57143
6081.5 -6.42857
6082.5 4.71429
6083.5 0.714286
6084.5 -6
6085.5 2.28571
6086.5 -8.85714
6087.5 -6.14286
6088.5 -3.85714
6089.5 -0.428571
6090.5 6.42857
6091.5 -3
6092.5 1
6093.5 9.28571
6094.5 3.85714
6095.5 3.28571
6096.5 8.14286
6097.5 -15.4286
6098.5 -8.57143
6099.5 6.85714
6100.5 12
6101.5 5.71429
6102.5 2.71429
6103.5 -2.85714
6104.5 -3
6105.5 9.71429
6106.5 -8.14286
6107.5 2.28571
6108.5 -4.85714
6109.5 10
6110.5 1.85714
6111.5 -13.8571
6112.5 -5
6113.5 3.85714
6114.5 15.4286
6115.5 -10.4286
6116.5 -2.57143
6117.5 -25.5714
6118.5 -6
6119.5 -15.4286
6120.5 -5.28571
6121.5 -9.85714
6122.5 -4.85714
6123.5 -56.7143
6124.5 -72
6125.5 -6
6126.5 0.285716
6127.5 15
6128.5 -13
6129.5 -18.1429
6130.5 -14
6131.5 -6.57143
6132.5 -3.57143
6133.5 -27.8571
6134.5 6.57143
6135.5 -2.71429
6136.5 2.38419e-07
6137.5 -0.142857
6138.5 -2.28571
6139.5 4.71429
6140.5 9.71429
6141.5 6.28571
6142.5 -11.8571
6143.5 8.71429
6144.5 -7
6145.5 1.28571
6146.5 0.285715
6147.5 5.28571
6148.5 -5.28571
6149.5 -11.4286
6150.5 -8.14286
6151.5 2.14286
6152.5 2
6153.5 -9.14286
6154.5 -1
6155.5 -1.28571
6156.5 2.28571
6157.5 5.85714
6158.5 14
6159.5 3.57143
6160.5 4.71429
6161.5 -5.85714
6162.5 4.85714
6163.5 -1.14286
6164.5 1.71429
6165.5 -6.85714
6166.5 -12.4286
6167.5 2.14286
6168.5 -6.71429
6169.5 -4.28571
6170.5 1.85714
6171.5 -1.85714
6172.5 -12.4286
6173.5 -18.2857
6174.5 -22
6175.5 -2.71429
6176.5 -7.28571
6177.5 -2.14286
6178.5 -2.71429
6179.5 -1.71429
6180.5 -3.42857
6181.5 4.14286
6182.5 -1.57143
6183.5 12.1429
6184.5 -7.28571
6185.5 -3.71429
6186.5 10.7143
6187.5 1.71429
6188.5 -3
6189.5 -3.71429
6190.5 5.85714
6191.5 -0.714285
6192.5 2.42857
6193.5 -2.42857
6194.5 -3
6195.5 -4.71429
6196.5 -1.57143
6197.5 7.57143
6198.5 1.42857
6199.5 2.38419e-07
6200.5 -2.42857
6201.5 -5.28571
6202.5 -3.42857
6203.5 -1.57143
6204.5 4
6205.5 -4
6206.5 -6.71429
6207.5 0.571429
6208.5 -3.14286
6209.5 -12.4286
6210.5 -5.71429
6211.5 -4
6212.5 0.857143
6213.5 4
6214.5 -2.71429
6215.5 -10.8571
6216.5 -3.71429
6217.5 -4.14286
6218.5 -14.1429
6219.5 -4.71429
6220.5 4.28571
6221.5 -3.14286
6222.5 5.42857
6223.5 5.14286
6224.5 9.71429
6225.5 -1.14286
6226.5 0.142858
6227.5 -6
6228.5 13.7143
6229.5 3
6230.5 2.85714
6231.5 -0.714285
6232.5 10
6233.5 3.85714
6234.5 -0.714285
6235.5 3.14286
6236.5 -2.85714
6237.5 2.28571
6238.5 4.57143
6239.5 -3
6240.5 1.14286
6241.5 -2.71429
6242.5 3.28571
6243.5 -9.28571
6244.5 -3.42857
6245.5 7.14286
6246.5 -5.85714
6247.5 2.85714
6248.5 -2.14286
6249.5 5.28571
6250.5 -3.57143
6251.5 0.857143
6252.5 3.71429
6253.5 -6
6254.5 -5.14286
6255.5 8.42857
6256.5 -1.28571
6257.5 15.8571
6258.5 20.8571
6259.5 5.71429
6260.5 18.2857
6261.5 10.5714
6262.5 14.7143
6263.5 0.142857
6264.5 10.2857
6265.5 -0.857143
6266.5 -9.57143
6267.5 6.71429
6268.5 2.14286
6269.5 -1.71429
6270.5 1.42857
6271.5 -12.5714
6272.5 -2.42857
6273.5 0.571429
6274.5 8.42857
6275.5 -3.14286
6276.5 -6.42857
6277.5 2.28571
6278.5 1.14286
6279.5 -2.57143
6280.5 -1.57143
6281.5 -5.42857
6282.5 -12.7143
6283.5 2.28571
6284.5 4.71429
6285.5 7.71429
6286.5 7.85714
6287.5 -4.28571
6288.5 -3.71429
6289.5 2.14286
6290.5 -9.57143
6291.5 9.85714
6292.5 10.5714
6293.5 13.5714
6294.5 16.7143
6295.5 14
6296.5 5.71429
6297.5 29.5714
6298.5 21.4286
6299.5 17
6300.5 4.28571
6301.5 12
6302.5 6.57143
6303.5 -2.71429
6304.5 -4.14286
6305.5 4.42857
6306.5 -4
6307.5 -0.142857
6308.5 0.714286
6309.5 10.8571
6310.5 -7.42857
6311.5 -2.71429
6312.5 6.57143
6313.5 -11.2857
6314.5 4.14286
6315.5 -3.14286
6316.5 -1.85714
6317.5 5.57143
6318.5 -0.285714
6319.5 0.857143
6320.5 0.714286
6321.5 -6.85714
6322.5 -4.14286
6323.5 -2.28571
6324.5 -12.7143
6325.5 15.4286
6326.5 -7.57143
6327.5 1.85714
6328.5 -1.71429
6329.5 11.4286
6330.5 8.57143
6331.5 -9.57143
6332.5 0.142857
6333.5 -3.28571
6334.5 -9.85714
6335.5 -12.5714
6336.5 12.2857
6337.5 -5.28571
6338.5 -8.28571
6339.5 -2
6340.5 -7.71429
6341.5 1
6342.5 -5.42857
6343.5 4.57143
6344.5 8.85714
6345.5 1.71429
6346.5 -3.14286
6347.5 7
6348.5 -5
6349.5 -5.28571
6350.5 8.71429
6351.5 11.4286
6352.5 -13
6353.5 -0.142857
6354.5 10.7143
6355.5 1.14286
6356.5 -1.42857
6357.5 0.857143
6358.5 -4.85714
6359.5 -1.57143
6360.5 0.428572
6361.5 -2.42857
6362.5 -3.71429
6363.5 1
6364.5 0.714286
6365.5 1.57143
6366.5 2.71429
6367.5 8.57143
6368.5 6.28571
6369.5 2
6370.5 1.19209e-07
6371.5 -0.571428
6372.5 6.57143
6373.5 3.71429
6374.5 -7.85714
6375.5 0.142857
6376.5 -7
6377.5 -0.714286
6378.5 -9
6379.5 4.57143
6380.5 10
6381.5 -6.28571
6382.5 0.428572
6383.5 0.571429
6384.5 -2
6385.5 -8.42857
6386.5 -2.85714
6387.5 -7.85714
6388.5 -5.28571
6389.5 7.28571
6390.5 -8.42857
6391.5 9.71429
6392.5 4.28571
6393.5 6.71429
6394.5 6.28571
6395.5 0.285714
6396.5 -0.857143
6397.5 3.42857
6398.5 2.71429
6399.5 -3.85714
6400.5 4.71429
6401.5 0.714286
6402.5 6.85714
6403.5 2.85714
6404.5 -5.71429
6405.5 -10.1429
6406.5 1.14286
6407.5 -7.14286
6408.5 3.14286
6409.5 3
6410.5 2.28571
6411.5 -3.28571
6412.5 1.57143
6413.5 -4.28571
6414.5 -9.57143
6415.5 -10
6416.5 0.142857
6417.5 6.57143
6418.5 -5.42857
6419.5 2.14286
6420.5 1.42857
6421.5 4.57143
6422.5 -4.28571
6423.5 -2.71429
6424.5 10.1429
6425.5 -4
6426.5 8.42857
6427.5 -1.28571
6428.5 -8.85714
6429.5 -20.8571
6430.5 1
6431.5 -4.85714
6432.5 4.28571
6433.5 -0.428571
6434.5 -3.28571
6435.5 8
6436.5 -5.42857
6437.5 1.14286
6438.5 4.28571
6439.5 11.7143
6440.5 -6.71429
6441.5 -6.57143
6442.5 2.28571
6443.5 -6.71429
6444.5 4.42857
6445.5 0.142857
6446.5 -2.85714
6447.5 -6.85714
6448.5 -5.14286
6449.5 0.428572
6450.5 7.71429
6451.5 1.71429
6452.5 -0.285714
6453.5 1.19209e-07
6454.5 -1.28571
6455.5 -4.57143
6456.5 2.28571
6457.5 -6.85714
6458.5 -10.4286
6459.5 -3
6460.5 -0.285714
6461.5 4
6462.5 6.28571
6463.5 2.57143
6464.5 1.28571
6465.5 -11.4286
6466.5 1.14286
6467.5 -3.85714
6468.5 6.57143
6469.5 3
6470.5 1.42857
6471.5 -1.42857
6472.5 -0.857143
6473.5 -5.28571
6474.5 1.14286
6475.5 7.28571
6476.5 4
6477.5 -6
6478.5 18.5714
6479.5 -0.571428
6480.5 -18.7143
6481.5 0.142858
6482.5 3.57628e-07
6483.5 4.71429
6484.5 -2.57143
6485.5 3.14286
6486.5 -3.71429
6487.5 -5.42857
6488.5 -5.14286
6489.5 -0.857143
6490.5 0.714286
6491.5 -3.28571
6492.5 -4.28571
6493.5 0.428572
6494.5 -0.428571
6495.5 -2.28571
6496.5 -0.142857
6497.5 4.57143
6498.5 -2
6499.5 4.14286
6500.5 -1
6501.5 -0.428571
6502.5 6.85714
6503.5 -0.428571
6504.5 -6.42857
6505.5 -1.28571
6506.5 4.42857
6507.5 5
6508.5 17.5714
6509.5 1.19209e-07
6510.5 -0.428571
6511.5 -3.28571
6512.5 -4
6513.5 2.42857
6514.5 3.85714
6515.5 2.57143
6516.5 0.285714
6517.5 -3.28571
6518.5 1
6519.5 3.14286
6520.5 -6.14286
6521.5 5.57143
6522.5 2
6523.5 2.71429
6524.5 -6.42857
6525.5 -8.14286
6526.5 -0.571428
6527.5 6.85714
6528.5 -7.42857
6529.5 3.71429
6530.5 2.28571
6531.5 -2
6532.5 -3.71429
6533.5 3.85714
6534.5 -2
6535.5 2.14286
6536.5 12.7143
6537.5 7.28571
6538.5 2.42857
6539.5 -6.85714
6540.5 4.28571
6541.5 -3.42857
6542.5 -3.14286
6543.5 -5.28571
6544.5 3.42857
6545.5 -23.5714
6546.5 -7.57143
6547.5 10.7143
6548.5 4.71429
6549.5 1.71429
6550.5 -6.85714
6551.5 -12.4286
6552.5 9.57143
6553.5 -0.714285
6554.5 4.14286
6555.5 2.57143
6556.5 -1.28571
6557.5 1
6558.5 -0.142857
6559.5 5.85714
6560.5 4.71429
6561.5 0.142857
6562.5 5.28571
6563.5 -6.42857
6564.5 3.57143
6565.5 5.71429
6566.5 -1.14286
6567.5 -5.28571
6568.5 -0.571428
6569.5 -2
6570.5 0.285714
6571.5 1.71429
6572.5 -0.714286
6573.5 1.19209e-07
6574.5 -1.14286
6575.5 0.285714
6576.5 -2.57143
6577.5 2.14286
6578.5 -1
6579.5 1
6580.5 2.57143
6581.5 -0.142857
6582.5 1.85714
6583.5 1.85714
6584.5 -5.71429
6585.5 -4
6586.5 1.57143
6587.5 -4.57143
6588.5 -2
6589.5 2
6590.5 3.85714
6591.5 -5.85714
6592.5 -2.57143
6593.5 2.57143
6594.5 -4.85714
6595.5 -1.14286
6596.5 4.57143
6597.5 9.42857
6598.5 2.28571
6599.5 -0.285714
6600.5 -3.28571
6601.5 7.85714
6602.5 0.285714
6603.5 -2.42857
6604.5 3.57143
6605.5 5.85714
6606.5 -4
6607.5 -0.714286
6608.5 -3
6609.5 -0.142857
6610.5 5.57143
6611.5 -6.28571
6612.5 1.28571
6613.5 -11.4286
6614.5 1.57143
6615.5 -1
6616.5 -4.14286
6617.5 7.42857
6618.5 -3.28571
6619.5 3.28571
6620.5 -2.57143
6621.5 4
6622.5 -4
6623.5 3.85714
6624.5 -5.28571
6625.5 4.85714
6626.5 1.28571
6627.5 1.85714
6628.5 5
6629.5 -0.142857
6630.5 -9.71429
6631.5 1
6632.5 -1
6633.5 0.571429
6634.5 -6.14286
6635.5 1.57143
6636.5 -3.71429
6637.5 -7.85714
6638.5 -9.71429
6639.5 -15.8571
6640.5 -10.2857
6641.5 -27.5714
6642.5 -16.4286
6643.5 -20
6644.5 -7
6645.5 -12.5714
6646.5 -2.14286
6647.5 -2.57143
6648.5 -2
6649.5 -10.2857
6650.5 -0.428571
6651.5 1.71429
6652.5 2.14286
6653.5 -8.57143
6654.5 -8.42857
6655.5 -8.71429
6656.5 -8.57143
6657.5 -4.14286
6658.5 -14
6659.5 -9.57143
6660.5 -7.71429
6661.5 -5.57143
6662.5 5.28571
6663.5 1.42857
6664.5 -5.85714
6665.5 3.57143
6666.5 4.85714
6667.5 8.14286
6668.5 13.1429
6669.5 5.42857
6670.5 0.285714
6671.5 14.4286
6672.5 8.85714
6673.5 4.28571
6674.5 -6.85714
6675.5 1.19209e-07
6676.5 -0.428571
6677.5 -3.71429
6678.5 1
6679.5 0.714286
6680.5 -6.57143
6681.5 -3.57143
6682.5 -5.57143
6683.5 -17.4286
6684.5 -16.7143
6685.5 -27
6686.5 -23.1429
6687.5 -32
6688.5 -30.4286
6689.5 -27.7143
6690.5 -3.85714
6691.5 -6.14286
6692.5 1.19209e-07
6693.5 -5.28571
6694.5 -2.71429
6695.5 -6
6696.5 -7.57143
6697.5 2
6698.5 2.14286
6699.5 -7.85714
6700.5 -7.57143
6701.5 -6.57143
6702.5 1.14286
6703.5 -4.28571
6704.5 -4.42857
6705.5 -0.142857
6706.5 -5.71429
6707.5 -8.57143
6708.5 -4
6709.5 2
6710.5 4.14286
6711.5 1.28571
6712.5 -2.42857
6713.5 -3
6714.5 -2.28571
6715.5 0.857143
6716.5 2
6717.5 -7.28571
6718.5 1.19209e-07
6719.5 -0.714286
6720.5 1.19209e-07
6721.5 3.14286
6722.5 2.85714
6723.5 2.14286
6724.5 1.28571
6725.5 9.14286
6726.5 -2.85714
6727.5 -12.1429
6728.5 -7.14286
6729.5 1.19209e-07
6730.5 -9.42857
6731.5 2.71429
6732.5 1.28571
6733.5 -2.42857
6734.5 -4.28571
6735.5 3.14286
6736.5 -2.28571
6737.5 3.42857
6738.5 5.85714
6739.5 2.85714
6740.5 -2.42857
6741.5 0.571429
6742.5 4.42857
6743.5 -2.14286
6744.5 7.42857
6745.5 -7.85714
6746.5 -2
6747.5 -9.42857
6748.5 0.714286
6749.5 -4.85714
6750.5 3
6751.5 6
6752.5 -5.14286
6753.5 -2.57143
6754.5 4.85714
6755.5 -4.71429
6756.5 0.142857
6757.5 -7.57143
6758.5 -5.28571
6759.5 1.85714
6760.5 -1.85714
6761.5 3.85714
6762.5 1
6763.5 2.14286
6764.5 6.71429
6765.5 -0.142857
6766.5 2.85714
6767.5 22.7143
6768.5 16.2857
6769.5 23
6770.5 51.2857
6771.5 39.4286
6772.5 32.5714
6773.5 15.1429
6774.5 13
6775.5 10.4286
6776.5 11.7143
6777.5 -5.57143
6778.5 2.57143
6779.5 -7
6780.5 -4
6781.5 -3
6782.5 -2
6783.5 1.19209e-07
6784.5 -5.57143
6785.5 0.571429
6786.5 -4
6787.5 -1.85714
6788.5 -8
6789.5 1.85714
6790.5 -5.28571
6791.5 -2.71429
6792.5 -7
6793.5 -4
6794.5 -3.14286
6795.5 0.857143
6796.5 -2.85714
6797.5 -0.428571
6798.5 -0.428571
6799.5 3.85714
6800.5 -4
6801.5 -7
6802.5 -1.85714
6803.5 0.571429
6804.5 -3.42857
6805.5 -1.14286
6806.5 8.14286
6807.5 -3.14286
6808.5 3.71429
6809.5 6.71429
6810.5 3.85714
6811.5 -4
6812.5 -1.42857
6813.5 1.19209e-07
6814.5 7.42857
6815.5 4.14286
6816.5 -6
6817.5 -6.85714
6818.5 -4
6819.5 4.42857
6820.5 3.42857
6821.5 -4.71429
6822.5 4.14286
6823.5 1.42857
6824.5 2.57143
6825.5 -2.85714
6826.5 -2.42857
6827.5 1.14286
6828.5 4.85714
6829.5 -3.85714
6830.5 -1.14286
6831.5 1.14286
6832.5 -8
6833.5 5.85714
6834.5 3.85714
6835.5 -5
6836.5 1.19209e-07
6837.5 -5.85714
6838.5 6.57143
6839.5 7.28571
6840.5 4.28571
6841.5 -7.85714
6842.5 -7.42857
6843.5 0.428572
6844.5 -7.14286
6845.5 6.42857
6846.5 -3.57143
6847.5 -6
6848.5 5.14286
6849.5 -3.42857
6850.5 2.42857
6851.5 -0.428571
6852.5 4.42857
6853.5 0.571429
6854.5 1.14286
6855.5 -1.14286
6856.5 0.428571
6857.5 -5.28571
6858.5 3.14286
6859.5 -7
6860.5 0.428571
6861.5 -5.28571
6862.5 -3.28571
6863.5 1.71429
6864.5 -7.28571
6865.5 -4.42857
6866.5 4.14286
6867.5 0.857143
6868.5 3.14286
6869.5 -3.71429
6870.5 -1.42857
6871.5 -2.14286
6872.5 -5.42857
6873.5 -1.42857
6874.5 2.57143
6875.5 -5.28571
6876.5 4.71429
6877.5 -0.142857
6878.5 1.42857
6879.5 -0.857143
6880.5 0.857143
6881.5 -2.14286
6882.5 -4.28571
6883.5 1.14286
6884.5 0.285714
6885.5 -3.42857
6886.5 -0.428571
6887.5 4
6888.5 2.57143
6889.5 -6
6890.5 0.714286
6891.5 -4.71429
6892.5 -2.71429
6893.5 4.14286
6894.5 -0.857143
6895.5 -0.857143
6896.5 -1.14286
6897.5 1.14286
6898.5 1.42857
6899.5 -2
6900.5 -8.57143
6901.5 1.85714
6902.5 -0.714286
6903.5 4
6904.5 -3
6905.5 -3
6906.5 4.14286
6907.5 -2.42857
6908.5 1.57143
6909.5 4.71429
6910.5 -0.142857
6911.5 -1
6912.5 0.142857
6913.5 4.42857
6914.5 -9.57143
6915.5 -3.28571
6916.5 -4.71429
6917.5 -2.14286
6918.5 -3.71429
6919.5 -7.28571
6920.5 -3.71429
6921.5 1.14286
6922.5 -3.42857
6923.5 -5.28571
6924.5 2.14286
6925.5 -9.57143
6926.5 -4.57143
6927.5 -3.71429
6928.5 4.28571
6929.5 -1.85714
6930.5 0.857143
6931.5 -5.14286
6932.5 14.2857
6933.5 -8.71429
6934.5 -3
6935.5 -2.85714
6936.5 -0.857143
6937.5 8.42857
6938.5 -0.285714
6939.5 -2
6940.5 2.85714
6941.5 5
6942.5 -1.42857
6943.5 -2.42857
6944.5 4.57143
6945.5 0.285714
6946.5 -6.28571
6947.5 0.857143
6948.5 0.142857
6949.5 -1.14286
6950.5 3.71429
6951.5 2.14286
6952.5 1.42857
6953.5 -4.57143
6954.5 -3.14286
6955.5 4.14286
6956.5 -1.85714
6957.5 0.142857
6958.5 2.14286
6959.5 -2.71429
6960.5 -2.42857
6961.5 -1.14286
6962.5 -5.28571
6963.5 -5
6964.5 -1.42857
6965.5 -0.142857
6966.5 -0.571429
6967.5 0.142857
6968.5 -3.42857
6969.5 -3.42857
6970.5 -0.571429
6971.5 -0.571429
6972.5 2.71429
6973.5 1.14286
6974.5 0.142857
6975.5 4
6976.5 -2.71429
6977.5 -2.42857
6978.5 -6
6979.5 -2.42857
6980.5 -3
6981.5 -3.14286
6982.5 -0.714286
6983.5 5.42857
6984.5 -1.71429
6985.5 1.42857
6986.5 1.42857
6987.5 -2.42857
6988.5 8.42857
6989.5 4.42857
6990.5 -0.571429
6991.5 -0.857143
6992.5 6.42857
6993.5 3.42857
6994.5 -0.428571
6995.5 1.42857
6996.5 0.857143
6997.5 -3.14286
6998.5 -4.14286
6999.5 1
7000.5 3.42857
7001.5 4.71429
7002.5 3
7003.5 -5.71429
7004.5 1.57143
7005.5 -0.857143
7006.5 -0.142857
7007.5 0.142857
7008.5 5.42857
7009.5 -5.71429
7010.5 1.71429
7011.5 0.428571
7012.5 3.71429
7013.5 -0.285714
7014.5 -0.142857
7015.5 -7
7016.5 6.71429
7017.5 -4.71429
7018.5 -1.57143
7019.5 2.42857
7020.5 0.714286
7021.5 -7
7022.5 -1.71429
7023.5 -0.142857
7024.5 -2.14286
7025.5 5.71429
7026.5 3.71429
7027.5 1.71429
7028.5 -0.714286
7029.5 0.142857
7030.5 -1.42857
7031.5 4
7032.5 3.71429
7033.5 8
7034.5 -2.14286
7035.5 -4.42857
7036.5 0.571429
7037.5 -2.71429
7038.5 -2.42857
7039.5 -2.14286
7040.5 -4.42857
7041.5 1.14286
7042.5 2.14286
7043.5 4.42857
7044.5 -3.14286
7045.5 -4.71429
7046.5 -3.14286
7047.5 3
7048.5 -3.71429
7049.5 -3.85714
7050.5 2.71429
7051.5 1.14286
7052.5 1.71429
7053.5 5.42857
7054.5 -5
7055.5 -0.857143
7056.5 -3.28571
7057.5 -4.42857
7058.5 3
7059.5 0.142857
7060.5 -6.71429
7061.5 7.42857
7062.5 -1.85714
7063.5 -1.85714
7064.5 -2.42857
7065.5 -1.14286
7066.5 3.71429
7067.5 -2.14286
7068.5 -8.57143
7069.5 -3.14286
7070.5 -3.42857
7071.5 1.14286
7072.5 -2.85714
7073.5 -1.57143
7074.5 2
7075.5 -1.85714
7076.5 -4.42857
7077.5 2.85714
7078.5 3.14286
7079.5 4.42857
7080.5 -2.14286
7081.5 3.85714
7082.5 -4.42857
7083.5 -4
7084.5 10
7085.5 -1.85714
7086.5 1.71429
7087.5 -4.14286
7088.5 -0.571429
7089.5 -3.42857
7090.5 -6.28571
7091.5 -1.42857
7092.5 -1.14286
7093.5 -3.42857
7094.5 -0.428571
7095.5 -2.85714
7096.5 1.42857
7097.5 -2.42857
7098.5 -3.14286
7099.5 2.71429
7100.5 -0.571429
7101.5 1.14286
7102.5 -2.42857
7103.5 4.42857
7104.5 -1.57143
7105.5 -0.142857
7106.5 2.42857
7107.5 -4
7108.5 -0.857143
7109.5 -1.57143
7110.5 -6.42857
7111.5 -3.14286
7112.5 -3.71429
7113.5 1.14286
7114.5 -1.14286
7115.5 5.71429
7116.5 2.85714
7117.5 -3.14286
7118.5 3.42857
7119.5 -2
7120.5 4.14286
7121.5 0.142857
7122.5 1.14286
7123.5 -2.85714
7124.5 1.42857
7125.5 -4.14286
7126.5 1.71429
7127.5 0.142857
7128.5 -1.14286
7129.5 -0.857143
7130.5 -4.14286
7131.5 -0.571429
7132.5 0.714286
7133.5 5.42857
7134.5 -0.857143
7135.5 -0.857143
7136.5 -6.42857
7137.5 3.71429
7138.5 1.85714
7139.5 -2.85714
7140.5 1.42857
7141.5 2.14286
7142.5 2.14286
7143.5 0.428571
7144.5 -0.428571
7145.5 3.14286
7146.5 2.85714
7147.5 3.85714
7148.5 -2.14286
7149.5 2.42857
7150.5 1.85714
7151.5 4.71429
7152.5 2.14286
7153.5 2.42857
7154.5 -6.42857
7155.5 1.42857
7156.5 -4.42857
7157.5 -1.14286
7158.5 -3.42857
7159.5 -0.285714
7160.5 -2.14286
7161.5 -4.14286
7162.5 -6.57143
7163.5 -8
7164.5 -7.14286
7165.5 -3.71429
7166.5 -13.7143
7167.5 -13.7143
7168.5 -14.4286
7169.5 -21.4286
7170.5 -9.85714
7171.5 -7.57143
7172.5 -4.42857
7173.5 0.142857
7174.5 -1.85714
7175.5 3.14286
7176.5 0.142857
7177.5 -1.14286
7178.5 -1.28571
7179.5 0.714286
7180.5 -1.71429
7181.5 -0.142857
7182.5 1.42857
7183.5 0.428571
7184.5 0.142857
7185.5 -3.42857
7186.5 -0.571429
7187.5 -1.71429
7188.5 -0.571429
7189.5 0.428571
7190.5 -0.857143
7191.5 -2.14286
7192.5 -3.42857
7193.5 0.428571
7194.5 0.142857
7195.5 3.42857
7196.5 1.42857
7197.5 -0.142857
7198.5 -0.857143
7199.5 -1.14286
7200.5 2
7201.5 1.71429
7202.5 -0.857143
7203.5 0.571429
7204.5 0.571429
7205.5 -7.85714
7206.5 -3.42857
7207.5 -6.57143
7208.5 -14.2857
7209.5 3
7210.5 -3.71429
7211.5 -6.42857
7212.5 1.14286
7213.5 -4.14286
7214.5 4.14286
7215.5 -0.571429
7216.5 -1.14286
7217.5 -1.85714
7218.5 0.714286
7219.5 2.14286
7220.5 -4.71429
7221.5 -4.71429
7222.5 -1.14286
7223.5 -2.14286
7224.5 -1.42857
7225.5 -4.14286
7226.5 0.714286
7227.5 -2.71429
7228.5 -5.42857
7229.5 -2.57143
7230.5 0.428571
7231.5 -0.142857
7232.5 -7
7233.5 -2.85714
7234.5 1
7235.5 -5.14286
7236.5 0.428571
7237.5 4
7238.5 -0.857143
7239.5 0.428571
7240.5 0.428571
7241.5 -3.14286
7242.5 -2.85714
7243.5 -4.14286
7244.5 2.14286
7245.5 1.14286
7246.5 0.428571
7247.5 -3.14286
7248.5 -0.857143
7249.5 -0.142857
7250.5 -4
7251.5 1.42857
7252.5 1.42857
7253.5 -2.42857
7254.5 -2
7255.5 -7.57143
7256.5 1.57143
7257.5 1.57143
7258.5 -5.85714
7259.5 2.85714
7260.5 2
7261.5 -18.7143
7262.5 4.14286
7263.5 -1.71429
7264.5 -2.71429
7265.5 2.14286
7266.5 -0.571429
7267.5 -5.71429
7268.5 2.71429
7269.5 -1.14286
7270.5 -2.57143
7271.5 0.857143
7272.5 1.42857
7273.5 2.71429
7274.5 1.42857
7275.5 3
7276.5 5.42857
7277.5 0.714286
7278.5 3.71429
7279.5 -0.714286
7280.5 3.42857
7281.5 3.14286
7282.5 0.857143
7283.5 2.14286
7284.5 8
7285.5 3.71429
7286.5 3.71429
7287.5 0.142857
7288.5 7
7289.5 2.42857
7290.5 5.71429
7291.5 -3.85714
7292.5 -4.42857
7293.5 -0.142857
7294.5 -4.14286
7295.5 3.71429
7296.5 -2.14286
7297.5 -1.85714
7298.5 -1.14286
7299.5 1.42857
7300.5 -2.42857
7301.5 1.14286
7302.5 -1.85714
7303.5 -1.14286
7304.5 0.428571
7305.5 7.71429
7306.5 0.714286
7307.5 -0.285714
7308.5 -0.857143
7309.5 -4.14286
7310.5 2.71429
7311.5 -0.857143
7312.5 -2.14286
7313.5 -2.42857
7314.5 5.14286
7315.5 -1.42857
7316.5 2.14286
7317.5 2.14286
7318.5 2.14286
7319.5 -2.14286
7320.5 0.857143
7321.5 -0.571429
7322.5 -0.142857
7323.5 -3.14286
7324.5 -0.857143
7325.5 1
7326.5 -4.42857
7327.5 -1.57143
7328.5 2.71429
7329.5 -0.571429
7330.5 -0.285714
7331.5 0.714286
7332.5 0.428571
7333.5 0.714286
7334.5 2.71429
7335.5 -0.285714
7336.5 1.85714
7337.5 -1.85714
7338.5 2
7339.5 1.42857
7340.5 -0.285714
7341.5 2
7342.5 -0.571429
7343.5 3.42857
7344.5 -0.571429
7345.5 -0.285714
7346.5 -0.571429
7347.5 -4
7348.5 -6.85714
7349.5 8.57143
7350.5 -15.2857
7351.5 4.85714
7352.5 -4.85714
7353.5 4.28571
7354.5 -5.85714
7355.5 12.8571
7356.5 -0.285714
7357.5 7.57143
7358.5 -4.28571
7359.5 0.142857
7360.5 -5.71429
7361.5 4.14286
7362.5 5
7363.5 0.428571
7364.5 0.714286
7365.5 -1.85714
7366.5 1.42857
7367.5 0.142857
7368.5 2.42857
7369.5 0.142857
7370.5 0.714286
7371.5 0.428571
7372.5 0
7373.5 -4.14286
7374.5 1.42857
7375.5 -1.14286
7376.5 1
7377.5 -0.571429
7378.5 -2.57143
7379.5 5
7380.5 -0.285714
7381.5 -0.285714
7382.5 0.714286
7383.5 3.42857
7384.5 -3.14286
7385.5 -1.14286
7386.5 -1.14286
7387.5 1.42857
7388.5 -1.28571
7389.5 3.42857
7390.5 3
7391.5 -5.14286
7392.5 -1.57143
7393.5 -1.85714
7394.5 2.71429
7395.5 -2.57143
7396.5 0.142857
7397.5 0.714286
7398.5 -1.85714
7399.5 -0.285714
7400.5 2
7401.5 -0.571429
7402.5 -0.285714
7403.5 2
7404.5 6
7405.5 -5.42857
7406.5 -2.57143
7407.5 -1.57143
7408.5 3.71429
7409.5 1.42857
7410.5 5
7411.5 0.428571
7412.5 -6.28571
7413.5 0.142857
7414.5 -1.42857
7415.5 4.71429
7416.5 0.285714
7417.5 -7.57143
7418.5 5.57143
7419.5 -2.71429
7420.5 3.14286
7421.5 -2.71429
7422.5 2.42857
7423.5 -2.42857
7424.5 0.714286
7425.5 2
7426.5 1.42857
7427.5 1
7428.5 2
7429.5 1
7430.5 0.714286
7431.5 -1.85714
7432.5 1.42857
7433.5 1
7434.5 1.71429
7435.5 -0.285714
7436.5 -1.57143
7437.5 -1.85714
7438.5 0.428571
7439.5 0.714286
7440.5 3
7441.5 6
7442.5 2.71429
7443.5 -3.85714
7444.5 -0.857143
7445.5 1.71429
7446.5 2
7447.5 2.14286
7448.5 1.71429
7449.5 -4.14286
7450.5 -2.85714
7451.5 -12.4286
7452.5 1.14286
7453.5 -3.85714
7454.5 -3.85714
7455.5 -4
7456.5 -6
7457.5 -0.142857
7458.5 1.42857
7459.5 1.14286
7460.5 0.714286
7461.5 -0.285714
7462.5 0.714286
7463.5 3
7464.5 0.428571
7465.5 -0.571429
7466.5 -1.57143
7467.5 -0.857143
7468.5 -3.14286
7469.5 -1.28571
7470.5 0.428571
7471.5 0.714286
7472.5 -1.57143
7473.5 2
7474.5 -1.28571
7475.5 -2.57143
7476.5 -0.571429
7477.5 -1.85714
7478.5 1
7479.5 -3.14286
7480.5 0
7481.5 -2.85714
7482.5 3.14286
7483.5 -3.42857
7484.5 1.42857
7485.5 3.71429
7486.5 -4.14286
7487.5 -6
7488.5 -0.142857
7489.5 -0.571429
7490.5 -0.571429
7491.5 -0.857143
7492.5 -1.57143
7493.5 -2.85714
7494.5 2.71429
7495.5 -1.85714
7496.5 0.714286
7497.5 1.71429
7498.5 -0.571429
7499.5 6
7500.5 0.714286
7501.5 1.71429
7502.5 -2.71429
7503.5 -3.14286
7504.5 -2.14286
7505.5 0.714286
7506.5 -1.28571
7507.5 -4.14286
7508.5 -2.57143
7509.5 1
7510.5 2
7511.5 6
7512.5 -0.857143
7513.5 -0.571429
7514.5 -2.57143
7515.5 0.428571
7516.5 1.71429
7517.5 -3.85714
7518.5 -0.857143
7519.5 -1.85714
7520.5 2
7521.5 -1.85714
7522.5 -1.57143
7523.5 -4.14286
7524.5 -0.571429
7525.5 2.71429
7526.5 1.71429
7527.5 -4.14286
7528.5 -7
7529.5 0.428571
7530.5 0.714286
7531.5 -3.85714
7532.5 1.71429
7533.5 -0.285714
7534.5 1.71429
7535.5 -0.285714
7536.5 0.428571
7537.5 4
7538.5 4
7539.5 -0.571429
7540.5 1.71429
7541.5 -0.285714
7542.5 3.71429
7543.5 0.428571
7544.5 -0.857143
7545.5 3
7546.5 -2.42857
7547.5 -0.571429
7548.5 -2.57143
7549.5 -2.85714
7550.5 2.42857
7551.5 -0.571429
7552.5 0.714286
7553.5 -1.28571
7554.5 -1.57143
7555.5 1.14286
7556.5 0
7557.5 -0.285714
7558.5 0.714286
7559.5 -0.857143
7560.5 0.714286
7561.5 -0.571429
7562.5 2
7563.5 2
7564.5 3.71429
7565.5 1
7566.5 -0.285714
7567.5 -0.571429
7568.5 -2.57143
7569.5 2
7570.5 -1.28571
7571.5 2.71429
7572.5 -2.85714
7573.5 -0.285714
7574.5 0.714286
7575.5 -1.85714
7576.5 3.71429
7577.5 -0.285714
7578.5 -4.42857
7579.5 1.71429
7580.5 0
7581.5 -0.571429
7582.5 -0.285714
7583.5 2
7584.5 -1.28571
7585.5 1.71429
7586.5 0
7587.5 -1.57143
7588.5 3
7589.5 1.71429
7590.5 -1.57143
7591.5 3
7592.5 -1.28571
7593.5 -1.57143
7594.5 0
7595.5 3
7596.5 -3.85714
7597.5 1.71429
7598.5 4.71429
7599.5 1
7600.5 3
7601.5 -2.85714
7602.5 -0.571429
7603.5 2
7604.5 -1.57143
7605.5 -3.85714
7606.5 -0.857143
7607.5 0.428571
7608.5 0
7609.5 -1.57143
7610.5 1
7611.5 -1.28571
7612.5 -3.85714
7613.5 1.71429
7614.5 0
7615.5 -1.57143
7616.5 -1.57143
7617.5 0
7618.5 -0.285714
7619.5 -1.57143
7620.5 1.71429
7621.5 2
7622.5 3
7623.5 -0.285714
7624.5 1.71429
7625.5 0
7626.5 1
7627.5 -2.85714
7628.5 -0.571429
7629.5 -2.85714
7630.5 3
7631.5 2
7632.5 0.142857
7633.5 -0.285714
7634.5 0.714286
7635.5 -5.14286
7636.5 -1.57143
7637.5 2
7638.5 2
7639.5 -0.571429
7640.5 -1.85714
7641.5 5
7642.5 0
7643.5 0.714286
7644.5 1
7645.5 -1.85714
7646.5 -0.571429
7647.5 3.71429
7648.5 -1.85714
7649.5 0
7650.5 -1.28571
7651.5 -2.85714
7652.5 0
7653.5 3
7654.5 1
7655.5 1
7656.5 -2.57143
7657.5 -0.571429
7658.5 1
7659.5 -0.285714
7660.5 0
7661.5 2
7662.5 -0.571429
7663.5 0.714286
7664.5 -6.42857
7665.5 -2.57143
7666.5 -1.28571
7667.5 0
7668.5 -1.28571
7669.5 4.71429
7670.5 0.714286
7671.5 0.714286
7672.5 -3.85714
7673.5 -0.285714
7674.5 0
7675.5 2
7676.5 1
7677.5 0.714286
7678.5 -1.57143
7679.5 0
7680.5 1
7681.5 1
7682.5 -1.57143
7683.5 1
7684.5 -0.571429
7685.5 -1.85714
7686.5 -0.285714
7687.5 0
7688.5 0
7689.5 1.71429
7690.5 -0.285714
7691.5 2.71429
7692.5 4
7693.5 0.714286
7694.5 -0.857143
7695.5 -1.57143
7696.5 0
7697.5 1
7698.5 -2.57143
7699.5 1
7700.5 2
7701.5 1
7702.5 0.714286
7703.5 -1.57143
7704.5 3
7705.5 0.714286
7706.5 -0.285714
7707.5 -2.85714
7708.5 0.428571
7709.5 -1.57143
7710.5 0.714286
7711.5 1
7712.5 0
7713.5 1
7714.5 1.71429
7715.5 0.428571
7716.5 0
7717.5 -1.28571
7718.5 -2.57143
7719.5 -0.285714
7720.5 1.42857
7721.5 0.714286
7722.5 2
7723.5 -1.85714
7724.5 -4.14286
7725.5 1.71429
7726.5 0.428571
7727.5 2
7728.5 -1.57143
7729.5 -1.28571
7730.5 1.71429
7731.5 2
7732.5 1.71429
7733.5 3
7734.5 1
7735.5 1
7736.5 -0.285714
7737.5 -1.28571
7738.5 1
7739.5 -0.571429
7740.5 -1.28571
7741.5 -1.28571
7742.5 0.714286
7743.5 -1.57143
7744.5 2
7745.5 1
7746.5 1
7747.5 -1.85714
7748.5 -1.57143
7749.5 1
7750.5 -1.28571
7751.5 -1.28571
7752.5 -0.285714
7753.5 2
7754.5 -0.285714
7755.5 -1.28571
7756.5 0
7757.5 1
7758.5 -0.571429
7759.5 -0.285714
7760.5 1
7761.5 1
7762.5 -0.571429
7763.5 -0.285714
7764.5 -1.85714
7765.5 -0.857143
7766.5 -8.57143
7767.5 -8.85714
7768.5 7.28571
7769.5 0.428572
7770.5 -0.571428
7771.5 -2.42857
7772.5 -11.7143
7773.5 -11.2857
7774.5 -6.71429
7775.5 -4.57143
7776.5 -6
7777.5 2
7778.5 -3.14286
7779.5 0.714286
7780.5 3
7781.5 -1.57143
7782.5 0.428571
7783.5 -0.285714
7784.5 -1.57143
7785.5 -0.571429
7786.5 2
7787.5 -0.285714
7788.5 4
7789.5 -1.28571
7790.5 1.71429
7791.5 0
7792.5 -0.571429
7793.5 -0.857143
7794.5 1
7795.5 1.42857
7796.5 5
7797.5 7.71429
7798.5 7
7799.5 3
7800.5 2.14286
7801.5 -2.57143
7802.5 3
7803.5 0
7804.5 2
7805.5 2
7806.5 2
7807.5 -1.28571
7808.5 -1.28571
7809.5 -2.57143
7810.5 1
7811.5 -0.285714
7812.5 -5.14286
7813.5 -1.28571
7814.5 -5.14286
7815.5 0
7816.5 1
7817.5 0.714286
7818.5 1.71429
7819.5 -0.857143
7820.5 0.428571
7821.5 3
7822.5 0.714286
7823.5 -2.42857
7824.5 -0.142857
7825.5 0.714286
7826.5 5
7827.5 -0.142857
7828.5 1.14286
7829.5 -7.57143
7830.5 -2.71429
7831.5 1.42857
7832.5 3
7833.5 3
7834.5 -0.285714
7835.5 2
7836.5 0.714286
7837.5 0
7838.5 -0.285714
7839.5 0.714286
7840.5 2
7841.5 -1.57143
7842.5 -1.28571
7843.5 0.714286
7844.5 2
7845.5 0
7846.5 0
7847.5 2
7848.5 2
7849.5 -1.28571
7850.5 0
7851.5 -0.285714
7852.5 0.428571
7853.5 1
7854.5 0
7855.5 -1.28571
7856.5 -3.85714
7857.5 0
7858.5 -1.28571
7859.5 0
7860.5 1
7861.5 0
7862.5 1
7863.5 0
7864.5 1
7865.5 0
7866.5 -1.28571
7867.5 0
7868.5 -2.57143
7869.5 0
7870.5 -1.28571
7871.5 0
7872.5 -1.57143
7873.5 1
7874.5 0
7875.5 -1.28571
7876.5 0
7877.5 1
7878.5 0.714286
7879.5 0.714286
7880.5 0
7881.5 0
7882.5 -1.28571
7883.5 0.714286
7884.5 -2.57143
7885.5 0
7886.5 0
7887.5 0
7888.5 1
7889.5 -0.285714
7890.5 0
7891.5 -1.57143
7892.5 -1.28571
7893.5 0
7894.5 0
7895.5 0
7896.5 0
7897.5 0
7898.5 0
7899.5 0
7900.5 0
7901.5 1
7902.5 -0.285714
7903.5 -1.28571
7904.5 -1.28571
7905.5 1
7906.5 0
7907.5 1
7908.5 -0.285714
7909.5 1
7910.5 -1.28571
7911.5 0
7912.5 1
7913.5 -2.85714
7914.5 1
7915.5 -0.571429
7916.5 1
7917.5 -0.285714
7918.5 1
7919.5 1
7920.5 0
7921.5 0
7922.5 0
7923.5 -1.57143
7924.5 1
7925.5 0
7926.5 0
7927.5 1
7928.5 0.714286
7929.5 0
7930.5 0
7931.5 -0.285714
7932.5 0
7933.5 0
7934.5 -1.28571
7935.5 0
7936.5 0
7937.5 -1.57143
7938.5 0
7939.5 -0.285714
7940.5 0
7941.5 1
7942.5 1
7943.5 -1.57143
7944.5 0
7945.5 0
7946.5 -0.571429
7947.5 -2.57143
7948.5 0
7949.5 2
7950.5 0
7951.5 0
7952.5 -1.28571
7953.5 0
7954.5 0
7955.5 0
7956.5 0
7957.5 -1.28571
7958.5 1
7959.5 1
7960.5 -0.285714
7961.5 -0.285714
7962.5 -0.285714
7963.5 -0.285714
7964.5 -2.85714
7965.5 -1.57143
7966.5 2.71429
7967.5 -0.285714
7968.5 3
7969.5 -1.28571
7970.5 0
7971.5 0
7972.5 1
7973.5 -1.28571
7974.5 1
7975.5 0
7976.5 -1.28571
7977.5 -1.28571
7978.5 1
7979.5 1
7980.5 0
7981.5 -1.28571
7982.5 0
7983.5 -2.85714
7984.5 3
7985.5 -0.285714
7986.5 1
7987.5 0
7988.5 -1.28571
7989.5 -1.28571
7990.5 -0.285714
7991.5 -5.14286
7992.5 1
7993.5 -1.28571
7994.5 1
7995.5 1.71429
7996.5 1
7997.5 2
7998.5 -1.28571
7999.5 -1.57143
8000.5 2
8001.5 1
8002.5 0
8003.5 -1.28571
8004.5 0
8005.5 -0.285714
8006.5 0
8007.5 1
8008.5 -0.285714
8009.5 -0.285714
8010.5 -1.28571
8011.5 0
8012.5 0.428571
8013.5 0
8014.5 -0.285714
8015.5 -0.571429
8016.5 -1.28571
8017.5 3
8018.5 0
8019.5 0
8020.5 0
8021.5 -1.28571
8022.5 1
8023.5 0
8024.5 -1.28571
8025.5 0
8026.5 0
8027.5 -2.57143
8028.5 0.714286
8029.5 -2.57143
8030.5 1
8031.5 -1.28571
8032.5 0.714286
8033.5 -2.57143
8034.5 0
8035.5 0
8036.5 0
8037.5 0.714286
8038.5 0
8039.5 3
8040.5 0
8041.5 -0.285714
8042.5 0
8043.5 -1.28571
8044.5 1
8045.5 1
8046.5 2
8047.5 -1.28571
8048.5 0
8049.5 0
8050.5 0
8051.5 1
8052.5 0
8053.5 -2.57143
8054.5 0
8055.5 0
8056.5 -3.85714
8057.5 0
8058.5 0
8059.5 0
8060.5 2
8061.5 1
8062.5 1
8063.5 1
8064.5 1
8065.5 -1.28571
8066.5 -0.285714
8067.5 -1.28571
8068.5 1
8069.5 1
8070.5 0
8071.5 -1.28571
8072.5 1
8073.5 0
8074.5 1
8075.5 0
8076.5 0
8077.5 0
8078.5 2
8079.5 0
8080.5 0
8081.5 -1.57143
8082.5 -1.57143
8083.5 1
8084.5 1.71429
8085.5 -0.285714
8086.5 -1.57143
8087.5 -0.285714
8088.5 1
8089.5 -0.285714
8090.5 1
8091.5 0
8092.5 2
8093.5 0
8094.5 0
8095.5 1
8096.5 0
8097.5 0
8098.5 0
8099.5 1
8100.5 2
8101.5 0
8102.5 -1.28571
8103.5 0
8104.5 1
8105.5 0
8106.5 0
8107.5 -1.28571
8108.5 1
8109.5 0
8110.5 0
8111.5 0
8112.5 1
8113.5 -0.285714
8114.5 0
8115.5 2
8116.5 0
8117.5 1
8118.5 -1.28571
8119.5 -0.285714
8120.5 0
8121.5 -0.285714
8122.5 0
8123.5 -0.285714
8124.5 -1.28571
8125.5 1
8126.5 0
8127.5 1
8128.5 -1.28571
8129.5 0
8130.5 0
8131.5 0
8132.5 0
8133.5 0
8134.5 0
8135.5 0
8136.5 0
8137.5 0
8138.5 0
8139.5 1
8140.5 0
8141.5 1
8142.5 0
8143.5 -1.28571
8144.5 0
8145.5 2
8146.5 0
8147.5 0
8148.5 0
8149.5 0
8150.5 0
8151.5 1
8152.5 0
8153.5 0
8154.5 0
8155.5 1
8156.5 0
8157.5 -1.28571
8158.5 1
8159.5 0
8160.5 0
8161.5 0
8162.5 -1.28571
8163.5 0
8164.5 0
8165.5 0
8166.5 -0.285714
8167.5 0
8168.5 0
8169.5 -1.28571
8170.5 1
8171.5 1
8172.5 0
8173.5 -0.285714
8174.5 2
8175.5 1
8176.5 -1.28571
8177.5 1
8178.5 -1.28571
8179.5 -1.28571
8180.5 0
8181.5 0
8182.5 0
8183.5 0
8184.5 0
8185.5 1
8186.5 1
8187.5 0
8188.5 1
8189.5 0
8190.5 1
8191.5 -0.285714
8192.5 0
8193.5 -1.28571
8194.5 0
8195.5 0
8196.5 -1.28571
8197.5 0
8198.5 0
8199.5 2
8200.5 0
8201.5 -1.28571
8202.5 0
8203.5 0
8204.5 0
8205.5 0
8206.5 0
8207.5 0
8208.5 0
8209.5 0
8210.5 0
8211.5 0
8212.5 1
8213.5 1
8214.5 -1.28571
8215.5 2
8216.5 1
8217.5 0
8218.5 0
8219.5 -1.28571
8220.5 0
8221.5 1
8222.5 0
8223.5 0
8224.5 1
8225.5 0
8226.5 -1.28571
8227.5 1
8228.5 0
8229.5 0
8230.5 -2.57143
8231.5 0
8232.5 0
8233.5 0
8234.5 1
8235.5 -0.285714
8236.5 0
8237.5 1
8238.5 0
8239.5 0
8240.5 0
8241.5 -2.57143
8242.5 -1.28571
8243.5 0
8244.5 0
8245.5 -1.28571
8246.5 1
8247.5 0
8248.5 0
8249.5 0
8250.5 0
8251.5 0
8252.5 0
8253.5 3
8254.5 1
8255.5 1
8256.5 0
8257.5 -1.28571
8258.5 0
8259.5 0
8260.5 0
8261.5 0
8262.5 0
8263.5 0
8264.5 -1.28571
8265.5 0
8266.5 0
8267.5 0
8268.5 -0.285714
8269.5 1
8270.5 0
8271.5 1
8272.5 0
8273.5 0
8274.5 0
8275.5 0
8276.5 0.714286
8277.5 1
8278.5 0
8279.5 2
8280.5 0
8281.5 1
8282.5 -1.28571
8283.5 0
8284.5 -1.28571
8285.5 -1.28571
8286.5 -0.285714
8287.5 0
8288.5 1
8289.5 2
8290.5 2
8291.5 2
8292.5 0
8293.5 1
8294.5 1
8295.5 -0.285714
8296.5 0
8297.5 0
8298.5 0
8299.5 0
8300.5 0
8301.5 -1.28571
8302.5 0
8303.5 0
8304.5 -1.28571
8305.5 0
8306.5 1
8307.5 1
8308.5 0
8309.5 1
8310.5 1
8311.5 -1.28571
8312.5 3
8313.5 0
8314.5 1
8315.5 0
8316.5 2
8317.5 0
8318.5 -1.28571
8319.5 0
8320.5 0
8321.5 1
8322.5 0
8323.5 0
8324.5 1
8325.5 0
8326.5 0
8327.5 0
8328.5 0
8329.5 0
8330.5 0
8331.5 0
8332.5 0
8333.5 0
8334.5 -1.28571
8335.5 -1.28571
8336.5 1
8337.5 0
8338.5 0
8339.5 0.714286
8340.5 -1.57143
8341.5 0
8342.5 0
8343.5 0
8344.5 1
8345.5 0
8346.5 -1.28571
8347.5 0
8348.5 0
8349.5 0
8350.5 0
8351.5 1
8352.5 0
8353.5 -0.285714
8354.5 0
8355.5 0
8356.5 1
8357.5 0
8358.5 0
8359.5 1
8360.5 -1.28571
8361.5 0
8362.5 0
8363.5 0
8364.5 0
8365.5 0
8366.5 0
8367.5 -1.28571
8368.5 0
8369.5 1
8370.5 0
8371.5 -1.28571
8372.5 0
8373.5 0
8374.5 0
8375.5 0
8376.5 0
8377.5 0
8378.5 0
8379.5 0
8380.5 0
8381.5 -1.57143
8382.5 0
8383.5 0
8384.5 -1.28571
8385.5 1
8386.5 1
8387.5 0
8388.5 0
8389.5 1
8390.5 0
8391.5 0
8392.5 0
8393.5 2
8394.5 -1.57143
8395.5 0
8396.5 4
8397.5 0
8398.5 -1.28571
8399.5 1
8400.5 0
8401.5 1
8402.5 -1.28571
8403.5 0
8404.5 0
8405.5 -0.285714
8406.5 0
8407.5 0
8408.5 0
8409.5 1
8410.5 -1.28571
8411.5 0
8412.5 0
8413.5 0
8414.5 -1.28571
8415.5 0
8416.5 0
8417.5 0
8418.5 0
8419.5 0
8420.5 0
8421.5 1
8422.5 0
8423.5 0
8424.5 0
8425.5 1
8426.5 -1.28571
8427.5 0
8428.5 0
8429.5 0
8430.5 0
8431.5 0
8432.5 0
8433.5 0
8434.5 -1.28571
8435.5 1
8436.5 -0.285714
8437.5 -1.28571
8438.5 0
8439.5 0
8440.5 0
8441.5 0
8442.5 0
8443.5 1
8444.5 1
8445.5 0
8446.5 1
8447.5 0
8448.5 0
8449.5 0
8450.5 0
8451.5 0
8452.5 -1.28571
8453.5 0
8454.5 0
8455.5 0
8456.5 0
8457.5 0
8458.5 -1.28571
8459.5 0
8460.5 0
8461.5 0
8462.5 1
8463.5 0
8464.5 1
8465.5 0
8466.5 0
8467.5 0
8468.5 0
8469.5 0
8470.5 0
8471.5 -0.571429
8472.5 2
8473.5 -1.28571
8474.5 -1.28571
8475.5 -1.28571
8476.5 -1.28571
8477.5 1
8478.5 0
8479.5 0
8480.5 -0.285714
8481.5 0.714286
8482.5 -0.285714
8483.5 1
8484.5 1
8485.5 0
8486.5 0
8487.5 0
8488.5 0
8489.5 0
8490.5 -0.285714
8491.5 0
8492.5 0
8493.5 -0.285714
8494.5 -0.285714
8495.5 1
8496.5 0
8497.5 0
8498.5 0
8499.5 0
8500.5 0
8501.5 -1.28571
8502.5 0
8503.5 0
8504.5 0
8505.5 0
8506.5 0
8507.5 0
8508.5 0
8509.5 -0.285714
8510.5 0
8511.5 1
8512.5 -1.28571
8513.5 1
8514.5 1
8515.5 1
8516.5 0
8517.5 0
8518.5 -1.28571
8519.5 0
8520.5 -1.28571
8521.5 -1.28571
8522.5 0
8523.5 1
8524.5 0
8525.5 0
8526.5 0
8527.5 0
8528.5 1
8529.5 0
8530.5 0
8531.5 1
8532.5 2
8533.5 -1.28571
8534.5 1
8535.5 -0.285714
8536.5 0
8537.5 0
8538.5 0
8539.5 -0.285714
8540.5 0
8541.5 0
8542.5 0
8543.5 0
8544.5 -2.57143
8545.5 1
8546.5 0
8547.5 0
8548.5 0
8549.5 0
8550.5 0
8551.5 0
8552.5 -0.285714
8553.5 0
8554.5 0
8555.5 0
8556.5 0
8557.5 0
8558.5 2
8559.5 0
8560.5 -1.28571
8561.5 0
8562.5 0
8563.5 0
8564.5 1
8565.5 0
8566.5 -1.28571
8567.5 0
8568.5 0
8569.5 0
8570.5 0
8571.5 0
8572.5 0
8573.5 -1.28571
8574.5 0
8575.5 0
8576.5 0
8577.5 0
8578.5 -1.28571
8579.5 1
8580.5 1
8581.5 -1.28571
8582.5 0
8583.5 0
8584.5 0
8585.5 -1.28571
8586.5 0
8587.5 0
8588.5 -0.285714
8589.5 0
8590.5 1
8591.5 -1.28571
8592.5 -1.28571
8593.5 1
8594.5 0
8595.5 0
8596.5 -1.28571
8597.5 -1.28571
8598.5 -1.28571
8599.5 0
8600.5 0
8601.5 0
8602.5 0
8603.5 0
8604.5 1
8605.5 0
8606.5 0
8607.5 0
8608.5 0
8609.5 1
8610.5 0
8611.5 0
8612.5 -1.28571
8613.5 0
8614.5 1
8615.5 0
8616.5 0
8617.5 0
8618.5 1
8619.5 -1.28571
8620.5 0
8621.5 0
8622.5 1
8623.5 0
8624.5 0
8625.5 -1.28571
8626.5 0
8627.5 -1.28571
8628.5 0
8629.5 -2.57143
8630.5 0
8631.5 0
8632.5 0
8633.5 1
8634.5 0
8635.5 0
8636.5 1
8637.5 1
8638.5 1
8639.5 0
8640.5 1
8641.5 -0.285714
8642.5 0
8643.5 0
8644.5 -1.57143
8645.5 0
8646.5 -1.28571
8647.5 -1.28571
8648.5 0
8649.5 0
8650.5 0
8651.5 2
8652.5 -1.28571
8653.5 0
8654.5 1
8655.5 2
8656.5 1
8657.5 1
8658.5 0
8659.5 -1.28571
8660.5 0
8661.5 0
8662.5 0
8663.5 0
8664.5 0
8665.5 2
8666.5 0
8667.5 0
8668.5 1
8669.5 1
8670.5 1
8671.5 0
8672.5 0
8673.5 1
8674.5 0
8675.5 0
8676.5 1
8677.5 0
8678.5 -0.285714
8679.5 1
8680.5 0
8681.5 0
8682.5 -1.28571
8683.5 0
8684.5 0
8685.5 0
8686.5 1
8687.5 0
8688.5 0
8689.5 1
8690.5 2
8691.5 0
8692.5 2
8693.5 0
8694.5 0
8695.5 0
8696.5 0.714286
8697.5 0
8698.5 0
8699.5 0
8700.5 2
8701.5 0
8702.5 -1.28571
8703.5 0
8704.5 0
8705.5 0
8706.5 0
8707.5 0
8708.5 0
8709.5 0
8710.5 0
8711.5 0
8712.5 0
8713.5 0
8714.5 0
8715.5 2
8716.5 0
8717.5 1
8718.5 0
8719.5 -1.28571
8720.5 1
8721.5 0
8722.5 1
8723.5 1
8724.5 -1.28571
8725.5 -1.28571
8726.5 0
8727.5 0
8728.5 0
8729.5 0
8730.5 0
8731.5 0
8732.5 0
8733.5 0
8734.5 0
8735.5 1
8736.5 -1.28571
8737.5 0
8738.5 0
8739.5 0
8740.5 0
8741.5 0
8742.5 1
8743.5 1
8744.5 0
8745.5 0
8746.5 -1.28571
8747.5 1
8748.5 0
8749.5 0
8750.5 -1.28571
8751.5 0
8752.5 0
8753.5 0
8754.5 0
8755.5 1
8756.5 -1.28571
8757.5 -1.28571
8758.5 0
8759.5 0
8760.5 0
8761.5 0
8762.5 0
8763.5 0
8764.5 1
8765.5 0
8766.5 0
8767.5 -1.28571
8768.5 -1.28571
8769.5 0.714286
8770.5 1
8771.5 0
8772.5 0
8773.5 -1.28571
8774.5 -1.28571
8775.5 0
8776.5 0
8777.5 0
8778.5 1
8779.5 0
8780.5 0
8781.5 0
8782.5 0
8783.5 0
8784.5 0
8785.5 0
8786.5 1
8787.5 0
8788.5 0
8789.5 0
8790.5 0
8791.5 0
8792.5 -1.28571
8793.5 0
8794.5 -1.28571
8795.5 -1.28571
8796.5 -1.28571
8797.5 0
8798.5 2
8799.5 0
8800.5 0
8801.5 1
8802.5 -1.28571
8803.5 0
8804.5 0
8805.5 0
8806.5 0
8807.5 0
8808.5 -0.285714
8809.5 1
8810.5 -0.285714
8811.5 0
8812.5 0
8813.5 1
8814.5 1
8815.5 0
8816.5 -1.28571
8817.5 0
8818.5 0
8819.5 0
8820.5 0
8821.5 0
8822.5 0
8823.5 1
8824.5 0
8825.5 0
8826.5 1
8827.5 0
8828.5 0
8829.5 -1.28571
8830.5 0
8831.5 0
8832.5 0
8833.5 0
8834.5 1
8835.5 0
8836.5 0
8837.5 0
8838.5 0
8839.5 0
8840.5 0
8841.5 -1.28571
8842.5 2
8843.5 -1.28571
8844.5 1
8845.5 0
8846.5 0
8847.5 1
8848.5 0
8849.5 0
8850.5 0
8851.5 0
8852.5 0
8853.5 0
8854.5 -1.28571
8855.5 0
8856.5 -0.285714
8857.5 0
8858.5 0
8859.5 0
8860.5 -1.28571
8861.5 0
8862.5 1
8863.5 0
8864.5 -1.28571
8865.5 1
8866.5 0
8867.5 0
8868.5 0
8869.5 0
8870.5 0
8871.5 1
8872.5 -1.28571
8873.5 0
8874.5 1
8875.5 0
8876.5 0
8877.5 1
8878.5 0
8879.5 0
8880.5 0
8881.5 0
8882.5 1
8883.5 0
8884.5 0
8885.5 0
8886.5 0
8887.5 0
8888.5 0
8889.5 0
8890.5 0
8891.5 1
8892.5 0
8893.5 1
8894.5 0
8895.5 0
8896.5 0
8897.5 0
8898.5 0
8899.5 0
8900.5 0
8901.5 0
8902.5 0
8903.5 0
8904.5 0
8905.5 0
8906.5 0
8907.5 0
8908.5 2
8909.5 0
8910.5 0
8911.5 1
8912.5 -1.28571
8913.5 0
8914.5 -0.285714
8915.5 0
8916.5 1
8917.5 -0.285714
8918.5 0
8919.5 0
8920.5 0
8921.5 0
8922.5 1
8923.5 0
8924.5 -1.28571
8925.5 0
8926.5 1
8927.5 0
8928.5 0
8929.5 -1.28571
8930.5 0
8931.5 0
8932.5 0
8933.5 0
8934.5 0
8935.5 0
8936.5 -1.28571
8937.5 0
8938.5 0
8939.5 0
8940.5 -1.28571
8941.5 0
8942.5 0
8943.5 0
8944.5 0
8945.5 0
8946.5 0
8947.5 0
8948.5 0
8949.5 0
8950.5 0
8951.5 1
8952.5 0
8953.5 0
8954.5 0
8955.5 0
8956.5 0
8957.5 0
8958.5 0
8959.5 0
8960.5 0
8961.5 0
8962.5 0
8963.5 2
8964.5 0
8965.5 3
8966.5 0
8967.5 0
8968.5 0
8969.5 0
8970.5 -1.28571
8971.5 0
8972.5 0
8973.5 0
8974.5 0
8975.5 -1.28571
8976.5 0
8977.5 0
8978.5 0
8979.5 0
8980.5 0
8981.5 0
8982.5 0
8983.5 0
8984.5 0
8985.5 -1.28571
8986.5 1
8987.5 1
8988.5 1
8989.5 0
8990.5 0
8991.5 0
8992.5 -1.28571
8993.5 0
8994.5 0
8995.5 0
8996.5 1
8997.5 1
8998.5 -1.28571
8999.5 0
9000.5 0
9001.5 -1.28571
9002.5 0
9003.5 0
9004.5 0
9005.5 0
9006.5 2
9007.5 0
9008.5 0
9009.5 1
9010.5 1
9011.5 0
9012.5 0
9013.5 1
9014.5 1
9015.5 0
9016.5 0
9017.5 0
9018.5 0
9019.5 -1.28571
9020.5 0
9021.5 2
9022.5 0
9023.5 1
9024.5 0
9025.5 0
9026.5 -1.28571
9027.5 0
9028.5 0
9029.5 1
9030.5 1
9031.5 0
9032.5 0
9033.5 1
9034.5 1
9035.5 0
9036.5 -1.28571
9037.5 1
9038.5 0
9039.5 0
9040.5 0
9041.5 0
9042.5 0
9043.5 0
9044.5 0
9045.5 0
9046.5 -1.28571
9047.5 0
9048.5 0
9049.5 0
9050.5 0
9051.5 1
9052.5 1
9053.5 0
9054.5 0
9055.5 0
9056.5 -2.57143
9057.5 0
9058.5 0
9059.5 0
9060.5 0
9061.5 0
9062.5 1
9063.5 0
9064.5 0
9065.5 0
9066.5 1
9067.5 1
9068.5 0
9069.5 0
9070.5 0
9071.5 0
9072.5 0
9073.5 0
9074.5 0
9075.5 0
9076.5 -0.285714
9077.5 0
9078.5 2
9079.5 0
9080.5 0
9081.5 0
9082.5 0
9083.5 0
9084.5 0
9085.5 0
9086.5 0
9087.5 0
9088.5 0
9089.5 -1.28571
9090.5 -1.28571
9091.5 0
9092.5 1
9093.5 0
9094.5 -1.28571
9095.5 -1.28571
9096.5 0
9097.5 -1.28571
9098.5 1
9099.5 0
9100.5 0
9101.5 -2.57143
9102.5 -1.28571
9103.5 -0.285714
9104.5 0
9105.5 0
9106.5 0
9107.5 0
9108.5 1
9109.5 1
9110.5 0
9111.5 0
9112.5 0
9113.5 0
9114.5 0
9115.5 0
9116.5 -0.285714
9117.5 0
9118.5 0
9119.5 -2.57143
9120.5 0
9121.5 3
9122.5 -1.28571
9123.5 0
9124.5 0
9125.5 -1.28571
9126.5 0
9127.5 0
9128.5 0
9129.5 1
9130.5 0
9131.5 0
9132.5 0
9133.5 -1.28571
9134.5 0
9135.5 0
9136.5 0
9137.5 0
9138.5 0
9139.5 -1.28571
9140.5 0
9141.5 0
9142.5 0
9143.5 0
9144.5 0
9145.5 0
9146.5 0
9147.5 1
9148.5 0
9149.5 0
9150.5 0
9151.5 0
9152.5 0
9153.5 -1.28571
9154.5 1
9155.5 0
9156.5 1
9157.5 0
9158.5 0
9159.5 0
9160.5 0
9161.5 0
9162.5 1
9163.5 0
9164.5 1
9165.5 0
9166.5 0
9167.5 0
9168.5 -1.28571
9169.5 0
9170.5 0
9171.5 -1.28571
9172.5 1
9173.5 0
9174.5 0
9175.5 0
9176.5 1
9177.5 -1.28571
9178.5 0
9179.5 0
9180.5 0
9181.5 1
9182.5 0
9183.5 -0.285714
9184.5 0
9185.5 -1.28571
9186.5 0
9187.5 0
9188.5 0
9189.5 0
9190.5 0
9191.5 0
9192.5 -1.28571
9193.5 0
9194.5 1
9195.5 0
9196.5 -1.28571
9197.5 0
9198.5 -1.28571
9199.5 0
9200.5 1
9201.5 -1.28571
9202.5 0
9203.5 -1.28571
9204.5 0
9205.5 1
9206.5 0
9207.5 0
9208.5 1
9209.5 0
9210.5 1
9211.5 0
9212.5 0
9213.5 0
9214.5 0
9215.5 0
9216.5 -1.28571
9217.5 1
9218.5 0
9219.5 -1.28571
9220.5 1
9221.5 0
9222.5 -1.28571
9223.5 -1.28571
9224.5 0
9225.5 0
9226.5 0
9227.5 -1.28571
9228.5 0
9229.5 -1.28571
9230.5 -1.28571
9231.5 0
9232.5 1
9233.5 0
9234.5 1
9235.5 0
9236.5 0
9237.5 0
9238.5 0
9239.5 -1.28571
9240.5 0
9241.5 0
9242.5 -1.28571
9243.5 0
9244.5 0
9245.5 1
9246.5 0
9247.5 0
9248.5 1
9249.5 0
9250.5 0
9251.5 0
9252.5 0
9253.5 0
9254.5 0
9255.5 0
9256.5 0
9257.5 0
9258.5 0
9259.5 0
9260.5 0
9261.5 0
9262.5 0
9263.5 0
9264.5 0
9265.5 0
9266.5 0
9267.5 0
9268.5 -1.28571
9269.5 0
9270.5 -1.28571
9271.5 0
9272.5 0
9273.5 1
9274.5 0
9275.5 0
9276.5 2
9277.5 0
9278.5 1
9279.5 0
9280.5 0
9281.5 0
9282.5 0
9283.5 0
9284.5 -1.28571
9285.5 0
9286.5 0
9287.5 1
9288.5 1
9289.5 0
9290.5 0
9291.5 0
9292.5 0
9293.5 0
9294.5 1
9295.5 0
9296.5 -1.28571
9297.5 0
9298.5 -1.28571
9299.5 1
9300.5 -1.28571
9301.5 1
9302.5 0
9303.5 0
9304.5 1
9305.5 1
9306.5 0
9307.5 0
9308.5 0
9309.5 0
9310.5 0
9311.5 -1.28571
9312.5 0
9313.5 0
9314.5 0
9315.5 0
9316.5 -1.28571
9317.5 0
9318.5 0
9319.5 1
9320.5 -1.28571
9321.5 1
9322.5 0
9323.5 -1.28571
9324.5 0
9325.5 0
9326.5 0
9327.5 0
9328.5 0
9329.5 1
9330.5 0
9331.5 0
9332.5 1
9333.5 0
9334.5 0
9335.5 0
9336.5 0
9337.5 0
9338.5 3
9339.5 0
9340.5 1
9341.5 -1.28571
9342.5 -1.28571
9343.5 1
9344.5 0
9345.5 0
9346.5 0
9347.5 -1.28571
9348.5 0
9349.5 -1.28571
9350.5 0
9351.5 -1.28571
9352.5 0
9353.5 0
9354.5 0
9355.5 1
9356.5 -1.28571
9357.5 0
9358.5 0
9359.5 0
9360.5 0
9361.5 0
9362.5 1
9363.5 1
9364.5 1
9365.5 1
9366.5 0
9367.5 0
9368.5 -1.28571
9369.5 0
9370.5 0
9371.5 -0.285714
9372.5 0
9373.5 0
9374.5 0
9375.5 0
9376.5 -1.28571
9377.5 0
9378.5 0
9379.5 0
9380.5 0
9381.5 -1.28571
9382.5 -0.285714
9383.5 0
9384.5 0
9385.5 0
9386.5 1
9387.5 0
9388.5 0
9389.5 0
9390.5 0
9391.5 2
9392.5 0
9393.5 0
9394.5 0
9395.5 0
9396.5 0
9397.5 0
9398.5 1
9399.5 -1.28571
9400.5 0
9401.5 0
9402.5 0
9403.5 0
9404.5 0
9405.5 0
9406.5 1
9407.5 -1.28571
9408.5 0
9409.5 0
9410.5 1
9411.5 0
9412.5 0
9413.5 0
9414.5 0
9415.5 1
9416.5 0
9417.5 -1.28571
9418.5 0
9419.5 0
9420.5 0
9421.5 0
9422.5 0
9423.5 0
9424.5 0
9425.5 1
9426.5 0
9427.5 0
9428.5 1
9429.5 0
9430.5 0
9431.5 0
9432.5 0
9433.5 0
9434.5 -1.28571
9435.5 0
9436.5 0
9437.5 0
9438.5 0
9439.5 -1.28571
9440.5 0
9441.5 0
9442.5 0
9443.5 0
9444.5 0
9445.5 -1.28571
9446.5 0
9447.5 0
9448.5 -1.28571
9449.5 0
9450.5 0
9451.5 1
9452.5 0
9453.5 0
9454.5 1
9455.5 0
9456.5 1
9457.5 0
9458.5 0
9459.5 0
9460.5 0
9461.5 -0.285714
9462.5 0
9463.5 -1.28571
9464.5 0
9465.5 0
9466.5 0
9467.5 0
9468.5 0
9469.5 0
9470.5 0
9471.5 0
9472.5 1
9473.5 0
9474.5 0
9475.5 0
9476.5 0
9477.5 0
9478.5 -2.57143
9479.5 0
9480.5 0
9481.5 0
9482.5 0
9483.5 0
9484.5 -1.28571
9485.5 -1.28571
9486.5 1
9487.5 0
9488.5 0
9489.5 0
9490.5 0
9491.5 -1.28571
9492.5 0
9493.5 0
9494.5 0
9495.5 0
9496.5 0
9497.5 0
9498.5 0
9499.5 0
9500.5 0
9501.5 0
9502.5 -1.28571
9503.5 0
9504.5 0
9505.5 1
9506.5 0
9507.5 0
9508.5 0
9509.5 0
9510.5 0
9511.5 0
9512.5 0
9513.5 1
9514.5 -0.285714
9515.5 0
9516.5 0
9517.5 0
9518.5 0
9519.5 0
9520.5 0
9521.5 -1.28571
9522.5 -0.285714
9523.5 0
9524.5 0
9525.5 0
9526.5 -1.28571
9527.5 0
9528.5 0
9529.5 0
9530.5 -1.28571
9531.5 0
9532.5 0
9533.5 1
9534.5 0
9535.5 -0.285714
9536.5 0
9537.5 0
9538.5 0
9539.5 0
9540.5 0
9541.5 0
9542.5 0
9543.5 -1.28571
9544.5 0
9545.5 0
9546.5 0
9547.5 0
9548.5 0
9549.5 0
9550.5 0
9551.5 0
9552.5 0
9553.5 0
9554.5 0
9555.5 0
9556.5 0
9557.5 -0.285714
9558.5 0
9559.5 0
9560.5 1
9561.5 1
9562.5 -0.285714
9563.5 0
9564.5 -1.28571
9565.5 0
9566.5 0
9567.5 0
9568.5 0
9569.5 -1.28571
9570.5 0
9571.5 0
9572.5 0
9573.5 1
9574.5 0
9575.5 0
9576.5 0
9577.5 0
9578.5 1
9579.5 0
9580.5 0
9581.5 0
9582.5 0
9583.5 0
9584.5 0
9585.5 0
9586.5 0
9587.5 0
9588.5 0
9589.5 0
9590.5 -0.285714
9591.5 1
9592.5 -1.28571
9593.5 -1.28571
9594.5 1
9595.5 0
9596.5 0
9597.5 0
9598.5 0
9599.5 0
9600.5 0
9601.5 0
9602.5 0
9603.5 0
9604.5 0
9605.5 0
9606.5 0
9607.5 0
9608.5 0
9609.5 0
9610.5 0
9611.5 2
9612.5 0
9613.5 0
9614.5 0
9615.5 0
9616.5 0
9617.5 0
9618.5 0
9619.5 0
9620.5 0
9621.5 0
9622.5 0
9623.5 -1.28571
9624.5 0
9625.5 0
9626.5 0
9627.5 -1.28571
9628.5 0
9629.5 0
9630.5 0
9631.5 0
9632.5 0
9633.5 0
9634.5 0
9635.5 0
9636.5 0
9637.5 0
9638.5 0
9639.5 0
9640.5 0
9641.5 0
9642.5 0
9643.5 0
9644.5 0
9645.5 1
9646.5 0
9647.5 1
9648.5 1
9649.5 0
9650.5 0
9651.5 0
9652.5 0
9653.5 0
9654.5 0
9655.5 0
9656.5 0
9657.5 0
9658.5 0
9659.5 0
9660.5 0
9661.5 0
9662.5 0
9663.5 -1.28571
9664.5 0
9665.5 0
9666.5 0
9667.5 0
9668.5 0
9669.5 0
9670.5 0
9671.5 0
9672.5 0
9673.5 1
9674.5 0
9675.5 0
9676.5 0
9677.5 0
9678.5 0
9679.5 -1.28571
9680.5 0
9681.5 0
9682.5 -1.28571
9683.5 0
9684.5 0
9685.5 0
9686.5 0
9687.5 -1.28571
9688.5 0
9689.5 0
9690.5 0
9691.5 0
9692.5 0
9693.5 0
9694.5 0
9695.5 0
9696.5 0
9697.5 -1.28571
9698.5 0
9699.5 0
9700.5 1
9701.5 0
9702.5 1
9703.5 0
9704.5 0
9705.5 0
9706.5 1
9707.5 0
9708.5 0
9709.5 0
9710.5 2
9711.5 -0.285714
9712.5 1
9713.5 0
9714.5 0
9715.5 0
9716.5 0
9717.5 0
9718.5 0
9719.5 0
9720.5 0
9721.5 0
9722.5 0
9723.5 0
9724.5 0
9725.5 0
9726.5 0
9727.5 0
9728.5 1
9729.5 0
9730.5 0
9731.5 0
9732.5 1
9733.5 0
9734.5 0
9735.5 0
9736.5 1
9737.5 0
9738.5 0
9739.5 1
9740.5 0
9741.5 0
9742.5 0
9743.5 0
9744.5 0
9745.5 0
9746.5 0
9747.5 0
9748.5 0
9749.5 0
9750.5 0
9751.5 0
9752.5 0
9753.5 0
9754.5 -0.285714
9755.5 0
9756.5 0
9757.5 0
9758.5 0
9759.5 -1.28571
9760.5 0
9761.5 0
9762.5 -0.285714
9763.5 0
9764.5 0
9765.5 0
9766.5 0
9767.5 0
9768.5 -1.28571
9769.5 0
9770.5 0
9771.5 0
9772.5 0
9773.5 -1.28571
9774.5 0
9775.5 0
9776.5 0
9777.5 0
9778.5 -1.28571
9779.5 0
9780.5 0
9781.5 0
9782.5 1
9783.5 0
9784.5 0
9785.5 0
9786.5 0
9787.5 0
9788.5 0
9789.5 0
9790.5 0
9791.5 0
9792.5 0
9793.5 0
9794.5 1
9795.5 0
9796.5 0
9797.5 0
9798.5 1
9799.5 0
9800.5 0
9801.5 0
9802.5 0
9803.5 0
9804.5 0
9805.5 0
9806.5 0
9807.5 0
9808.5 0
9809.5 -1.28571
9810.5 1
9811.5 0
9812.5 0
9813.5 0
9814.5 0
9815.5 0
9816.5 0
9817.5 0
9818.5 0
9819.5 0
9820.5 0
9821.5 0
9822.5 0
9823.5 0
9824.5 0
9825.5 0
9826.5 0
9827.5 0
9828.5 0
9829.5 0
9830.5 -1.28571
9831.5 1
9832.5 0
9833.5 0
9834.5 0
9835.5 0
9836.5 0
9837.5 0
9838.5 0
9839.5 0
9840.5 0
9841.5 0
9842.5 0
9843.5 0
9844.5 0
9845.5 0
9846.5 0
9847.5 1
9848.5 0
9849.5 0
9850.5 0
9851.5 0
9852.5 0
9853.5 0
9854.5 0
9855.5 0
9856.5 0
9857.5 0
9858.5 0
9859.5 0
9860.5 0
9861.5 0
9862.5 0
9863.5 0
9864.5 0
9865.5 0
9866.5 1
9867.5 1
9868.5 1
9869.5 0
9870.5 -1.28571
9871.5 0
9872.5 0
9873.5 0
9874.5 0
9875.5 0
9876.5 0
9877.5 0
9878.5 0
9879.5 0
9880.5 1
9881.5 1
9882.5 0
9883.5 1
9884.5 1
9885.5 0
9886.5 0
9887.5 0
9888.5 0
9889.5 0
9890.5 0
9891.5 0
9892.5 0
9893.5 0
9894.5 -2.57143
9895.5 0
9896.5 0
9897.5 0
9898.5 0
9899.5 0
9900.5 0
9901.5 0
9902.5 2
9903.5 0
9904.5 0
9905.5 0
9906.5 0
9907.5 0
9908.5 0
9909.5 0
9910.5 0
9911.5 0
9912.5 0
9913.5 0
9914.5 0
9915.5 0
9916.5 0
9917.5 0
9918.5 0
9919.5 0
9920.5 0
9921.5 0
9922.5 0
9923.5 0
9924.5 0
9925.5 0
9926.5 -1.28571
9927.5 0
9928.5 0
9929.5 0
9930.5 0
9931.5 0
9932.5 0
9933.5 0
9934.5 0
9935.5 0
9936.5 -1.28571
9937.5 0
9938.5 0
9939.5 0
9940.5 0
9941.5 0
9942.5 0
9943.5 0
9944.5 0
9945.5 0
9946.5 0
9947.5 0
9948.5 0
9949.5 0
9950.5 0
9951.5 0
9952.5 0
9953.5 0
9954.5 0
9955.5 0
9956.5 0
9957.5 0
9958.5 0
9959.5 0
9960.5 0
9961.5 0
9962.5 0
9963.5 0
9964.5 0
9965.5 0
9966.5 0
9967.5 0
9968.5 0
9969.5 0
9970.5 0
9971.5 0
9972.5 0
9973.5 -1.28571
9974.5 0
9975.5 1
9976.5 0
9977.5 0
9978.5 0
9979.5 0
9980.5 0
9981.5 1
9982.5 0
9983.5 0
9984.5 0
9985.5 0
9986.5 0
9987.5 0
9988.5 0
9989.5 0
9990.5 -0.285714
9991.5 0
9992.5 0
9993.5 0
9994.5 0
9995.5 0
9996.5 1
9997.5 0
9998.5 0
9999.5 0
10000.5 0
10001.5 -1.28571
10002.5 0
10003.5 0
10004.5 0
10005.5 0
10006.5 0
10007.5 0
10008.5 0
10009.5 0
10010.5 0
10011.5 0
10012.5 0
10013.5 0
10014.5 0
10015.5 0
10016.5 0
10017.5 0
10018.5 0
10019.5 0
10020.5 0
10021.5 0
10022.5 0
10023.5 0
10024.5 1
10025.5 0
10026.5 0
10027.5 0
10028.5 0
10029.5 0
10030.5 0
10031.5 1
10032.5 0
10033.5 0
10034.5 0
10035.5 0
10036.5 0
10037.5 0
10038.5 0
10039.5 0
10040.5 0
10041.5 0
10042.5 0
10043.5 0
10044.5 0
10045.5 0
10046.5 0
10047.5 0
10048.5 1
10049.5 0
10050.5 0
10051.5 0
10052.5 0
10053.5 0
10054.5 0
10055.5 -1.28571
10056.5 0
10057.5 0
10058.5 0
10059.5 0
10060.5 0
10061.5 0
10062.5 -1.28571
10063.5 0
10064.5 0
10065.5 0
10066.5 0
10067.5 0
10068.5 0
10069.5 0
10070.5 0
10071.5 0
10072.5 0
10073.5 0
10074.5 0
10075.5 0
10076.5 1
10077.5 0
10078.5 0
10079.5 0
10080.5 0
10081.5 0
10082.5 -1.28571
10083.5 0
10084.5 0
10085.5 0
10086.5 0
10087.5 0
10088.5 0
10089.5 0
10090.5 0
10091.5 0
10092.5 0
10093.5 0
10094.5 0
10095.5 0
10096.5 0
10097.5 0
10098.5 0
10099.5 0
10100.5 0
10101.5 0
10102.5 0
10103.5 0
10104.5 0
10105.5 0
10106.5 0
10107.5 0
10108.5 1
10109.5 -1.28571
10110.5 0
10111.5 0
10112.5 0
10113.5 0
10114.5 0
10115.5 0
10116.5 0
10117.5 0
10118.5 -1.28571
10119.5 0
10120.5 0
10121.5 0
10122.5 0
10123.5 0
10124.5 0
10125.5 0
10126.5 0
10127.5 0
10128.5 0
10129.5 0
10130.5 0
10131.5 0
10132.5 0
10133.5 0
10134.5 0
10135.5 0
10136.5 0
10137.5 0
10138.5 0
10139.5 0
10140.5 0
10141.5 0
10142.5 0
10143.5 0
10144.5 0
10145.5 0
10146.5 0
10147.5 0
10148.5 0
10149.5 -1.28571
10150.5 0
10151.5 0
10152.5 0
10153.5 0
10154.5 0
10155.5 0
10156.5 0
10157.5 0
10158.5 0
10159.5 0
10160.5 0
10161.5 0
10162.5 0
10163.5 0
10164.5 0
10165.5 0
10166.5 0
10167.5 0
10168.5 0
10169.5 0
10170.5 0
10171.5 0
10172.5 0
10173.5 0
10174.5 -1.28571
10175.5 0
10176.5 0
10177.5 0
10178.5 0
10179.5 0
10180.5 0
10181.5 0
10182.5 0
10183.5 0
10184.5 0
10185.5 0
10186.5 0
10187.5 0
10188.5 0
10189.5 0
10190.5 0
10191.5 0
10192.5 0
10193.5 0
10194.5 0
10195.5 0
10196.5 0
10197.5 0
10198.5 0
10199.5 0
10200.5 0
10201.5 0
10202.5 0
10203.5 0
10204.5 0
10205.5 0
10206.5 1
10207.5 0
10208.5 0
10209.5 0
10210.5 0
10211.5 0
10212.5 0
10213.5 0
10214.5 0
10215.5 0
10216.5 0
10217.5 0
10218.5 0
10219.5 0
10220.5 1
10221.5 0
10222.5 0
10223.5 0
10224.5 0
10225.5 0
10226.5 0
10227.5 0
10228.5 0
10229.5 0
10230.5 1
10231.5 0
10232.5 0
10233.5 0
10234.5 0
10235.5 0
10236.5 0
10237.5 0
10238.5 0
10239.5 0
10240.5 0
10241.5 0
10242.5 0
10243.5 0
10244.5 0
10245.5 0
10246.5 0
10247.5 0
10248.5 0
10249.5 0
10250.5 0
10251.5 0
10252.5 0
10253.5 0
10254.5 0
10255.5 0
10256.5 0
10257.5 0
10258.5 0
10259.5 0
10260.5 0
10261.5 0
10262.5 0
10263.5 0
10264.5 0
10265.5 0
10266.5 0
10267.5 0
10268.5 0
10269.5 0
10270.5 0
10271.5 0
10272.5 0
10273.5 0
10274.5 -1.28571
10275.5 0
10276.5 0
10277.5 0
10278.5 0
10279.5 0
10280.5 0
10281.5 0
10282.5 0
10283.5 0
10284.5 0
10285.5 0
10286.5 0
10287.5 1
10288.5 0
10289.5 0
10290.5 0
10291.5 0
10292.5 0
10293.5 0
10294.5 0
10295.5 0
10296.5 0
10297.5 0
10298.5 1
10299.5 0
10300.5 0
10301.5 0
10302.5 0
10303.5 0
10304.5 0
10305.5 0
10306.5 0
10307.5 0
10308.5 0
10309.5 0
10310.5 0
10311.5 0
10312.5 0
10313.5 0
10314.5 1
10315.5 0
10316.5 0
10317.5 0
10318.5 0
10319.5 0
10320.5 0
10321.5 0
10322.5 0
10323.5 0
10324.5 0
10325.5 0
10326.5 0
10327.5 0
10328.5 0
10329.5 0
10330.5 0
10331.5 0
10332.5 1
10333.5 0
10334.5 -1.28571
10335.5 0
10336.5 0
10337.5 0
10338.5 0
10339.5 0
10340.5 0
10341.5 0
10342.5 0
10343.5 0
10344.5 0
10345.5 0
10346.5 0
10347.5 0
10348.5 0
10349.5 0
10350.5 0
10351.5 0
10352.5 0
10353.5 0
10354.5 0
10355.5 0
10356.5 0
10357.5 0
10358.5 0
10359.5 0
10360.5 0
10361.5 0
10362.5 0
10363.5 0
10364.5 0
10365.5 0
10366.5 0
10367.5 0
10368.5 0
10369.5 0
10370.5 0
10371.5 0
10372.5 0
10373.5 0
10374.5 0
10375.5 0
10376.5 0
10377.5 0
10378.5 0
10379.5 0
10380.5 0
10381.5 0
10382.5 0
10383.5 0
10384.5 0
10385.5 0
10386.5 0
10387.5 0
10388.5 0
10389.5 1
10390.5 0
10391.5 0
10392.5 0
10393.5 0
10394.5 0
10395.5 0
10396.5 0
10397.5 0
10398.5 0
10399.5 0
10400.5 0
10401.5 0
10402.5 0
10403.5 0
10404.5 0
10405.5 0
10406.5 0
10407.5 0
10408.5 0
10409.5 0
10410.5 0
10411.5 0
10412.5 0
10413.5 0
10414.5 0
10415.5 0
10416.5 0
10417.5 0
10418.5 0
10419.5 0
10420.5 0
10421.5 0
10422.5 0
10423.5 0
10424.5 0
10425.5 0
10426.5 0
10427.5 0
10428.5 0
10429.5 0
10430.5 0
10431.5 0
10432.5 0
10433.5 0
10434.5 0
10435.5 0
10436.5 0
10437.5 0
10438.5 0
10439.5 0
10440.5 0
10441.5 0
10442.5 0
10443.5 0
10444.5 0
10445.5 0
10446.5 0
10447.5 0
10448.5 0
10449.5 0
10450.5 0
10451.5 0
10452.5 0
10453.5 0
10454.5 0
10455.5 0
10456.5 0
10457.5 0
10458.5 0
10459.5 0
10460.5 0
10461.5 1
10462.5 0
10463.5 0
10464.5 0
10465.5 0
10466.5 0
10467.5 -1.28571
10468.5 0
10469.5 1
10470.5 0
10471.5 0
10472.5 0
10473.5 0
10474.5 0
10475.5 0
10476.5 0
10477.5 0
10478.5 0
10479.5 0
10480.5 0
10481.5 0
10482.5 0
10483.5 0
10484.5 0
10485.5 0
10486.5 0
10487.5 0
10488.5 0
10489.5 0
10490.5 0
10491.5 0
10492.5 0
10493.5 0
10494.5 0
10495.5 0
10496.5 0
10497.5 0
10498.5 0
10499.5 1
10500.5 0
10501.5 0
10502.5 0
10503.5 0
10504.5 0
10505.5 0
10506.5 0
10507.5 0
10508.5 0
10509.5 0
10510.5 0
10511.5 0
10512.5 0
10513.5 0
10514.5 0
10515.5 0
10516.5 0
10517.5 0
10518.5 0
10519.5 0
10520.5 1
10521.5 0
10522.5 0
10523.5 0
10524.5 0
10525.5 0
10526.5 0
10527.5 0
10528.5 0
10529.5 0
10530.5 0
10531.5 0
10532.5 0
10533.5 0
10534.5 0
10535.5 0
10536.5 0
10537.5 0
10538.5 0
10539.5 0
10540.5 0
10541.5 0
10542.5 0
10543.5 0
10544.5 0
10545.5 0
10546.5 0
10547.5 0
10548.5 0
10549.5 0
10550.5 0
10551.5 0
10552.5 0
10553.5 0
10554.5 0
10555.5 0
10556.5 0
10557.5 0
10558.5 0
10559.5 0
10560.5 0
10561.5 0
10562.5 0
10563.5 0
10564.5 0
10565.5 1
10566.5 0
10567.5 0
10568.5 0
10569.5 0
10570.5 0
10571.5 1
10572.5 0
10573.5 0
10574.5 0
10575.5 0
10576.5 0
10577.5 0
10578.5 0
10579.5 0
10580.5 0
10581.5 0
10582.5 0
10583.5 0
10584.5 0
10585.5 0
10586.5 -1.28571
10587.5 0
10588.5 0
10589.5 0
10590.5 0
10591.5 0
10592.5 0
10593.5 0
10594.5 0
10595.5 0
10596.5 0
10597.5 0
10598.5 0
10599.5 0
10600.5 0
10601.5 0
10602.5 0
10603.5 0
10604.5 0
10605.5 0
10606.5 0
10607.5 0
10608.5 0
10609.5 0
10610.5 0
10611.5 0
10612.5 0
10613.5 0
10614.5 0
10615.5 0
10616.5 0
10617.5 0
10618.5 0
10619.5 1
10620.5 0
10621.5 0
10622.5 0
10623.5 0
10624.5 0
10625.5 0
10626.5 0
10627.5 0
10628.5 0
10629.5 0
10630.5 0
10631.5 0
10632.5 0
10633.5 0
10634.5 0
10635.5 0
10636.5 0
10637.5 0
10638.5 0
10639.5 0
10640.5 0
10641.5 0
10642.5 0
10643.5 0
10644.5 0
10645.5 0
10646.5 0
10647.5 0
10648.5 0
10649.5 0
10650.5 0
10651.5 0
10652.5 0
10653.5 0
10654.5 1
10655.5 0
10656.5 0
10657.5 0
10658.5 0
10659.5 0
10660.5 0
10661.5 0
10662.5 0
10663.5 0
10664.5 0
10665.5 0
10666.5 0
10667.5 0
10668.5 0
10669.5 0
10670.5 0
10671.5 0
10672.5 0
10673.5 0
10674.5 0
10675.5 0
10676.5 0
10677.5 0
10678.5 0
10679.5 0
10680.5 0
10681.5 0
10682.5 0
10683.5 0
10684.5 0
10685.5 1
10686.5 0
10687.5 0
10688.5 0
10689.5 0
10690.5 0
10691.5 0
10692.5 0
10693.5 0
10694.5 0
10695.5 0
10696.5 0
10697.5 0
10698.5 0
10699.5 0
10700.5 0
10701.5 0
10702.5 0
10703.5 0
10704.5 0
10705.5 0
10706.5 0
10707.5 0
10708.5 0
10709.5 0
10710.5 0
10711.5 1
10712.5 0
10713.5 0
10714.5 0
10715.5 0
10716.5 0
10717.5 0
10718.5 0
10719.5 0
10720.5 0
10721.5 0
10722.5 0
10723.5 0
10724.5 0
10725.5 0
10726.5 0
10727.5 0
10728.5 0
10729.5 0
10730.5 0
10731.5 0
10732.5 0
10733.5 0
10734.5 0
10735.5 0
10736.5 0
10737.5 0
10738.5 0
10739.5 0
10740.5 0
10741.5 0
10742.5 0
10743.5 1
10744.5 0
10745.5 0
10746.5 0
10747.5 0
10748.5 0
10749.5 0
10750.5 0
10751.5 0
10752.5 0
10753.5 0
10754.5 0
10755.5 0
10756.5 0
10757.5 0
10758.5 0
10759.5 0
10760.5 0
10761.5 0
10762.5 0
10763.5 0
10764.5 0
10765.5 0
10766.5 0
10767.5 0
10768.5 0
10769.5 0
10770.5 0
10771.5 0
10772.5 0
10773.5 0
10774.5 0
10775.5 0
10776.5 0
10777.5 0
10778.5 0
10779.5 0
10780.5 0
10781.5 0
10782.5 0
10783.5 1
10784.5 0
10785.5 0
10786.5 0
10787.5 0
10788.5 0
10789.5 0
10790.5 0
10791.5 0
10792.5 0
10793.5 0
10794.5 0
10795.5 0
10796.5 0
10797.5 0
10798.5 0
10799.5 0
10800.5 0
10801.5 0
10802.5 0
10803.5 0
10804.5 0
10805.5 0
10806.5 0
10807.5 0
10808.5 0
10809.5 0
10810.5 0
10811.5 0
10812.5 0
10813.5 0
10814.5 0
10815.5 0
10816.5 0
10817.5 0
10818.5 0
10819.5 0
10820.5 0
10821.5 0
10822.5 0
10823.5 0
10824.5 0
10825.5 0
10826.5 0
10827.5 0
10828.5 0
10829.5 0
10830.5 0
10831.5 0
10832.5 0
10833.5 0
10834.5 0
10835.5 0
10836.5 0
10837.5 0
10838.5 0
10839.5 0
10840.5 0
10841.5 0
10842.5 0
10843.5 0
10844.5 0
10845.5 0
10846.5 0
10847.5 0
10848.5 0
10849.5 0
10850.5 0
10851.5 0
10852.5 0
10853.5 0
10854.5 0
10855.5 0
10856.5 0
10857.5 0
10858.5 0
10859.5 0
10860.5 0
10861.5 0
10862.5 0
10863.5 0
10864.5 0
10865.5 0
10866.5 0
10867.5 0
10868.5 0
10869.5 0
10870.5 0
10871.5 0
10872.5 0
10873.5 0
10874.5 0
10875.5 0
10876.5 0
10877.5 0
10878.5 0
10879.5 0
10880.5 0
10881.5 0
10882.5 0
10883.5 0
10884.5 0
10885.5 0
10886.5 0
10887.5 0
10888.5 0
10889.5 0
10890.5 0
10891.5 0
10892.5 0
10893.5 0
10894.5 0
10895.5 0
10896.5 0
10897.5 0
10898.5 0
10899.5 0
10900.5 0
10901.5 0
10902.5 0
10903.5 0
10904.5 0
10905.5 0
10906.5 0
10907.5 0
10908.5 0
10909.5 1
10910.5 0
10911.5 0
10912.5 0
10913.5 0
10914.5 0
10915.5 0
10916.5 -1.28571
10917.5 0
10918.5 0
10919.5 0
10920.5 0
10921.5 0
10922.5 0
10923.5 0
10924.5 0
10925.5 0
10926.5 0
10927.5 0
10928.5 0
10929.5 0
10930.5 0
10931.5 0
10932.5 0
10933.5 0
10934.5 0
10935.5 0
10936.5 0
10937.5 -1.28571
10938.5 0
10939.5 0
10940.5 0
10941.5 0
10942.5 0
10943.5 0
10944.5 0
10945.5 0
10946.5 0
10947.5 0
10948.5 0
10949.5 0
10950.5 0
10951.5 0
10952.5 0
10953.5 0
10954.5 0
10955.5 0
10956.5 0
10957.5 0
10958.5 0
10959.5 0
10960.5 0
10961.5 0
10962.5 0
10963.5 0
10964.5 0
10965.5 0
10966.5 0
10967.5 0
10968.5 0
10969.5 0
10970.5 0
10971.5 0
10972.5 0
10973.5 0
10974.5 0
10975.5 0
10976.5 0
10977.5 0
10978.5 0
10979.5 0
10980.5 0
10981.5 0
10982.5 0
10983.5 0
10984.5 0
10985.5 0
10986.5 0
10987.5 0
10988.5 0
10989.5 0
10990.5 0
10991.5 0
10992.5 0
10993.5 0
10994.5 0
10995.5 0
10996.5 0
10997.5 0
10998.5 0
10999.5 0
11000.5 0
11001.5 0
11002.5 0
11003.5 0
11004.5 0
11005.5 0
11006.5 0
11007.5 0
11008.5 0
11009.5 0
11010.5 0
11011.5 0
11012.5 0
11013.5 0
11014.5 0
11015.5 0
11016.5 0
11017.5 0
11018.5 0
11019.5 0
11020.5 0
11021.5 0
11022.5 0
11023.5 0
11024.5 0
11025.5 0
11026.5 0
11027.5 0
11028.5 0
11029.5 0
11030.5 0
11031.5 0
11032.5 0
11033.5 0
11034.5 0
11035.5 0
11036.5 0
11037.5 0
11038.5 0
11039.5 0
11040.5 0
11041.5 0
11042.5 0
11043.5 0
11044.5 1
11045.5 1
11046.5 0
11047.5 0
11048.5 0
11049.5 0
11050.5 0
11051.5 0
11052.5 0
11053.5 0
11054.5 0
11055.5 0
11056.5 0
11057.5 0
11058.5 0
11059.5 0
11060.5 0
11061.5 0
11062.5 0
11063.5 0
11064.5 0
11065.5 0
11066.5 0
11067.5 0
11068.5 0
11069.5 0
11070.5 0
11071.5 0
11072.5 0
11073.5 0
11074.5 0
11075.5 0
11076.5 0
11077.5 0
11078.5 0
11079.5 0
11080.5 0
11081.5 0
11082.5 0
11083.5 0
11084.5 0
11085.5 0
11086.5 0
11087.5 0
11088.5 0
11089.5 0
11090.5 0
11091.5 0
11092.5 0
11093.5 0
11094.5 0
11095.5 0
11096.5 0
11097.5 0
11098.5 0
11099.5 0
11100.5 0
11101.5 1
11102.5 0
11103.5 0
11104.5 0
11105.5 1
11106.5 0
11107.5 0
11108.5 0
11109.5 0
11110.5 0
11111.5 0
11112.5 0
11113.5 0
11114.5 0
11115.5 1
11116.5 0
11117.5 0
11118.5 0
11119.5 0
11120.5 0
11121.5 0
11122.5 0
11123.5 0
11124.5 0
11125.5 0
11126.5 0
11127.5 0
11128.5 0
11129.5 0
11130.5 0
11131.5 0
11132.5 0
11133.5 0
11134.5 0
11135.5 0
11136.5 0
11137.5 0
11138.5 0
11139.5 0
11140.5 0
11141.5 0
11142.5 0
11143.5 0
11144.5 0
11145.5 0
11146.5 0
11147.5 0
11148.5 0
11149.5 0
11150.5 0
11151.5 0
11152.5 0
11153.5 0
11154.5 0
11155.5 0
11156.5 0
11157.5 0
11158.5 0
11159.5 0
11160.5 0
11161.5 0
11162.5 0
11163.5 0
11164.5 0
11165.5 0
11166.5 0
11167.5 0
11168.5 0
11169.5 0
11170.5 0
11171.5 0
11172.5 0
11173.5 0
11174.5 0
11175.5 0
11176.5 0
11177.5 0
11178.5 0
11179.5 0
11180.5 0
11181.5 0
11182.5 0
11183.5 0
11184.5 0
11185.5 0
11186.5 0
11187.5 0
11188.5 0
11189.5 0
11190.5 0
11191.5 0
11192.5 0
11193.5 0
11194.5 0
11195.5 0
11196.5 0
11197.5 0
11198.5 0
11199.5 0
11200.5 0
11201.5 0
11202.5 0
11203.5 0
11204.5 0
11205.5 0
11206.5 0
11207.5 0
11208.5 0
11209.5 0
11210.5 0
11211.5 0
11212.5 0
11213.5 -1.28571
11214.5 0
11215.5 0
11216.5 0
11217.5 0
11218.5 0
11219.5 0
11220.5 0
11221.5 0
11222.5 0
11223.5 0
11224.5 0
11225.5 0
11226.5 0
11227.5 0
11228.5 0
11229.5 0
11230.5 0
11231.5 0
11232.5 0
11233.5 0
11234.5 0
11235.5 0
11236.5 0
11237.5 0
11238.5 0
11239.5 0
11240.5 0
11241.5 0
11242.5 0
11243.5 0
11244.5 0
11245.5 0
11246.5 0
11247.5 0
11248.5 0
11249.5 0
11250.5 0
11251.5 0
11252.5 0
11253.5 0
11254.5 0
11255.5 -1.28571
11256.5 0
11257.5 0
11258.5 0
11259.5 0
11260.5 0
11261.5 0
11262.5 0
11263.5 0
11264.5 0
11265.5 0
11266.5 0
11267.5 0
11268.5 0
11269.5 0
11270.5 0
11271.5 0
11272.5 0
11273.5 0
11274.5 0
11275.5 0
11276.5 0
11277.5 0
11278.5 0
11279.5 1
11280.5 0
11281.5 0
11282.5 0
11283.5 0
11284.5 0
11285.5 0
11286.5 0
11287.5 0
11288.5 0
11289.5 0
11290.5 0
11291.5 0
11292.5 0
11293.5 0
11294.5 0
11295.5 0
11296.5 0
11297.5 0
11298.5 0
11299.5 0
11300.5 0
11301.5 0
11302.5 0
11303.5 0
11304.5 0
11305.5 0
11306.5 0
11307.5 0
11308.5 0
11309.5 0
11310.5 0
11311.5 0
11312.5 0
11313.5 0
11314.5 0
11315.5 0
11316.5 0
11317.5 0
11318.5 0
11319.5 0
11320.5 0
11321.5 0
11322.5 0
11323.5 0
11324.5 0
11325.5 0
11326.5 0
11327.5 0
11328.5 0
11329.5 0
11330.5 0
11331.5 0
11332.5 0
11333.5 0
11334.5 0
11335.5 0
11336.5 0
11337.5 0
11338.5 0
11339.5 0
11340.5 0
11341.5 0
11342.5 0
11343.5 0
11344.5 0
11345.5 0
11346.5 0
11347.5 0
11348.5 0
11349.5 0
11350.5 0
11351.5 0
11352.5 0
11353.5 0
11354.5 0
11355.5 0
11356.5 0
11357.5 0
11358.5 0
11359.5 0
11360.5 0
11361.5 0
11362.5 0
11363.5 0
11364.5 0
11365.5 0
11366.5 0
11367.5 0
11368.5 0
11369.5 0
11370.5 0
11371.5 0
11372.5 0
11373.5 0
11374.5 0
11375.5 0
11376.5 0
11377.5 0
11378.5 0
11379.5 0
11380.5 0
11381.5 0
11382.5 0
11383.5 0
11384.5 0
11385.5 0
11386.5 0
11387.5 0
11388.5 0
11389.5 0
11390.5 0
11391.5 0
11392.5 0
11393.5 0
11394.5 0
11395.5 0
11396.5 0
11397.5 0
11398.5 0
11399.5 0
11400.5 0
11401.5 0
11402.5 0
11403.5 0
11404.5 0
11405.5 0
11406.5 0
11407.5 0
11408.5 0
11409.5 0
11410.5 0
11411.5 0
11412.5 0
11413.5 0
11414.5 0
11415.5 0
11416.5 0
11417.5 0
11418.5 0
11419.5 1
11420.5 0
11421.5 0
11422.5 0
11423.5 0
11424.5 0
11425.5 0
11426.5 0
11427.5 0
11428.5 0
11429.5 0
11430.5 0
11431.5 0
11432.5 0
11433.5 0
11434.5 0
11435.5 0
11436.5 0
11437.5 0
11438.5 0
11439.5 0
11440.5 0
11441.5 0
11442.5 0
11443.5 0
11444.5 0
11445.5 0
11446.5 0
11447.5 0
11448.5 0
11449.5 0
11450.5 0
11451.5 0
11452.5 0
11453.5 0
11454.5 0
11455.5 0
11456.5 0
11457.5 0
11458.5 0
11459.5 0
11460.5 0
11461.5 0
11462.5 0
11463.5 0
11464.5 0
11465.5 0
11466.5 0
11467.5 0
11468.5 0
11469.5 0
11470.5 0
11471.5 0
11472.5 0
11473.5 0
11474.5 0
11475.5 0
11476.5 0
11477.5 0
11478.5 0
11479.5 0
11480.5 0
11481.5 0
11482.5 0
11483.5 0
11484.5 0
11485.5 0
11486.5 0
11487.5 0
11488.5 0
11489.5 0
11490.5 0
11491.5 0
11492.5 0
11493.5 0
11494.5 0
11495.5 0
11496.5 0
11497.5 0
11498.5 0
11499.5 0
11500.5 0
11501.5 0
11502.5 0
11503.5 0
11504.5 0
11505.5 0
11506.5 0
11507.5 0
11508.5 0
11509.5 0
11510.5 0
11511.5 0
11512.5 0
11513.5 0
11514.5 0
11515.5 0
11516.5 0
11517.5 0
11518.5 0
11519.5 0
11520.5 0
11521.5 0
11522.5 0
11523.5 0
11524.5 0
11525.5 0
11526.5 0
11527.5 0
11528.5 0
11529.5 0
11530.5 0
11531.5 0
11532.5 0
11533.5 0
11534.5 0
11535.5 0
11536.5 0
11537.5 0
11538.5 0
11539.5 0
11540.5 0
11541.5 0
11542.5 0
11543.5 0
11544.5 0
11545.5 0
11546.5 0
11547.5 0
11548.5 0
11549.5 0
11550.5 0
11551.5 0
11552.5 0
11553.5 0
11554.5 0
11555.5 0
11556.5 0
11557.5 0
11558.5 0
11559.5 0
11560.5 0
11561.5 0
11562.5 0
11563.5 0
11564.5 0
11565.5 0
11566.5 0
11567.5 0
11568.5 1
11569.5 0
11570.5 0
11571.5 0
11572.5 -1.28571
11573.5 0
11574.5 0
11575.5 0
11576.5 0
11577.5 0
11578.5 0
11579.5 0
11580.5 0
11581.5 0
11582.5 0
11583.5 0
11584.5 0
11585.5 0
11586.5 0
11587.5 0
11588.5 0
11589.5 0
11590.5 0
11591.5 0
11592.5 0
11593.5 0
11594.5 0
11595.5 0
11596.5 0
11597.5 0
11598.5 0
11599.5 0
11600.5 0
11601.5 0
11602.5 0
11603.5 0
11604.5 0
11605.5 0
11606.5 0
11607.5 0
11608.5 0
11609.5 0
11610.5 0
11611.5 0
11612.5 0
11613.5 0
11614.5 0
11615.5 0
11616.5 0
11617.5 0
11618.5 0
11619.5 0
11620.5 0
11621.5 0
11622.5 0
11623.5 0
11624.5 0
11625.5 0
11626.5 0
11627.5 0
11628.5 0
11629.5 0
11630.5 0
11631.5 0
11632.5 0
11633.5 0
11634.5 0
11635.5 0
11636.5 0
11637.5 0
11638.5 -1.28571
11639.5 0
11640.5 0
11641.5 0
11642.5 0
11643.5 0
11644.5 0
11645.5 0
11646.5 0
11647.5 0
11648.5 0
11649.5 0
11650.5 0
11651.5 0
11652.5 0
11653.5 0
11654.5 0
11655.5 0
11656.5 0
11657.5 0
11658.5 0
11659.5 0
11660.5 -1.28571
11661.5 0
11662.5 0
11663.5 0
11664.5 0
11665.5 0
11666.5 0
11667.5 0
11668.5 0
11669.5 0
11670.5 0
11671.5 0
11672.5 0
11673.5 0
11674.5 0
11675.5 0
11676.5 0
11677.5 0
11678.5 0
11679.5 0
11680.5 0
11681.5 0
11682.5 0
11683.5 0
11684.5 0
11685.5 0
11686.5 0
11687.5 0
11688.5 0
11689.5 0
11690.5 0
11691.5 0
11692.5 0
11693.5 0
11694.5 0
11695.5 0
11696.5 0
11697.5 0
11698.5 0
11699.5 0
11700.5 0
11701.5 0
11702.5 0
11703.5 0
11704.5 0
11705.5 0
11706.5 0
11707.5 0
11708.5 0
11709.5 0
11710.5 0
11711.5 0
11712.5 0
11713.5 0
11714.5 0
11715.5 0
11716.5 0
11717.5 0
11718.5 0
11719.5 0
11720.5 0
11721.5 0
11722.5 0
11723.5 0
11724.5 0
11725.5 0
11726.5 0
11727.5 0
11728.5 0
11729.5 0
11730.5 0
11731.5 0
11732.5 0
11733.5 0
11734.5 0
11735.5 0
11736.5 0
11737.5 0
11738.5 0
11739.5 0
11740.5 0
11741.5 0
11742.5 0
11743.5 0
11744.5 0
11745.5 0
11746.5 0
11747.5 0
11748.5 0
11749.5 0
11750.5 0
11751.5 0
11752.5 0
11753.5 0
11754.5 0
11755.5 0
11756.5 0
11757.5 0
11758.5 0
11759.5 0
11760.5 0
11761.5 0
11762.5 0
11763.5 0
11764.5 0
11765.5 0
11766.5 0
11767.5 0
11768.5 0
11769.5 0
11770.5 0
11771.5 0
11772.5 0
11773.5 0
11774.5 0
11775.5 0
11776.5 0
11777.5 0
11778.5 0
11779.5 0
11780.5 0
11781.5 0
11782.5 0
11783.5 0
11784.5 0
11785.5 0
11786.5 0
11787.5 0
11788.5 0
11789.5 0
11790.5 0
11791.5 0
11792.5 0
11793.5 0
11794.5 0
11795.5 0
11796.5 0
11797.5 0
11798.5 0
11799.5 0
11800.5 0
11801.5 0
11802.5 0
11803.5 0
11804.5 0
11805.5 0
11806.5 0
11807.5 0
11808.5 0
11809.5 0
11810.5 0
11811.5 0
11812.5 0
11813.5 0
11814.5 0
11815.5 0
11816.5 0
11817.5 0
11818.5 0
11819.5 0
11820.5 0
11821.5 0
11822.5 0
11823.5 0
11824.5 0
11825.5 0
11826.5 0
11827.5 0
11828.5 0
11829.5 0
11830.5 0
11831.5 0
11832.5 0
11833.5 0
11834.5 0
11835.5 0
11836.5 0
11837.5 0
11838.5 0
11839.5 0
11840.5 0
11841.5 0
11842.5 0
11843.5 0
11844.5 0
11845.5 0
11846.5 0
11847.5 0
11848.5 0
11849.5 0
11850.5 0
11851.5 0
11852.5 0
11853.5 0
11854.5 0
11855.5 0
11856.5 0
11857.5 0
11858.5 0
11859.5 0
11860.5 0
11861.5 0
11862.5 0
11863.5 0
11864.5 0
11865.5 0
11866.5 0
11867.5 0
11868.5 0
11869.5 0
11870.5 0
11871.5 0
11872.5 0
11873.5 0
11874.5 0
11875.5 0
11876.5 0
11877.5 0
11878.5 0
11879.5 0
11880.5 0
11881.5 0
11882.5 0
11883.5 0
11884.5 0
11885.5 0
11886.5 0
11887.5 0
11888.5 0
11889.5 0
11890.5 0
11891.5 0
11892.5 0
11893.5 0
11894.5 0
11895.5 0
11896.5 0
11897.5 0
11898.5 0
11899.5 0
11900.5 0
11901.5 0
11902.5 0
11903.5 0
11904.5 0
11905.5 0
11906.5 0
11907.5 0
11908.5 0
11909.5 0
11910.5 0
11911.5 0
11912.5 0
11913.5 0
11914.5 0
11915.5 0
11916.5 0
11917.5 0
11918.5 0
11919.5 0
11920.5 0
11921.5 0
11922.5 0
11923.5 0
11924.5 0
11925.5 0
11926.5 0
11927.5 0
11928.5 0
11929.5 0
11930.5 0
11931.5 0
11932.5 0
11933.5 0
11934.5 0
11935.5 0
11936.5 0
11937.5 0
11938.5 0
11939.5 0
11940.5 0
11941.5 0
11942.5 0
11943.5 0
11944.5 0
11945.5 0
11946.5 0
11947.5 0
11948.5 0
11949.5 0
11950.5 0
11951.5 0
11952.5 0
11953.5 0
11954.5 0
11955.5 0
11956.5 0
11957.5 0
11958.5 0
11959.5 0
11960.5 0
11961.5 0
11962.5 0
11963.5 0
11964.5 0
11965.5 0
11966.5 0
11967.5 0
11968.5 0
11969.5 0
11970.5 0
11971.5 0
11972.5 0
11973.5 0
11974.5 0
11975.5 0
11976.5 0
11977.5 0
11978.5 0
11979.5 0
11980.5 0
11981.5 0
11982.5 0
11983.5 0
11984.5 0
11985.5 0
11986.5 0
11987.5 0
11988.5 0
11989.5 0
11990.5 0
11991.5 0
11992.5 0
11993.5 0
11994.5 0
11995.5 0
11996.5 0
11997.5 0
11998.5 0
11999.5 0
