# EGG_ProjY_E2866.0(3.0)_B2834.0(2.0)_B2906.5(1.5)
# X axis : Energy (keV) [Y axis]
# Y axis : Counts/1 keV
# N Bins : 12000
# X Min : 0
# X Max : 12000
# X value at the center of the bins
0.5 0
1.5 0
2.5 0
3.5 0
4.5 0
5.5 4.57143
6.5 4.28571
7.5 4.85714
8.5 3
9.5 17.1429
10.5 5.85714
11.5 4.71429
12.5 30.5714
13.5 15.4286
14.5 15.8571
15.5 -6.42857
16.5 24.4286
17.5 -3.85715
18.5 -6.28572
19.5 -3.57143
20.5 14
21.5 62.2857
22.5 -0.571435
23.5 67.1429
24.5 27.4286
25.5 34.4286
26.5 81.2857
27.5 69.7143
28.5 107.286
29.5 72.5714
30.5 -45.5714
31.5 132.571
32.5 90.7143
33.5 76.1428
34.5 77.2857
35.5 128.857
36.5 59.7143
37.5 159.714
38.5 59.2857
39.5 35
40.5 188
41.5 116
42.5 5.99997
43.5 56.7143
44.5 43
45.5 149.714
46.5 79.1428
47.5 86.4286
48.5 140
49.5 12.7143
50.5 202.857
51.5 153.429
52.5 119.714
53.5 252.143
54.5 133.286
55.5 276.714
56.5 83.7143
57.5 198.857
58.5 210
59.5 330.571
60.5 289.857
61.5 208.714
62.5 170.429
63.5 129.571
64.5 128.286
65.5 158.714
66.5 312.571
67.5 215.857
68.5 256.714
69.5 176.714
70.5 65.5714
71.5 87.2857
72.5 153.143
73.5 122.714
74.5 337.143
75.5 372.714
76.5 292.286
77.5 319.857
78.5 344.143
79.5 77.4285
80.5 250.714
81.5 195.429
82.5 195.286
83.5 142.857
84.5 187.429
85.5 216.143
86.5 84.7143
87.5 162.143
88.5 133
89.5 149.857
90.5 187.143
91.5 157
92.5 198.714
93.5 123.571
94.5 98.7143
95.5 58.4286
96.5 21.4286
97.5 159.714
98.5 104.286
99.5 79.1428
100.5 49.8571
101.5 159.571
102.5 54.5714
103.5 137.429
104.5 66.7143
105.5 93.8571
106.5 236.286
107.5 161.714
108.5 106.571
109.5 190.143
110.5 120.571
111.5 111.429
112.5 46.8571
113.5 2.99998
114.5 55.1428
115.5 245.286
116.5 179.714
117.5 251.571
118.5 105.429
119.5 235.143
120.5 116.429
121.5 49.7143
122.5 -62.1429
123.5 166.857
124.5 158
125.5 175.286
126.5 132.286
127.5 125.429
128.5 176
129.5 272.429
130.5 23.2857
131.5 36.2857
132.5 81.8571
133.5 140.571
134.5 178.286
135.5 294.286
136.5 423.571
137.5 354
138.5 262.571
139.5 409.286
140.5 267.714
141.5 181.571
142.5 132.143
143.5 111.143
144.5 243.571
145.5 81.5714
146.5 321.857
147.5 41.5714
148.5 311.714
149.5 259.286
150.5 299.571
151.5 232.429
152.5 248.714
153.5 216
154.5 223.143
155.5 289.571
156.5 275.429
157.5 245.286
158.5 237.429
159.5 129.143
160.5 310.286
161.5 294.571
162.5 41.7143
163.5 172.286
164.5 223.429
165.5 248.571
166.5 283
167.5 181.714
168.5 232
169.5 364.143
170.5 413
171.5 357
172.5 426.143
173.5 307.571
174.5 339
175.5 444
176.5 305.857
177.5 245.714
178.5 105.429
179.5 140.714
180.5 188
181.5 304.714
182.5 233
183.5 344.857
184.5 414.286
185.5 432.571
186.5 217.143
187.5 327
188.5 370.571
189.5 249.286
190.5 173
191.5 250.857
192.5 47.8571
193.5 235.429
194.5 284
195.5 270.714
196.5 168.286
197.5 262
198.5 62.5714
199.5 153.143
200.5 40.7143
201.5 -38
202.5 -195.571
203.5 -232.714
204.5 -95.8572
205.5 75.5714
206.5 152.571
207.5 181.143
208.5 291.571
209.5 270.714
210.5 313.857
211.5 182.571
212.5 226.857
213.5 236.857
214.5 142.714
215.5 101.571
216.5 50.8571
217.5 112.143
218.5 201.714
219.5 261.143
220.5 285
221.5 87.8571
222.5 134.143
223.5 291.714
224.5 227
225.5 132.143
226.5 129.286
227.5 79.2857
228.5 349.143
229.5 302.857
230.5 322
231.5 186.571
232.5 319.429
233.5 353.571
234.5 269.143
235.5 259.571
236.5 90.2857
237.5 394.571
238.5 172.571
239.5 159.143
240.5 217.714
241.5 274.286
242.5 159.571
243.5 281.143
244.5 313.143
245.5 406.286
246.5 453
247.5 401.143
248.5 248.286
249.5 380.714
250.5 370.857
251.5 369.571
252.5 261.714
253.5 276.714
254.5 232
255.5 218.714
256.5 354.143
257.5 385.286
258.5 220.571
259.5 150.714
260.5 193.714
261.5 282.571
262.5 57.8571
263.5 82.5714
264.5 58.8571
265.5 93.2857
266.5 123.143
267.5 153.571
268.5 152.143
269.5 151.571
270.5 -21.8572
271.5 186.286
272.5 72.4285
273.5 164.429
274.5 109.571
275.5 97.4285
276.5 174.429
277.5 139.714
278.5 63.5714
279.5 33.7143
280.5 49.2857
281.5 129.571
282.5 212.143
283.5 210.714
284.5 192.143
285.5 235.571
286.5 226.429
287.5 168.429
288.5 178.286
289.5 219.286
290.5 195.143
291.5 230.714
292.5 227.571
293.5 227
294.5 133.714
295.5 108.143
296.5 126.429
297.5 98.2857
298.5 120
299.5 95.1428
300.5 107.429
301.5 64.8571
302.5 179
303.5 270.143
304.5 302.857
305.5 276
306.5 196.286
307.5 385.571
308.5 277.143
309.5 234.857
310.5 341.714
311.5 255
312.5 165.857
313.5 178.429
314.5 180
315.5 159.857
316.5 130.714
317.5 126
318.5 255.857
319.5 199.286
320.5 264.571
321.5 190.857
322.5 240
323.5 237
324.5 195.286
325.5 26
326.5 270.714
327.5 223.286
328.5 129.857
329.5 130.714
330.5 253.857
331.5 251.571
332.5 381.857
333.5 336.857
334.5 299.714
335.5 261
336.5 238.429
337.5 370.143
338.5 286.857
339.5 194.571
340.5 151
341.5 152.714
342.5 274.143
343.5 147.571
344.5 196.714
345.5 150.571
346.5 174.429
347.5 159.143
348.5 124.571
349.5 183.286
350.5 123.143
351.5 115.714
352.5 101
353.5 148.143
354.5 62.4286
355.5 168
356.5 139.429
357.5 42
358.5 149.571
359.5 45.7143
360.5 130.429
361.5 174.143
362.5 140.143
363.5 187.714
364.5 113
365.5 138
366.5 131.429
367.5 117
368.5 238
369.5 97.8571
370.5 184.429
371.5 166.714
372.5 234.143
373.5 370.429
374.5 280.286
375.5 244.857
376.5 292.143
377.5 322
378.5 247
379.5 239.857
380.5 127.571
381.5 173.286
382.5 185
383.5 166.429
384.5 144.429
385.5 145.286
386.5 70.2857
387.5 45.4286
388.5 183.714
389.5 166.143
390.5 128.286
391.5 87.2857
392.5 186.571
393.5 192.429
394.5 164.714
395.5 183.429
396.5 91.5714
397.5 147.857
398.5 160.143
399.5 117.286
400.5 96.4286
401.5 97.2857
402.5 143.571
403.5 648.143
404.5 513.143
405.5 186.571
406.5 3.71427
407.5 21
408.5 51.8571
409.5 24.1428
410.5 84.4286
411.5 137.571
412.5 35
413.5 72.7143
414.5 19.2857
415.5 19.8571
416.5 114.429
417.5 47.4286
418.5 88.7143
419.5 137.857
420.5 112.286
421.5 103
422.5 78.4286
423.5 99.4286
424.5 130.714
425.5 56.5714
426.5 -8.57144
427.5 210.286
428.5 64.1428
429.5 90
430.5 177.429
431.5 110.571
432.5 145.286
433.5 346.286
434.5 279
435.5 246.143
436.5 299.143
437.5 180.143
438.5 211.857
439.5 188.714
440.5 132.286
441.5 158.714
442.5 81
443.5 154.143
444.5 76.7143
445.5 109.857
446.5 162.286
447.5 78.2857
448.5 303.143
449.5 116.857
450.5 119.143
451.5 27.5714
452.5 208
453.5 193.571
454.5 246
455.5 146.429
456.5 115.714
457.5 116.857
458.5 231.429
459.5 155
460.5 64.1428
461.5 36.5714
462.5 -58.5714
463.5 43.5714
464.5 31.7143
465.5 50.7143
466.5 45.5714
467.5 141
468.5 238.571
469.5 184.143
470.5 152.143
471.5 231.429
472.5 176.857
473.5 101
474.5 93.2857
475.5 119.571
476.5 61.2857
477.5 65.2857
478.5 70.7143
479.5 91.5714
480.5 7.42856
481.5 47.8571
482.5 163.857
483.5 172
484.5 107.286
485.5 108.571
486.5 133.429
487.5 79.5714
488.5 118.571
489.5 104.571
490.5 104.286
491.5 150.429
492.5 112.286
493.5 58.7143
494.5 120.429
495.5 86.8571
496.5 88.7143
497.5 146.714
498.5 98.8571
499.5 137.143
500.5 188.286
501.5 182.857
502.5 98.1428
503.5 173
504.5 171.286
505.5 165.429
506.5 206.286
507.5 316.714
508.5 665
509.5 1311.43
510.5 1355.14
511.5 1564.57
512.5 855.286
513.5 523
514.5 183
515.5 124.429
516.5 96.8571
517.5 123.857
518.5 0.999988
519.5 -70.5714
520.5 -25
521.5 26.4286
522.5 -32.5714
523.5 10.4286
524.5 102.571
525.5 76.2857
526.5 126.429
527.5 119.286
528.5 45.1428
529.5 49
530.5 103.857
531.5 89.2857
532.5 18.8571
533.5 44.1428
534.5 86.4286
535.5 95.1428
536.5 53.4286
537.5 99
538.5 42.5714
539.5 37.8571
540.5 19.4286
541.5 28.2857
542.5 -3.28572
543.5 -30
544.5 75.8571
545.5 51.7143
546.5 46.4286
547.5 105.429
548.5 78.8571
549.5 58.8571
550.5 93.4286
551.5 94.2857
552.5 121.571
553.5 52.1428
554.5 112.857
555.5 80.8571
556.5 152.429
557.5 153.714
558.5 248.429
559.5 236.143
560.5 274.143
561.5 380
562.5 269.857
563.5 231.286
564.5 96.4286
565.5 130
566.5 163.571
567.5 118
568.5 96.1428
569.5 125
570.5 81.4286
571.5 17.2857
572.5 130
573.5 33.2857
574.5 120.714
575.5 97.4286
576.5 98.7143
577.5 111.286
578.5 25.4286
579.5 223.714
580.5 117.571
581.5 164.857
582.5 324.286
583.5 184.714
584.5 284.429
585.5 254.143
586.5 109.714
587.5 88.5714
588.5 105.286
589.5 16.2857
590.5 50.7143
591.5 -24
592.5 -79.5714
593.5 -20.5714
594.5 35
595.5 115
596.5 64.7143
597.5 55.5714
598.5 100.571
599.5 40.7143
600.5 51.1428
601.5 64.2857
602.5 25.7143
603.5 78.8571
604.5 98.7143
605.5 91.5714
606.5 38.4286
607.5 131.571
608.5 -31.5714
609.5 18.8571
610.5 114.286
611.5 -7.86781e-06
612.5 54.5714
613.5 54.7143
614.5 9.85713
615.5 -53.1429
616.5 98.1428
617.5 114.857
618.5 19.7143
619.5 100.429
620.5 9.85713
621.5 141.429
622.5 111.429
623.5 125.714
624.5 183.857
625.5 103.571
626.5 160.857
627.5 74.4286
628.5 128
629.5 -3.14287
630.5 152.714
631.5 113.857
632.5 75.8571
633.5 40
634.5 137.429
635.5 99.2857
636.5 134
637.5 170
638.5 130
639.5 88.2857
640.5 92.7143
641.5 96
642.5 178.286
643.5 89.7143
644.5 124.143
645.5 62.8571
646.5 94.8571
647.5 124
648.5 33.2857
649.5 -17.7143
650.5 151.857
651.5 144.571
652.5 56.5714
653.5 9.85713
654.5 76.5714
655.5 29.5714
656.5 42.8571
657.5 -24.8572
658.5 57.8571
659.5 50.4286
660.5 235.857
661.5 50.5714
662.5 167
663.5 245
664.5 471
665.5 573.571
666.5 284.571
667.5 188
668.5 89.5714
669.5 68.5714
670.5 116.714
671.5 66.7143
672.5 57.4286
673.5 -21.4286
674.5 56.7143
675.5 73.1428
676.5 129
677.5 87
678.5 89.7143
679.5 51
680.5 -17.8572
681.5 43.1428
682.5 119
683.5 30.1428
684.5 36.2857
685.5 107.143
686.5 72.4286
687.5 116.143
688.5 82.1429
689.5 99.1429
690.5 139
691.5 51
692.5 46.4286
693.5 7.28571
694.5 47.7143
695.5 -7.71429
696.5 75.1428
697.5 41.2857
698.5 38.1428
699.5 74.1429
700.5 67.2857
701.5 91.2857
702.5 51.4286
703.5 53.2857
704.5 38.4286
705.5 54.4286
706.5 23.7143
707.5 119.143
708.5 42.5714
709.5 21
710.5 73.8571
711.5 43.7143
712.5 17.1428
713.5 98.8571
714.5 76.5714
715.5 157.714
716.5 106.143
717.5 123.429
718.5 76
719.5 58.1429
720.5 61.1428
721.5 93.5714
722.5 29.4286
723.5 68.4286
724.5 94.5714
725.5 116.714
726.5 80
727.5 44.8571
728.5 106.571
729.5 77
730.5 29.8571
731.5 7.99999
732.5 24.1428
733.5 84.2857
734.5 92
735.5 96.5714
736.5 64
737.5 106.429
738.5 106.286
739.5 59.7143
740.5 32.2857
741.5 81.1429
742.5 66
743.5 111.714
744.5 155.286
745.5 98.7143
746.5 69.1428
747.5 38.4286
748.5 34
749.5 96.5714
750.5 104.571
751.5 80.5714
752.5 89.2857
753.5 30.4286
754.5 112.286
755.5 90.1429
756.5 102.286
757.5 65.7143
758.5 157.571
759.5 343
760.5 847
761.5 866.286
762.5 501.857
763.5 197
764.5 68
765.5 115.143
766.5 126.571
767.5 84.8571
768.5 105
769.5 28.8571
770.5 68.1429
771.5 65.2857
772.5 73.2857
773.5 109.571
774.5 111.286
775.5 74.5714
776.5 69.4286
777.5 96.5714
778.5 -13.1429
779.5 147.571
780.5 65.7143
781.5 115.571
782.5 76.8571
783.5 57.8571
784.5 100.571
785.5 85.2857
786.5 52.1428
787.5 143.429
788.5 67.1428
789.5 92.1428
790.5 59.4286
791.5 132.571
792.5 105.714
793.5 82.1429
794.5 81.5714
795.5 114.143
796.5 92.2857
797.5 83
798.5 5.85714
799.5 32.5714
800.5 63
801.5 47.1429
802.5 126.143
803.5 96.5714
804.5 116.571
805.5 103
806.5 172.571
807.5 64.5714
808.5 69.1428
809.5 66.4286
810.5 51.4286
811.5 46.4286
812.5 148.857
813.5 61.8571
814.5 81.8571
815.5 90.1429
816.5 126.429
817.5 64.1429
818.5 164.429
819.5 81.2857
820.5 106.857
821.5 95.4286
822.5 48.1428
823.5 71.8571
824.5 37.4286
825.5 107.714
826.5 69.7143
827.5 78.2857
828.5 96.7143
829.5 96.2857
830.5 23.8571
831.5 116.429
832.5 69.1428
833.5 78.5714
834.5 -1.85715
835.5 94.2857
836.5 98.2857
837.5 66.5714
838.5 72.8571
839.5 64.8571
840.5 110.286
841.5 -6.71429
842.5 149.286
843.5 44.1428
844.5 90.4286
845.5 139.286
846.5 47.5714
847.5 87.5714
848.5 52.4286
849.5 49.5714
850.5 102.857
851.5 60.7143
852.5 134.143
853.5 101.286
854.5 78.8571
855.5 90.8571
856.5 -6.57144
857.5 94.7143
858.5 68.2857
859.5 57.7143
860.5 33.8571
861.5 -22.2857
862.5 69.5714
863.5 18.8571
864.5 104.571
865.5 -2.57144
866.5 109.571
867.5 115.857
868.5 214.571
869.5 63.8571
870.5 96.5714
871.5 124.429
872.5 88.2857
873.5 -4.71429
874.5 28.8571
875.5 54.8571
876.5 73.7143
877.5 22.8571
878.5 155
879.5 197.143
880.5 114.571
881.5 76.2857
882.5 94.7143
883.5 131.857
884.5 21
885.5 112.714
886.5 52.8571
887.5 89.4286
888.5 111.286
889.5 93.5714
890.5 68.5714
891.5 115
892.5 95.2857
893.5 74.8571
894.5 109.571
895.5 98.2857
896.5 64
897.5 87.8571
898.5 126.286
899.5 113.714
900.5 79.5714
901.5 58.4286
902.5 35.4286
903.5 86.2857
904.5 82.8571
905.5 103
906.5 84.2857
907.5 18.5714
908.5 75.8571
909.5 17.7143
910.5 81
911.5 107.286
912.5 61.8571
913.5 84.7143
914.5 73.7143
915.5 97.1428
916.5 82.1428
917.5 68
918.5 89.5714
919.5 105.429
920.5 29.2857
921.5 118
922.5 94.5714
923.5 78.1428
924.5 11.5714
925.5 44.2857
926.5 76.2857
927.5 81.7143
928.5 106.429
929.5 64.2857
930.5 47.2857
931.5 80.2857
932.5 47.5714
933.5 31
934.5 74.4286
935.5 71
936.5 62.2857
937.5 95
938.5 57.4286
939.5 191.429
940.5 95.2857
941.5 202.143
942.5 57.8571
943.5 134.429
944.5 65.1428
945.5 108.143
946.5 51.4286
947.5 42.1428
948.5 82.8571
949.5 90.4286
950.5 99.4286
951.5 38.8571
952.5 95.7143
953.5 -6.00001
954.5 103
955.5 36.8571
956.5 91.1429
957.5 75.7143
958.5 86.1429
959.5 86.1429
960.5 26.1428
961.5 100.286
962.5 -20.1429
963.5 61.2857
964.5 129.571
965.5 -120.857
966.5 -135.571
967.5 -84.4286
968.5 28
969.5 104
970.5 80.7143
971.5 21.8571
972.5 45
973.5 63.2857
974.5 27.7143
975.5 115
976.5 22
977.5 125.714
978.5 11.4286
979.5 37.2857
980.5 112.429
981.5 74.1429
982.5 61.4286
983.5 127
984.5 86.7143
985.5 79.7143
986.5 54.7143
987.5 77.1429
988.5 47.2857
989.5 38
990.5 132.857
991.5 108.571
992.5 2.42857
993.5 -2.57143
994.5 61.2857
995.5 39.8571
996.5 39.5714
997.5 90.8571
998.5 108.143
999.5 233.714
1000.5 536.857
1001.5 1315.43
1002.5 1089.71
1003.5 477.857
1004.5 158.857
1005.5 133.429
1006.5 95.7143
1007.5 38.7143
1008.5 19.1429
1009.5 54.8571
1010.5 88.4286
1011.5 37.2857
1012.5 16.8571
1013.5 45.5714
1014.5 48.7143
1015.5 -27.5714
1016.5 49.1429
1017.5 -11
1018.5 4.28571
1019.5 45.5714
1020.5 -22
1021.5 30.8571
1022.5 0.571422
1023.5 62.5714
1024.5 115.286
1025.5 58.5714
1026.5 64.1429
1027.5 59
1028.5 55.4286
1029.5 57
1030.5 -45.2857
1031.5 43.7143
1032.5 109
1033.5 81
1034.5 11.1429
1035.5 72.5714
1036.5 51.4286
1037.5 18.2857
1038.5 133.143
1039.5 54.8571
1040.5 50
1041.5 40.5714
1042.5 29.7143
1043.5 85.5714
1044.5 52.2857
1045.5 150.571
1046.5 155.714
1047.5 84.1429
1048.5 80.4286
1049.5 139.143
1050.5 152.286
1051.5 141.571
1052.5 60
1053.5 11.8571
1054.5 13.1429
1055.5 9.42857
1056.5 78.4286
1057.5 43.4286
1058.5 -2.28572
1059.5 45.7143
1060.5 70
1061.5 23.2857
1062.5 73.7143
1063.5 41.2857
1064.5 86.5714
1065.5 -1
1066.5 31
1067.5 2.28571
1068.5 51.8571
1069.5 57.7143
1070.5 28.5714
1071.5 -35.4286
1072.5 50
1073.5 125
1074.5 100
1075.5 41.1428
1076.5 17.7143
1077.5 26.2857
1078.5 69
1079.5 57.7143
1080.5 31.2857
1081.5 37
1082.5 24
1083.5 36.4286
1084.5 7.71428
1085.5 88.7143
1086.5 29.7143
1087.5 46.1429
1088.5 60.4286
1089.5 48.2857
1090.5 33.4286
1091.5 67.8571
1092.5 73.7143
1093.5 39.7143
1094.5 2.57142
1095.5 -0.142861
1096.5 71.2857
1097.5 16.5714
1098.5 104.857
1099.5 49.5714
1100.5 69.4286
1101.5 82.8571
1102.5 51.7143
1103.5 95
1104.5 70
1105.5 82.1429
1106.5 41.4286
1107.5 18.8571
1108.5 48.8571
1109.5 -0.142861
1110.5 46.5714
1111.5 85.1429
1112.5 -0.428575
1113.5 29.4286
1114.5 61.5714
1115.5 33.1429
1116.5 100
1117.5 34.8571
1118.5 72.7143
1119.5 45.8571
1120.5 102.571
1121.5 15
1122.5 43.2857
1123.5 186.143
1124.5 522.714
1125.5 1124.71
1126.5 1337.43
1127.5 909.714
1128.5 239
1129.5 84.2857
1130.5 36.4286
1131.5 -22.7143
1132.5 40.1429
1133.5 -0.714289
1134.5 46.1429
1135.5 61.2857
1136.5 28.1429
1137.5 13.4286
1138.5 2.42857
1139.5 22.2857
1140.5 39.1429
1141.5 35.5714
1142.5 34.5714
1143.5 -5.71429
1144.5 35.1429
1145.5 -2.14286
1146.5 31.8571
1147.5 64.8571
1148.5 31.4286
1149.5 13.8571
1150.5 74
1151.5 2.71428
1152.5 88
1153.5 104.429
1154.5 88.4285
1155.5 1154.57
1156.5 2707.29
1157.5 2653.29
1158.5 1041.71
1159.5 247.286
1160.5 -7.14286
1161.5 46.5714
1162.5 112.714
1163.5 298
1164.5 521
1165.5 478.286
1166.5 208.143
1167.5 96
1168.5 32.4286
1169.5 0.999997
1170.5 36.8571
1171.5 34.8571
1172.5 29.7143
1173.5 36.1429
1174.5 7.71428
1175.5 45.7143
1176.5 31.5714
1177.5 -8.71429
1178.5 54.4286
1179.5 -39.5714
1180.5 22.7143
1181.5 42.5714
1182.5 69.7143
1183.5 40.1429
1184.5 -9.85715
1185.5 70.7143
1186.5 21.1429
1187.5 35.2857
1188.5 33.4286
1189.5 19.2857
1190.5 46.4286
1191.5 -32.7143
1192.5 -16.4286
1193.5 6.42857
1194.5 52.2857
1195.5 7.71428
1196.5 24.5714
1197.5 39.8571
1198.5 25.1429
1199.5 -5.85715
1200.5 32.8571
1201.5 21.7143
1202.5 52.5714
1203.5 6.42857
1204.5 29
1205.5 35.4286
1206.5 29.1429
1207.5 28.2857
1208.5 6
1209.5 10.1429
1210.5 8.71428
1211.5 39.8571
1212.5 39.5714
1213.5 50.2857
1214.5 53.2857
1215.5 22.4286
1216.5 21.5714
1217.5 33.8571
1218.5 -22.2857
1219.5 25
1220.5 45.4286
1221.5 49.2857
1222.5 36
1223.5 62.1429
1224.5 31
1225.5 17.5714
1226.5 14.4286
1227.5 30.7143
1228.5 10.5714
1229.5 33.8571
1230.5 40.5714
1231.5 21.4286
1232.5 28.1429
1233.5 21.4286
1234.5 27.4286
1235.5 24
1236.5 -19.8571
1237.5 -3.14286
1238.5 33.7143
1239.5 2.85714
1240.5 45
1241.5 -19.4286
1242.5 26.4286
1243.5 31.5714
1244.5 46.1429
1245.5 20.8571
1246.5 30.4286
1247.5 21.7143
1248.5 12.7143
1249.5 10.7143
1250.5 -3.14286
1251.5 9.85714
1252.5 10.1429
1253.5 -17.1429
1254.5 17
1255.5 40.4286
1256.5 36.8571
1257.5 13.8571
1258.5 3.28571
1259.5 18.1429
1260.5 -33.8571
1261.5 18.5714
1262.5 -16.7143
1263.5 -1.28572
1264.5 9.42857
1265.5 10.5714
1266.5 16.8571
1267.5 15.7143
1268.5 20.2857
1269.5 58.7143
1270.5 12.5714
1271.5 5.42857
1272.5 19
1273.5 11.1429
1274.5 13.4286
1275.5 12.7143
1276.5 19.4286
1277.5 46.2857
1278.5 4
1279.5 55
1280.5 50.7143
1281.5 7.28571
1282.5 38
1283.5 20.5714
1284.5 -20.4286
1285.5 24.1429
1286.5 58
1287.5 36.4286
1288.5 8.71428
1289.5 52
1290.5 9.85714
1291.5 0.285712
1292.5 32.2857
1293.5 45.8571
1294.5 25.4286
1295.5 18.7143
1296.5 15.7143
1297.5 42.7143
1298.5 15.4286
1299.5 -25.8571
1300.5 3.71428
1301.5 28.8571
1302.5 7.57143
1303.5 29.1429
1304.5 45.8571
1305.5 24
1306.5 6.85714
1307.5 46
1308.5 12.8571
1309.5 30
1310.5 49.4286
1311.5 -7.71429
1312.5 -25.5714
1313.5 28
1314.5 34.5714
1315.5 39.5714
1316.5 40.8571
1317.5 -11
1318.5 42.2857
1319.5 11.7143
1320.5 -6.85715
1321.5 23.1429
1322.5 41.1429
1323.5 6.85714
1324.5 19.2857
1325.5 34.8571
1326.5 29
1327.5 10.7143
1328.5 24.8571
1329.5 -15.2857
1330.5 -21.2857
1331.5 15.1429
1332.5 32.1429
1333.5 -12.4286
1334.5 -2.14286
1335.5 21.7143
1336.5 -12.8571
1337.5 28.5714
1338.5 31.1429
1339.5 10.4286
1340.5 8.42857
1341.5 25.2857
1342.5 21.5714
1343.5 -1.85714
1344.5 44
1345.5 55.7143
1346.5 14.7143
1347.5 -2.08616e-06
1348.5 41.4286
1349.5 11
1350.5 38.1429
1351.5 20.4286
1352.5 43
1353.5 7.85714
1354.5 24.5714
1355.5 6.71428
1356.5 27.5714
1357.5 53.7143
1358.5 38.8571
1359.5 5.28571
1360.5 9
1361.5 9.28571
1362.5 48.4286
1363.5 47.2857
1364.5 27.8571
1365.5 -8.14286
1366.5 -2
1367.5 29.4286
1368.5 15.5714
1369.5 18.1429
1370.5 50.4286
1371.5 38.7143
1372.5 63.7143
1373.5 9.71428
1374.5 21.4286
1375.5 80.5714
1376.5 21.4286
1377.5 27.1429
1378.5 31.8571
1379.5 38.2857
1380.5 31.5714
1381.5 16
1382.5 32.4286
1383.5 -15
1384.5 20.7143
1385.5 17.2857
1386.5 23.8571
1387.5 63.5714
1388.5 8.42857
1389.5 41.7143
1390.5 21.2857
1391.5 23.5714
1392.5 63.7143
1393.5 12.8571
1394.5 1.57143
1395.5 27
1396.5 4.28571
1397.5 48.5714
1398.5 44
1399.5 60.4286
1400.5 4
1401.5 -17
1402.5 -11.8571
1403.5 19.1429
1404.5 0.142855
1405.5 20.7143
1406.5 15.7143
1407.5 12.2857
1408.5 24.2857
1409.5 31.5714
1410.5 -13.5714
1411.5 49
1412.5 -12.7143
1413.5 7.28571
1414.5 -7.14286
1415.5 23.8571
1416.5 0.571426
1417.5 33.1429
1418.5 1.57143
1419.5 14.5714
1420.5 56.7143
1421.5 -0.142859
1422.5 52.4286
1423.5 -8.57143
1424.5 0.571427
1425.5 -7.57143
1426.5 65.8571
1427.5 95.4286
1428.5 126
1429.5 101.857
1430.5 64
1431.5 -6
1432.5 4
1433.5 16.2857
1434.5 -7.28572
1435.5 17.8571
1436.5 39.7143
1437.5 21.4286
1438.5 25.8571
1439.5 32.4286
1440.5 -4.14286
1441.5 37.1429
1442.5 66.4286
1443.5 17.7143
1444.5 -8.28572
1445.5 6.71428
1446.5 46.5714
1447.5 23.7143
1448.5 35.7143
1449.5 -51.4286
1450.5 -3.57143
1451.5 11.1429
1452.5 38.5714
1453.5 -7.42857
1454.5 43.1429
1455.5 4.71428
1456.5 -1.14286
1457.5 7.14286
1458.5 -6.71429
1459.5 62.4286
1460.5 51.1429
1461.5 9.28571
1462.5 36.1429
1463.5 -25.1429
1464.5 13.7143
1465.5 28.1429
1466.5 33.2857
1467.5 8.42857
1468.5 3.71428
1469.5 -2
1470.5 19.7143
1471.5 9.28571
1472.5 20.1429
1473.5 6.28571
1474.5 39
1475.5 25.5714
1476.5 25.5714
1477.5 8.28571
1478.5 9.71428
1479.5 21.5714
1480.5 -7.71429
1481.5 24
1482.5 34
1483.5 24.4286
1484.5 2.85714
1485.5 -3.57143
1486.5 13.1429
1487.5 -0.714288
1488.5 13
1489.5 9.42857
1490.5 83.5714
1491.5 56
1492.5 45.7143
1493.5 32.4286
1494.5 25.4286
1495.5 29.2857
1496.5 13.2857
1497.5 47.1429
1498.5 181.143
1499.5 49.2857
1500.5 49.1428
1501.5 31.8571
1502.5 37.7143
1503.5 19.5714
1504.5 63.1429
1505.5 3.28571
1506.5 48.8571
1507.5 50.4286
1508.5 -21.1429
1509.5 64.8571
1510.5 11.7143
1511.5 22.1429
1512.5 33.2857
1513.5 8.57143
1514.5 40
1515.5 32.5714
1516.5 -8.42857
1517.5 26.5714
1518.5 3.14286
1519.5 -11
1520.5 38.1429
1521.5 -43.8571
1522.5 16.8571
1523.5 0.285712
1524.5 31.1429
1525.5 12.7143
1526.5 15.4286
1527.5 36.8571
1528.5 9.71428
1529.5 18.7143
1530.5 11
1531.5 49
1532.5 24.7143
1533.5 -3.28572
1534.5 39.8571
1535.5 36
1536.5 28.2857
1537.5 12.4286
1538.5 -26.5714
1539.5 15.8571
1540.5 25.4286
1541.5 26
1542.5 1.14285
1543.5 21.8571
1544.5 40
1545.5 -5.14286
1546.5 50.2857
1547.5 24.4286
1548.5 20.2857
1549.5 20.4286
1550.5 20.4286
1551.5 0.285713
1552.5 9
1553.5 27.2857
1554.5 24.2857
1555.5 25.7143
1556.5 -7.71429
1557.5 -31.5714
1558.5 -5.85714
1559.5 51.7143
1560.5 41.2857
1561.5 1.71428
1562.5 -27.2857
1563.5 -2.85714
1564.5 -4.71429
1565.5 4.28571
1566.5 16.7143
1567.5 28.1429
1568.5 9.85714
1569.5 -1.72853e-06
1570.5 41.2857
1571.5 42.7143
1572.5 24.4286
1573.5 49.5714
1574.5 23.8571
1575.5 -8.14286
1576.5 31.5714
1577.5 61.8571
1578.5 19.5714
1579.5 51.4286
1580.5 31.8571
1581.5 18.7143
1582.5 27.2857
1583.5 9.28571
1584.5 2.57143
1585.5 33.7143
1586.5 25.8571
1587.5 42.8571
1588.5 14.1429
1589.5 56.8571
1590.5 33.5714
1591.5 19
1592.5 0.999998
1593.5 23.5714
1594.5 12
1595.5 18.8571
1596.5 8.57143
1597.5 49.2857
1598.5 67.1429
1599.5 59.4286
1600.5 59.1429
1601.5 79.7143
1602.5 70.1429
1603.5 1.14286
1604.5 27.7143
1605.5 9
1606.5 63
1607.5 14.8571
1608.5 13.8571
1609.5 61.8571
1610.5 6.42857
1611.5 32.5714
1612.5 5.71428
1613.5 -2.57143
1614.5 4.57143
1615.5 56.2857
1616.5 45.4286
1617.5 9.14286
1618.5 16.1429
1619.5 4.57143
1620.5 8.42857
1621.5 46.2857
1622.5 -16
1623.5 21.2857
1624.5 45
1625.5 20
1626.5 16.4286
1627.5 26
1628.5 59.7143
1629.5 43.8571
1630.5 52.5714
1631.5 25.2857
1632.5 40.8571
1633.5 44.7143
1634.5 58.2857
1635.5 45.4286
1636.5 26.4286
1637.5 7.42857
1638.5 58.1429
1639.5 38
1640.5 12.1429
1641.5 43
1642.5 25
1643.5 29.7143
1644.5 20.7143
1645.5 20.4286
1646.5 45.5714
1647.5 18
1648.5 -7.14286
1649.5 25.2857
1650.5 24.1429
1651.5 31.8571
1652.5 13
1653.5 36.5714
1654.5 2.42857
1655.5 -1.14286
1656.5 8.14286
1657.5 18.5714
1658.5 -13.1429
1659.5 5.85714
1660.5 8.57143
1661.5 3.85714
1662.5 42
1663.5 25.1429
1664.5 3.28571
1665.5 5.42857
1666.5 52.5714
1667.5 31.5714
1668.5 26.1429
1669.5 -7
1670.5 7
1671.5 19.7143
1672.5 3.28571
1673.5 4.57143
1674.5 44.4286
1675.5 35
1676.5 0.857141
1677.5 1.85714
1678.5 12.7143
1679.5 60.8571
1680.5 25.4286
1681.5 16.2857
1682.5 -3
1683.5 24.8571
1684.5 -8
1685.5 -6
1686.5 -9.57143
1687.5 25.4286
1688.5 33.4286
1689.5 15
1690.5 39.8571
1691.5 30.7143
1692.5 13.7143
1693.5 2.14286
1694.5 16.4286
1695.5 27.8571
1696.5 29.1429
1697.5 0.571427
1698.5 -4.85714
1699.5 17.1429
1700.5 23
1701.5 19.2857
1702.5 56.5714
1703.5 44.8571
1704.5 12.2857
1705.5 9.71428
1706.5 -6.28572
1707.5 11.4286
1708.5 33
1709.5 22.5714
1710.5 38.4286
1711.5 -0.428573
1712.5 -26.1429
1713.5 12.4286
1714.5 38.4286
1715.5 43
1716.5 13.1429
1717.5 6.85714
1718.5 6.14285
1719.5 39
1720.5 8.85714
1721.5 -7.42857
1722.5 20.5714
1723.5 -14.2857
1724.5 -20.1429
1725.5 11.1429
1726.5 -12.2857
1727.5 -43.4286
1728.5 -14.7143
1729.5 -24.4286
1730.5 35.8571
1731.5 -14
1732.5 27.5714
1733.5 -7.71429
1734.5 31.5714
1735.5 9.71428
1736.5 -19.4286
1737.5 9.28571
1738.5 27.1429
1739.5 16
1740.5 24
1741.5 40.5714
1742.5 26.7143
1743.5 25.8571
1744.5 -1.71429
1745.5 27.7143
1746.5 71.2857
1747.5 20.4286
1748.5 -9.28572
1749.5 -19.8571
1750.5 13.1429
1751.5 29.1429
1752.5 32.5714
1753.5 -7.57143
1754.5 20.2857
1755.5 6.85714
1756.5 9.14286
1757.5 50.1429
1758.5 14.8571
1759.5 21.5714
1760.5 -6
1761.5 48.4286
1762.5 10.8571
1763.5 43.8571
1764.5 29.5714
1765.5 -11
1766.5 9.57143
1767.5 3.57143
1768.5 34.5714
1769.5 22.5714
1770.5 6.71428
1771.5 -7.57143
1772.5 17.7143
1773.5 -5
1774.5 43.8571
1775.5 14.4286
1776.5 -1.28572
1777.5 17.4286
1778.5 45.1429
1779.5 -10.7143
1780.5 14.8571
1781.5 33.4286
1782.5 26.5714
1783.5 12.5714
1784.5 2.14286
1785.5 71.8571
1786.5 35.8571
1787.5 28.1429
1788.5 26.8571
1789.5 12.4286
1790.5 -8.14286
1791.5 26.5714
1792.5 4
1793.5 24
1794.5 34.8571
1795.5 11.1429
1796.5 8.85714
1797.5 14.8571
1798.5 -16.4286
1799.5 18.2857
1800.5 30.5714
1801.5 22.4286
1802.5 26.1429
1803.5 17.7143
1804.5 34.2857
1805.5 28.5714
1806.5 27.7143
1807.5 26.7143
1808.5 -18.5714
1809.5 23.4286
1810.5 43.2857
1811.5 18.1429
1812.5 5.71428
1813.5 21.5714
1814.5 23.8571
1815.5 3.71428
1816.5 14.8571
1817.5 9.14286
1818.5 9.57143
1819.5 20.2857
1820.5 -13.5714
1821.5 19.8571
1822.5 35
1823.5 9.57143
1824.5 11.1429
1825.5 20.1429
1826.5 41.8571
1827.5 50.8571
1828.5 17.4286
1829.5 50.5714
1830.5 -18
1831.5 31.4286
1832.5 -13.5714
1833.5 6.28571
1834.5 2.57143
1835.5 27.7143
1836.5 26.8571
1837.5 3.57143
1838.5 10.5714
1839.5 1.14286
1840.5 60.4286
1841.5 38
1842.5 14.4286
1843.5 35.4286
1844.5 -9.42857
1845.5 16.7143
1846.5 39.8571
1847.5 30.8571
1848.5 27
1849.5 -1.57143
1850.5 33
1851.5 20.4286
1852.5 39.7143
1853.5 48.1429
1854.5 30.1429
1855.5 24.2857
1856.5 13.4286
1857.5 45
1858.5 -2.71429
1859.5 18.5714
1860.5 43.8571
1861.5 16.7143
1862.5 -2.14286
1863.5 27
1864.5 17.2857
1865.5 43.7143
1866.5 24.5714
1867.5 2.42857
1868.5 16.7143
1869.5 31.8571
1870.5 30.2857
1871.5 32.4286
1872.5 -1.85715
1873.5 -39.5714
1874.5 9.14286
1875.5 -9.28572
1876.5 10.8571
1877.5 34
1878.5 6.42857
1879.5 27.1429
1880.5 14.7143
1881.5 7.42857
1882.5 50.2857
1883.5 51.7143
1884.5 88.2857
1885.5 196
1886.5 391.571
1887.5 482.286
1888.5 200
1889.5 45.7143
1890.5 45.2857
1891.5 27.2857
1892.5 -1.42857
1893.5 17.1429
1894.5 40.2857
1895.5 24.4286
1896.5 6.71428
1897.5 -15
1898.5 30.7143
1899.5 -8.85714
1900.5 37.2857
1901.5 -3.71429
1902.5 13
1903.5 28.2857
1904.5 16.8571
1905.5 64.2857
1906.5 13.4286
1907.5 20.4286
1908.5 19.7143
1909.5 13.1429
1910.5 19.7143
1911.5 3.42857
1912.5 30.8571
1913.5 18.8571
1914.5 6
1915.5 10.7143
1916.5 -6.28572
1917.5 8.71428
1918.5 -3
1919.5 5.57143
1920.5 10.7143
1921.5 54.7143
1922.5 -14.7143
1923.5 26.7143
1924.5 0.142856
1925.5 -13.8571
1926.5 29.7143
1927.5 21.7143
1928.5 24.7143
1929.5 33.5714
1930.5 36.5714
1931.5 31.1429
1932.5 31.1429
1933.5 -2.14286
1934.5 16
1935.5 22.4286
1936.5 34.1429
1937.5 51.4286
1938.5 32.8571
1939.5 9.57143
1940.5 -12.1429
1941.5 20.2857
1942.5 -18.8571
1943.5 -12.4286
1944.5 18.1429
1945.5 -1.14286
1946.5 0.857141
1947.5 32.8571
1948.5 16.8571
1949.5 32.4286
1950.5 52.7143
1951.5 22
1952.5 24
1953.5 23.8571
1954.5 25.1429
1955.5 -14.1429
1956.5 -1.85714
1957.5 44.7143
1958.5 48.7143
1959.5 47.2857
1960.5 34.7143
1961.5 9.42857
1962.5 7.85714
1963.5 28
1964.5 10.4286
1965.5 48.7143
1966.5 -15.8571
1967.5 24.4286
1968.5 19.2857
1969.5 18
1970.5 29.5714
1971.5 0.714284
1972.5 -4.85714
1973.5 -21.5714
1974.5 17.7143
1975.5 13
1976.5 14
1977.5 -25.8571
1978.5 -5.57143
1979.5 36.2857
1980.5 -24.7143
1981.5 28.8571
1982.5 18.4286
1983.5 12.7143
1984.5 5.28571
1985.5 36.8571
1986.5 20
1987.5 44.1429
1988.5 20.8571
1989.5 33
1990.5 38.5714
1991.5 13.8571
1992.5 9.14286
1993.5 13.7143
1994.5 32
1995.5 37.5714
1996.5 9.28571
1997.5 -11
1998.5 32.5714
1999.5 11.2857
2000.5 22.8571
2001.5 24.1429
2002.5 22
2003.5 13.4286
2004.5 41.7143
2005.5 -4.14286
2006.5 28.7143
2007.5 14.4286
2008.5 18.4286
2009.5 -8.28572
2010.5 38.2857
2011.5 -10.1429
2012.5 -7.42857
2013.5 23.4286
2014.5 -1.57143
2015.5 27.2857
2016.5 23.1429
2017.5 31.4286
2018.5 45
2019.5 20.8571
2020.5 50.4286
2021.5 31.7143
2022.5 7.85714
2023.5 39
2024.5 15.2857
2025.5 24.2857
2026.5 -1.57143
2027.5 -3.85714
2028.5 1.85714
2029.5 4.71428
2030.5 13
2031.5 -1.28572
2032.5 11
2033.5 33.8571
2034.5 19.4286
2035.5 37
2036.5 26.4286
2037.5 20.1429
2038.5 -4.71429
2039.5 16.1429
2040.5 13.4286
2041.5 18.2857
2042.5 2.71428
2043.5 12.1429
2044.5 40
2045.5 22.1429
2046.5 -1.71429
2047.5 23.5714
2048.5 -10.2857
2049.5 6.85714
2050.5 3.14286
2051.5 32.5714
2052.5 20.4286
2053.5 9.85714
2054.5 35.1429
2055.5 24.2857
2056.5 0.285713
2057.5 40.2857
2058.5 22.1429
2059.5 30.5714
2060.5 -12.2857
2061.5 4.28571
2062.5 12.5714
2063.5 -3.57143
2064.5 14
2065.5 20.4286
2066.5 13
2067.5 9.14286
2068.5 -12.5714
2069.5 23
2070.5 21.4286
2071.5 -1.43051e-06
2072.5 -8.14286
2073.5 24.4286
2074.5 10.2857
2075.5 7.85714
2076.5 7.28571
2077.5 -17.1429
2078.5 33.7143
2079.5 -1.57143
2080.5 16.2857
2081.5 23
2082.5 27.8571
2083.5 -7.14286
2084.5 11.4286
2085.5 16.7143
2086.5 -14
2087.5 24
2088.5 16.4286
2089.5 -4.85715
2090.5 -9
2091.5 14.8571
2092.5 -12
2093.5 19.4286
2094.5 10.8571
2095.5 12.8571
2096.5 6.57143
2097.5 21.4286
2098.5 4
2099.5 11.5714
2100.5 12.7143
2101.5 17.8571
2102.5 6.71428
2103.5 55.2857
2104.5 -14.8571
2105.5 4.28571
2106.5 18.1429
2107.5 42.8571
2108.5 32.8571
2109.5 11.2857
2110.5 -1.85714
2111.5 25.8571
2112.5 25.1429
2113.5 12.5714
2114.5 50.1429
2115.5 11.1429
2116.5 19.2857
2117.5 3.28571
2118.5 15.1429
2119.5 -30.7143
2120.5 38.5714
2121.5 30.4286
2122.5 -22.4286
2123.5 4.85714
2124.5 -9.71429
2125.5 36
2126.5 22
2127.5 15.4286
2128.5 13.2857
2129.5 15.8571
2130.5 28.5714
2131.5 25.4286
2132.5 18.7143
2133.5 41.2857
2134.5 18.1429
2135.5 0.999999
2136.5 0.42857
2137.5 11.1429
2138.5 24.4286
2139.5 23.1429
2140.5 17.2857
2141.5 -48.7143
2142.5 17.4286
2143.5 27.2857
2144.5 31.1429
2145.5 41.2857
2146.5 12.8571
2147.5 52.1429
2148.5 67.4286
2149.5 99.1428
2150.5 117.571
2151.5 91.1428
2152.5 -7
2153.5 41.2857
2154.5 41.7143
2155.5 45.2857
2156.5 -7.57143
2157.5 25.8571
2158.5 27.8571
2159.5 11.1429
2160.5 26.7143
2161.5 18.5714
2162.5 1.71428
2163.5 19.5714
2164.5 26.4286
2165.5 27.2857
2166.5 -0.428573
2167.5 34.7143
2168.5 -4.14286
2169.5 -5.57143
2170.5 29.2857
2171.5 21
2172.5 10.2857
2173.5 -23.1429
2174.5 12.5714
2175.5 -13.1429
2176.5 12.1429
2177.5 35.8571
2178.5 2.85714
2179.5 8.85714
2180.5 2.28571
2181.5 26.8571
2182.5 16.4286
2183.5 18.8571
2184.5 21.1429
2185.5 19.7143
2186.5 19.1429
2187.5 15.8571
2188.5 18.7143
2189.5 9.85714
2190.5 -13.5714
2191.5 20.4286
2192.5 46.5714
2193.5 59.8571
2194.5 37.8571
2195.5 26.7143
2196.5 9.42857
2197.5 20.8571
2198.5 25.1429
2199.5 -23.5714
2200.5 -2.71429
2201.5 28.7143
2202.5 29.5714
2203.5 -11.1429
2204.5 14.2857
2205.5 22
2206.5 -12.2857
2207.5 5.14286
2208.5 -3.85714
2209.5 40.2857
2210.5 4.71428
2211.5 0.571427
2212.5 -7
2213.5 0.571427
2214.5 6.85714
2215.5 19.1429
2216.5 6.14286
2217.5 -8.71429
2218.5 2.14286
2219.5 -26.1429
2220.5 11.7143
2221.5 5.14286
2222.5 24
2223.5 76.2857
2224.5 34.4286
2225.5 -7.42857
2226.5 23.1429
2227.5 11.8571
2228.5 3.71428
2229.5 -3.85714
2230.5 -3
2231.5 35.4286
2232.5 9
2233.5 4
2234.5 45.4286
2235.5 51.7143
2236.5 0.857142
2237.5 16.1429
2238.5 14.7143
2239.5 12.1429
2240.5 15.4286
2241.5 9.28571
2242.5 -10.1429
2243.5 15.7143
2244.5 60.1429
2245.5 37.7143
2246.5 23.2857
2247.5 49.5714
2248.5 -12.5714
2249.5 13.2857
2250.5 27.4286
2251.5 7
2252.5 19
2253.5 11.2857
2254.5 12.4286
2255.5 15.1429
2256.5 11.7143
2257.5 18.2857
2258.5 -1.3113e-06
2259.5 4.42857
2260.5 9.57143
2261.5 6.71428
2262.5 -4.14286
2263.5 17.5714
2264.5 26.5714
2265.5 9
2266.5 -1.57143
2267.5 15
2268.5 5.42857
2269.5 20.8571
2270.5 9.14286
2271.5 -5.14286
2272.5 16.2857
2273.5 9.57143
2274.5 -14.5714
2275.5 28.7143
2276.5 13
2277.5 2.71428
2278.5 5
2279.5 22.8571
2280.5 -10.8571
2281.5 26.4286
2282.5 8.71428
2283.5 11.7143
2284.5 28
2285.5 14.2857
2286.5 25.8571
2287.5 1.57143
2288.5 -6.85714
2289.5 22.2857
2290.5 18
2291.5 4.57143
2292.5 2.28571
2293.5 27.5714
2294.5 -2.28572
2295.5 18.2857
2296.5 31.5714
2297.5 42.1429
2298.5 -4.28572
2299.5 23.5714
2300.5 9.85714
2301.5 34.8571
2302.5 -4.14286
2303.5 -8.71429
2304.5 22.5714
2305.5 4.14286
2306.5 -3.28572
2307.5 26.1429
2308.5 24.8571
2309.5 20.8571
2310.5 -6.14286
2311.5 15.7143
2312.5 45.5714
2313.5 19.7143
2314.5 42.5714
2315.5 -17.1429
2316.5 13
2317.5 12.8571
2318.5 19.5714
2319.5 5.71428
2320.5 4.42857
2321.5 13.5714
2322.5 18.5714
2323.5 16.5714
2324.5 -5.85714
2325.5 -0.714287
2326.5 13.4286
2327.5 20.1429
2328.5 21.1429
2329.5 -10.8571
2330.5 -9.28572
2331.5 8
2332.5 18.7143
2333.5 -10.8571
2334.5 8.42857
2335.5 -11.2857
2336.5 18.2857
2337.5 4.42857
2338.5 1.85714
2339.5 27.7143
2340.5 22.4286
2341.5 29.8571
2342.5 35.4286
2343.5 -5.14286
2344.5 16.7143
2345.5 57.4286
2346.5 -0.857144
2347.5 1.57143
2348.5 -13.7143
2349.5 13.7143
2350.5 10.8571
2351.5 21.7143
2352.5 32.5714
2353.5 17.7143
2354.5 7.14286
2355.5 24
2356.5 8.14286
2357.5 15.1429
2358.5 4.71428
2359.5 59.5714
2360.5 21.4286
2361.5 -9.57143
2362.5 -34.7143
2363.5 26.4286
2364.5 -1.14286
2365.5 32.4286
2366.5 19.2857
2367.5 18.5714
2368.5 4.57143
2369.5 26
2370.5 26.4286
2371.5 -15.7143
2372.5 18.4286
2373.5 -29
2374.5 -4.57143
2375.5 1.85714
2376.5 8.71428
2377.5 -1.85714
2378.5 -11.1429
2379.5 -8.71429
2380.5 50
2381.5 57.8571
2382.5 75.2857
2383.5 43.4286
2384.5 39.7143
2385.5 33.2857
2386.5 44
2387.5 24.1429
2388.5 8.71428
2389.5 2.14286
2390.5 20
2391.5 8.85714
2392.5 16
2393.5 -5.14286
2394.5 12.4286
2395.5 29.5714
2396.5 6.57143
2397.5 31.7143
2398.5 11.4286
2399.5 -9.53674e-07
2400.5 6.85714
2401.5 10.2857
2402.5 38.1429
2403.5 2.85714
2404.5 5.14286
2405.5 24.7143
2406.5 -23.5714
2407.5 -4.71429
2408.5 7.42857
2409.5 -3.42857
2410.5 14.1429
2411.5 32.4286
2412.5 16.8571
2413.5 32
2414.5 17.2857
2415.5 24
2416.5 9.71428
2417.5 8.85714
2418.5 -1.42857
2419.5 30.4286
2420.5 24
2421.5 0.285713
2422.5 6.85714
2423.5 -19.7143
2424.5 18.4286
2425.5 16.1429
2426.5 34
2427.5 42.5714
2428.5 -0.142859
2429.5 9.28571
2430.5 -9.57143
2431.5 19.7143
2432.5 44.4286
2433.5 2.14286
2434.5 6
2435.5 8.85714
2436.5 35.2857
2437.5 18.5714
2438.5 13.2857
2439.5 30.5714
2440.5 25.4286
2441.5 32.4286
2442.5 9.14286
2443.5 0.857142
2444.5 28.2857
2445.5 35.7143
2446.5 19.8571
2447.5 6.28571
2448.5 4.71428
2449.5 -7.42857
2450.5 11.7143
2451.5 11.1429
2452.5 14.7143
2453.5 5.42857
2454.5 14.7143
2455.5 19.2857
2456.5 26
2457.5 13.2857
2458.5 9.71428
2459.5 20.7143
2460.5 -1
2461.5 52.1429
2462.5 11.4286
2463.5 17.7143
2464.5 4.85714
2465.5 27.7143
2466.5 25.8571
2467.5 26.2857
2468.5 13.1429
2469.5 -30.4286
2470.5 26.5714
2471.5 1.14286
2472.5 8.14286
2473.5 16.7143
2474.5 9.71428
2475.5 1.85714
2476.5 17
2477.5 3
2478.5 10.8571
2479.5 2.42857
2480.5 -6.85714
2481.5 38.8571
2482.5 40.2857
2483.5 2.28571
2484.5 -6.71429
2485.5 3.57143
2486.5 2.71428
2487.5 11.5714
2488.5 18
2489.5 3.71428
2490.5 19.8571
2491.5 16.8571
2492.5 5.85714
2493.5 25.4286
2494.5 14.8571
2495.5 15.7143
2496.5 34
2497.5 11.5714
2498.5 44
2499.5 9.85714
2500.5 17.5714
2501.5 6.85714
2502.5 -4.71429
2503.5 9.57143
2504.5 9
2505.5 -0.142858
2506.5 -2
2507.5 37.8571
2508.5 -33
2509.5 1.14286
2510.5 2.71428
2511.5 11
2512.5 22.5714
2513.5 9.85714
2514.5 11.4286
2515.5 13.7143
2516.5 20.1429
2517.5 30.7143
2518.5 50.2857
2519.5 -13.1429
2520.5 45.8571
2521.5 21
2522.5 21.8571
2523.5 28.4286
2524.5 36.7143
2525.5 -1.71429
2526.5 20.2857
2527.5 17.1429
2528.5 13
2529.5 9.28571
2530.5 40.2857
2531.5 25
2532.5 1.57143
2533.5 8
2534.5 6
2535.5 33.1429
2536.5 19.1429
2537.5 13.7143
2538.5 -3.14286
2539.5 7.42857
2540.5 12.8571
2541.5 1.28571
2542.5 26.7143
2543.5 24.7143
2544.5 25.5714
2545.5 4.14286
2546.5 -1.85714
2547.5 18.8571
2548.5 5.71428
2549.5 1.57143
2550.5 40.2857
2551.5 33.2857
2552.5 55
2553.5 43.8571
2554.5 18.1429
2555.5 2.71428
2556.5 -2.28572
2557.5 15.4286
2558.5 -2.85714
2559.5 16.2857
2560.5 17.7143
2561.5 -4.42857
2562.5 -15.5714
2563.5 -9.57143
2564.5 4.57143
2565.5 4
2566.5 13.8571
2567.5 16.2857
2568.5 -4.42857
2569.5 10
2570.5 11.2857
2571.5 15.1429
2572.5 32
2573.5 21.5714
2574.5 31.7143
2575.5 5.85714
2576.5 1.42857
2577.5 13.5714
2578.5 -12.1429
2579.5 -1.85714
2580.5 6.14286
2581.5 5
2582.5 5.57143
2583.5 -16.4286
2584.5 -1.85714
2585.5 23.4286
2586.5 10.2857
2587.5 -6.71429
2588.5 5.28571
2589.5 22
2590.5 46.4286
2591.5 7.14286
2592.5 16.5714
2593.5 21.4286
2594.5 -7
2595.5 8.85714
2596.5 4.28571
2597.5 19.4286
2598.5 25.5714
2599.5 -14.8571
2600.5 5.28571
2601.5 56
2602.5 21
2603.5 14.1429
2604.5 17.4286
2605.5 24.4286
2606.5 -10.5714
2607.5 6.14286
2608.5 5
2609.5 29.8571
2610.5 19.4286
2611.5 40.1429
2612.5 54
2613.5 31
2614.5 7.28571
2615.5 11.4286
2616.5 -3.42857
2617.5 9.71428
2618.5 20.5714
2619.5 74.5714
2620.5 30.8571
2621.5 -4
2622.5 -7.71429
2623.5 18.2857
2624.5 31.4286
2625.5 0.714285
2626.5 16.4286
2627.5 8.28571
2628.5 24
2629.5 11.1429
2630.5 18.5714
2631.5 -17.5714
2632.5 -5.42857
2633.5 25.1429
2634.5 5.85714
2635.5 -3.14286
2636.5 9.71428
2637.5 -2.14286
2638.5 -15.4286
2639.5 21.5714
2640.5 14.7143
2641.5 34.7143
2642.5 6
2643.5 33.7143
2644.5 12
2645.5 14.8571
2646.5 29
2647.5 29.1429
2648.5 3.85714
2649.5 -2.85714
2650.5 18.5714
2651.5 24.4286
2652.5 3.42857
2653.5 52.8571
2654.5 48.1429
2655.5 21.1429
2656.5 24.8571
2657.5 20.2857
2658.5 14.1429
2659.5 6.57143
2660.5 0.857142
2661.5 25.4286
2662.5 7
2663.5 -17.2857
2664.5 44.1429
2665.5 29.1429
2666.5 9.57143
2667.5 -4.85714
2668.5 0.142856
2669.5 24.8571
2670.5 44.8571
2671.5 27.2857
2672.5 8.42857
2673.5 33.2857
2674.5 28.5714
2675.5 28.1429
2676.5 11.2857
2677.5 17
2678.5 26.5714
2679.5 6.42857
2680.5 20.5714
2681.5 8.85714
2682.5 23.5714
2683.5 5.28571
2684.5 7.14286
2685.5 -4.71429
2686.5 3.57143
2687.5 5.57143
2688.5 34.2857
2689.5 59.2857
2690.5 40.8571
2691.5 20.8571
2692.5 20
2693.5 10.1429
2694.5 4.14286
2695.5 15.4286
2696.5 4.57143
2697.5 6
2698.5 16
2699.5 8.85714
2700.5 -8
2701.5 21.7143
2702.5 5.85714
2703.5 3.28571
2704.5 0.285713
2705.5 -1.42857
2706.5 12.2857
2707.5 -2.14286
2708.5 3.57143
2709.5 4
2710.5 2.28571
2711.5 16.7143
2712.5 30.2857
2713.5 22.2857
2714.5 24.1429
2715.5 1.57143
2716.5 -6.57143
2717.5 8.85714
2718.5 29.4286
2719.5 5.28571
2720.5 -6.71429
2721.5 24.8571
2722.5 1.71428
2723.5 10.4286
2724.5 -5.85714
2725.5 31.8571
2726.5 22.7143
2727.5 3.42857
2728.5 6.42857
2729.5 8.71428
2730.5 13
2731.5 25.7143
2732.5 25.4286
2733.5 -3.14286
2734.5 32.2857
2735.5 15.4286
2736.5 12.4286
2737.5 30
2738.5 29
2739.5 -0.428572
2740.5 46.2857
2741.5 38.5714
2742.5 45.4286
2743.5 9.57143
2744.5 26.2857
2745.5 8.14286
2746.5 -10
2747.5 6.28571
2748.5 17.5714
2749.5 5.28571
2750.5 6.71428
2751.5 4.28571
2752.5 13.2857
2753.5 28.1429
2754.5 11.1429
2755.5 8.57143
2756.5 25
2757.5 3.14286
2758.5 -14.2857
2759.5 -7.42857
2760.5 2.14286
2761.5 -0.285715
2762.5 11.2857
2763.5 20.4286
2764.5 27.5714
2765.5 70.5714
2766.5 19.8571
2767.5 27
2768.5 8.85714
2769.5 7.28571
2770.5 20.1429
2771.5 3.85714
2772.5 -12.5714
2773.5 -10.4286
2774.5 6.85714
2775.5 7.42857
2776.5 15.7143
2777.5 -11.2857
2778.5 -1.71429
2779.5 10.1429
2780.5 -7.57143
2781.5 -24.1429
2782.5 9.71428
2783.5 -10.1429
2784.5 8.28571
2785.5 -11.5714
2786.5 10.2857
2787.5 12.7143
2788.5 -1.85714
2789.5 11.5714
2790.5 23.2857
2791.5 9
2792.5 18.5714
2793.5 0.142856
2794.5 -4.85714
2795.5 -2.42857
2796.5 0.285713
2797.5 -8.14286
2798.5 17.4286
2799.5 16.7143
2800.5 1.71428
2801.5 6.28571
2802.5 17.4286
2803.5 6.57143
2804.5 17.2857
2805.5 -18.2857
2806.5 18.4286
2807.5 9.71428
2808.5 24.2857
2809.5 -5.42857
2810.5 7.85714
2811.5 2.28571
2812.5 55.8571
2813.5 4.42857
2814.5 7.85714
2815.5 20
2816.5 6
2817.5 -7.42857
2818.5 2.57143
2819.5 -15.1429
2820.5 -8.71429
2821.5 43.1429
2822.5 3.57143
2823.5 26.2857
2824.5 30
2825.5 27.2857
2826.5 -19.7143
2827.5 -11.8571
2828.5 -4.28572
2829.5 4.57143
2830.5 30.1429
2831.5 30.7143
2832.5 28.8571
2833.5 14.7143
2834.5 -7
2835.5 6.42857
2836.5 23
2837.5 16.5714
2838.5 24.2857
2839.5 1.57143
2840.5 38.5714
2841.5 -2.85714
2842.5 32.4286
2843.5 26.5714
2844.5 26.2857
2845.5 17.1429
2846.5 16
2847.5 20.7143
2848.5 9.85714
2849.5 14
2850.5 8.85714
2851.5 16.1429
2852.5 2.14286
2853.5 5.57143
2854.5 34
2855.5 4.57143
2856.5 0.142856
2857.5 21.2857
2858.5 8.42857
2859.5 -7.14286
2860.5 22.5714
2861.5 35.1429
2862.5 34.5714
2863.5 10.1429
2864.5 47
2865.5 15.5714
2866.5 35.8571
2867.5 -7.14286
2868.5 36
2869.5 31.8571
2870.5 21.7143
2871.5 9
2872.5 9.71428
2873.5 32.8571
2874.5 29.4286
2875.5 13.2857
2876.5 21.8571
2877.5 -18.2857
2878.5 -9.28572
2879.5 3.28571
2880.5 23
2881.5 21.5714
2882.5 23.7143
2883.5 18.1429
2884.5 11.5714
2885.5 17.8571
2886.5 0.285713
2887.5 -10.2857
2888.5 -13.2857
2889.5 -11.7143
2890.5 -29.4286
2891.5 -5.42857
2892.5 -20.7143
2893.5 23.2857
2894.5 19.4286
2895.5 11
2896.5 17.5714
2897.5 7.28571
2898.5 20.4286
2899.5 10.8571
2900.5 16.4286
2901.5 3.85714
2902.5 1.85714
2903.5 16.8571
2904.5 25.7143
2905.5 20.2857
2906.5 4.71429
2907.5 -8.57143
2908.5 -4.71429
2909.5 18
2910.5 -16.4286
2911.5 -0.142858
2912.5 0.857142
2913.5 33.4286
2914.5 7.14286
2915.5 9.42857
2916.5 12.5714
2917.5 -5.57143
2918.5 28.2857
2919.5 24.8571
2920.5 -1.42857
2921.5 2.28571
2922.5 27.4286
2923.5 26.2857
2924.5 21
2925.5 8.71428
2926.5 16.7143
2927.5 19.7143
2928.5 -11.5714
2929.5 1.42857
2930.5 -2
2931.5 -4.42857
2932.5 -0.285715
2933.5 -5.57143
2934.5 -0.142858
2935.5 -4.71429
2936.5 -22
2937.5 11.8571
2938.5 -4.85714
2939.5 15.4286
2940.5 -5.28572
2941.5 16.5714
2942.5 14.4286
2943.5 7.71428
2944.5 36.5714
2945.5 24.4286
2946.5 1.14285
2947.5 17.5714
2948.5 18.8571
2949.5 20
2950.5 35.1429
2951.5 20
2952.5 -1.57143
2953.5 -3.57143
2954.5 -5.14286
2955.5 -6.42857
2956.5 -5.57143
2957.5 4.85714
2958.5 -11.7143
2959.5 8.28571
2960.5 29
2961.5 -0.714286
2962.5 1.28571
2963.5 21
2964.5 0.857142
2965.5 4.71428
2966.5 24.1429
2967.5 18.2857
2968.5 23.2857
2969.5 35.4286
2970.5 -5
2971.5 2.42857
2972.5 14.8571
2973.5 29.4286
2974.5 62.2857
2975.5 35
2976.5 29.7143
2977.5 17.2857
2978.5 15.2857
2979.5 11
2980.5 16.4286
2981.5 22.1429
2982.5 30
2983.5 -1.42857
2984.5 9.42857
2985.5 -4.14286
2986.5 12.8571
2987.5 6.85714
2988.5 -7
2989.5 18.5714
2990.5 -12.8571
2991.5 3.14286
2992.5 5
2993.5 9.85714
2994.5 -14.5714
2995.5 -6.42857
2996.5 2.71428
2997.5 14.7143
2998.5 8
2999.5 8.14286
3000.5 25.2857
3001.5 24
3002.5 1.14286
3003.5 -6.71429
3004.5 36.7143
3005.5 8.85714
3006.5 -2.71429
3007.5 13.5714
3008.5 26.4286
3009.5 2.14286
3010.5 -8.14286
3011.5 10.7143
3012.5 3.71428
3013.5 12.8571
3014.5 25.2857
3015.5 5.57143
3016.5 17.8571
3017.5 25.7143
3018.5 -7.14286
3019.5 16
3020.5 27.2857
3021.5 23.8571
3022.5 -2.85714
3023.5 18.8571
3024.5 22.4286
3025.5 13.4286
3026.5 7.71429
3027.5 6.42857
3028.5 18.4286
3029.5 -8.9407e-07
3030.5 4.71428
3031.5 23.7143
3032.5 21.5714
3033.5 24
3034.5 3
3035.5 -3.14286
3036.5 20.2857
3037.5 29
3038.5 -5.57143
3039.5 10.5714
3040.5 0.714284
3041.5 14
3042.5 -5.85714
3043.5 2.42857
3044.5 -15.1429
3045.5 11.2857
3046.5 12.1429
3047.5 17.8571
3048.5 6.85714
3049.5 -2.85714
3050.5 11.4286
3051.5 40.4286
3052.5 13.7143
3053.5 5.28571
3054.5 22.2857
3055.5 -15.5714
3056.5 3.14286
3057.5 11.7143
3058.5 8.42857
3059.5 -6.14286
3060.5 36
3061.5 17.2857
3062.5 28.4286
3063.5 21.7143
3064.5 -9.57143
3065.5 13.2857
3066.5 16.8571
3067.5 25.7143
3068.5 27.8571
3069.5 70.8571
3070.5 65.4286
3071.5 107.143
3072.5 73.1429
3073.5 8.57143
3074.5 13.4286
3075.5 12.2857
3076.5 -1.85714
3077.5 -8.85714
3078.5 14.4286
3079.5 17.2857
3080.5 -17.5714
3081.5 4.85714
3082.5 -4.85714
3083.5 6.28571
3084.5 0.142856
3085.5 -6.71429
3086.5 0.142856
3087.5 15.1429
3088.5 -0.714287
3089.5 25.7143
3090.5 5.85714
3091.5 2.14286
3092.5 8.42857
3093.5 -1.14286
3094.5 30.1429
3095.5 6.71428
3096.5 35.8571
3097.5 -0.285715
3098.5 8.71429
3099.5 7
3100.5 14.8571
3101.5 2.14286
3102.5 14.4286
3103.5 0.857142
3104.5 23.2857
3105.5 12.8571
3106.5 29.5714
3107.5 9.28571
3108.5 5.14286
3109.5 30.2857
3110.5 30.4286
3111.5 -7.71429
3112.5 6.14286
3113.5 4.42857
3114.5 8.85714
3115.5 13.8571
3116.5 -7.28572
3117.5 17.1429
3118.5 5.42857
3119.5 28.5714
3120.5 -2.42857
3121.5 -3.14286
3122.5 -4.28572
3123.5 9.57143
3124.5 -1.42857
3125.5 14.2857
3126.5 24.7143
3127.5 2.28571
3128.5 7.57143
3129.5 5
3130.5 21.7143
3131.5 15.5714
3132.5 9
3133.5 8.28571
3134.5 8.14286
3135.5 -20.4286
3136.5 19.1429
3137.5 -5.57143
3138.5 30.2857
3139.5 -7
3140.5 18.2857
3141.5 -2.71429
3142.5 -4.42857
3143.5 8.14286
3144.5 37.1429
3145.5 13.1429
3146.5 26.5714
3147.5 18.7143
3148.5 18.7143
3149.5 27.5714
3150.5 19.5714
3151.5 5
3152.5 39.5714
3153.5 28.7143
3154.5 28.5714
3155.5 11.8571
3156.5 19.1429
3157.5 7.28571
3158.5 15.8571
3159.5 14.5714
3160.5 14.2857
3161.5 19.1429
3162.5 10.8571
3163.5 17
3164.5 25.1429
3165.5 27.7143
3166.5 18.5714
3167.5 15.5714
3168.5 22.8571
3169.5 -2.28572
3170.5 10
3171.5 18.7143
3172.5 28.2857
3173.5 19.1429
3174.5 10.4286
3175.5 10.4286
3176.5 25.1429
3177.5 21
3178.5 0.714285
3179.5 1.71429
3180.5 -2.28571
3181.5 -6.71429
3182.5 6.57143
3183.5 9.42857
3184.5 15.2857
3185.5 3.14286
3186.5 4
3187.5 27.1429
3188.5 31.1429
3189.5 2.14286
3190.5 14.1429
3191.5 20.8571
3192.5 -3.42857
3193.5 -13.2857
3194.5 6.71429
3195.5 3.28571
3196.5 -0.428572
3197.5 -0.428572
3198.5 23.2857
3199.5 47.5714
3200.5 40.7143
3201.5 82.7143
3202.5 48.8571
3203.5 19.7143
3204.5 15.7143
3205.5 2.57143
3206.5 23.8571
3207.5 3.28571
3208.5 -4.71429
3209.5 6
3210.5 -2.57143
3211.5 2.71428
3212.5 7.28571
3213.5 14.5714
3214.5 -4.57143
3215.5 8.57143
3216.5 9.85714
3217.5 21.2857
3218.5 20.8571
3219.5 10.5714
3220.5 9.57143
3221.5 22
3222.5 24.4286
3223.5 -8.14286
3224.5 18.8571
3225.5 32.5714
3226.5 25.8571
3227.5 21.4286
3228.5 18.4286
3229.5 5.14286
3230.5 0.999999
3231.5 10.1429
3232.5 18.2857
3233.5 14
3234.5 27.8571
3235.5 34.4286
3236.5 8.85714
3237.5 24.8571
3238.5 -2.57143
3239.5 8.57143
3240.5 15.2857
3241.5 26.7143
3242.5 26.1429
3243.5 -14.1429
3244.5 17.8571
3245.5 43.2857
3246.5 6.42857
3247.5 17.8571
3248.5 17.5714
3249.5 11
3250.5 30.4286
3251.5 12
3252.5 15.2857
3253.5 7.57143
3254.5 7.85714
3255.5 17.7143
3256.5 12.8571
3257.5 33.4286
3258.5 19.5714
3259.5 12.7143
3260.5 43.4286
3261.5 -23
3262.5 18.4286
3263.5 3
3264.5 19.4286
3265.5 4
3266.5 -10.5714
3267.5 12.2857
3268.5 -1.71429
3269.5 13.7143
3270.5 -12.8571
3271.5 7.14286
3272.5 -3.71429
3273.5 8
3274.5 0.714285
3275.5 14
3276.5 9.42857
3277.5 19.5714
3278.5 -4.42857
3279.5 4.28571
3280.5 15.5714
3281.5 0.857142
3282.5 -16
3283.5 -16.4286
3284.5 20
3285.5 -3.42857
3286.5 -13.2857
3287.5 8.57143
3288.5 -2.85714
3289.5 -9.71429
3290.5 -19.1429
3291.5 -10.8571
3292.5 -6.28571
3293.5 8.42857
3294.5 5.85714
3295.5 16.2857
3296.5 17.2857
3297.5 3.42857
3298.5 10.5714
3299.5 -5.28572
3300.5 12.4286
3301.5 3.14286
3302.5 20.5714
3303.5 37.4286
3304.5 -9.57143
3305.5 9.57143
3306.5 14.1429
3307.5 6.85714
3308.5 21
3309.5 16.2857
3310.5 11.1429
3311.5 -18.1429
3312.5 -20.4286
3313.5 -1.85714
3314.5 2.71428
3315.5 -6.71429
3316.5 14.7143
3317.5 19.4286
3318.5 -9.14286
3319.5 28
3320.5 12.4286
3321.5 25.7143
3322.5 15
3323.5 23.2857
3324.5 22.8571
3325.5 15.8571
3326.5 21.1429
3327.5 3.85714
3328.5 17
3329.5 0.571428
3330.5 22.1429
3331.5 18.7143
3332.5 34.5714
3333.5 44.2857
3334.5 47
3335.5 22
3336.5 7.71429
3337.5 8.42857
3338.5 21
3339.5 33
3340.5 1.14286
3341.5 10.8571
3342.5 -11.1429
3343.5 7
3344.5 2.14286
3345.5 20.8571
3346.5 -0.285715
3347.5 18.5714
3348.5 16.2857
3349.5 9.71429
3350.5 24
3351.5 16
3352.5 26.1429
3353.5 15.5714
3354.5 14.7143
3355.5 11.8571
3356.5 9.28571
3357.5 31.1429
3358.5 17.8571
3359.5 -0.285715
3360.5 30
3361.5 0.285714
3362.5 18.4286
3363.5 -1.28571
3364.5 13
3365.5 16.7143
3366.5 46.5714
3367.5 18.7143
3368.5 6.28571
3369.5 19.1429
3370.5 2.28571
3371.5 27
3372.5 13
3373.5 20.4286
3374.5 20
3375.5 19.5714
3376.5 7.14286
3377.5 12
3378.5 1.85714
3379.5 5
3380.5 4.42857
3381.5 -7.14286
3382.5 6.85714
3383.5 34.1429
3384.5 19.8571
3385.5 14
3386.5 21
3387.5 0.571428
3388.5 3.14286
3389.5 39
3390.5 4.57143
3391.5 -11.1429
3392.5 10.5714
3393.5 -7.71429
3394.5 -8.71429
3395.5 -12.8571
3396.5 -17.8571
3397.5 -21.1429
3398.5 -6.57143
3399.5 2.71429
3400.5 -1
3401.5 -9.42857
3402.5 22
3403.5 13.8571
3404.5 28.5714
3405.5 27.7143
3406.5 8
3407.5 2.57143
3408.5 8.71429
3409.5 19.5714
3410.5 20.4286
3411.5 5.28571
3412.5 34.4286
3413.5 -5.42857
3414.5 -16.2857
3415.5 -1.71429
3416.5 -3.85714
3417.5 7.85714
3418.5 10.2857
3419.5 9.28571
3420.5 14
3421.5 19.7143
3422.5 14.1429
3423.5 9.85714
3424.5 26.4286
3425.5 11.7143
3426.5 5.28571
3427.5 21.1429
3428.5 52.4286
3429.5 14
3430.5 7.42857
3431.5 6
3432.5 13.8571
3433.5 7.57143
3434.5 7.57143
3435.5 7.85714
3436.5 29.7143
3437.5 2
3438.5 10
3439.5 21.7143
3440.5 17.4286
3441.5 19.5714
3442.5 -4
3443.5 7.85714
3444.5 16.2857
3445.5 15.4286
3446.5 5
3447.5 -7.57143
3448.5 33.5714
3449.5 -15.7143
3450.5 -20.5714
3451.5 30.4286
3452.5 18.8571
3453.5 24
3454.5 13
3455.5 21
3456.5 8.85714
3457.5 5
3458.5 -10
3459.5 13
3460.5 -13
3461.5 6.85714
3462.5 9
3463.5 21.7143
3464.5 -8
3465.5 -1
3466.5 22.7143
3467.5 8.57143
3468.5 2.71429
3469.5 15
3470.5 -1.42857
3471.5 3.85714
3472.5 12.4286
3473.5 28.4286
3474.5 12.1429
3475.5 8.28571
3476.5 -8.85714
3477.5 3.42857
3478.5 21.4286
3479.5 4.71429
3480.5 21.7143
3481.5 11.5714
3482.5 26
3483.5 26.5714
3484.5 3.14286
3485.5 18.5714
3486.5 -14.5714
3487.5 11.5714
3488.5 -9.85714
3489.5 30.7143
3490.5 2.28571
3491.5 6.14286
3492.5 12
3493.5 18.5714
3494.5 11.7143
3495.5 20.8571
3496.5 25.1429
3497.5 -12.7143
3498.5 -1.85714
3499.5 -7.57143
3500.5 29.1429
3501.5 25.2857
3502.5 3.14286
3503.5 3.57143
3504.5 12.2857
3505.5 30.1429
3506.5 20.5714
3507.5 5.85714
3508.5 -5.71429
3509.5 10.2857
3510.5 7.85714
3511.5 21
3512.5 10.8571
3513.5 -8.71429
3514.5 11.4286
3515.5 -23.5714
3516.5 -18.1429
3517.5 -12.1429
3518.5 3.42857
3519.5 -2.42857
3520.5 -9.57143
3521.5 -13.1429
3522.5 -3.14286
3523.5 12.4286
3524.5 11.5714
3525.5 23.1429
3526.5 36
3527.5 16.2857
3528.5 19.8571
3529.5 17
3530.5 10.8571
3531.5 13.1429
3532.5 22.7143
3533.5 19.7143
3534.5 2.28571
3535.5 30.4286
3536.5 9.28571
3537.5 20.5714
3538.5 18.1429
3539.5 -0.857143
3540.5 4
3541.5 -7
3542.5 2.28571
3543.5 13.2857
3544.5 13.7143
3545.5 5.14286
3546.5 17
3547.5 -13.2857
3548.5 10.8571
3549.5 20.8571
3550.5 -13.1429
3551.5 -8.42857
3552.5 23.1429
3553.5 13.4286
3554.5 11.1429
3555.5 -4.57143
3556.5 -5.42857
3557.5 5.85714
3558.5 8.14286
3559.5 -3.71429
3560.5 24.2857
3561.5 16
3562.5 24.4286
3563.5 7.71429
3564.5 30.1429
3565.5 27.7143
3566.5 15.5714
3567.5 1.28571
3568.5 -0.571429
3569.5 9.42857
3570.5 5.14286
3571.5 11
3572.5 -3.42857
3573.5 2.42857
3574.5 -1
3575.5 17.7143
3576.5 7.57143
3577.5 13.7143
3578.5 1.85714
3579.5 12.2857
3580.5 5.85714
3581.5 10.2857
3582.5 -17.1429
3583.5 18.1429
3584.5 -10.5714
3585.5 -10.5714
3586.5 -1.71429
3587.5 15.7143
3588.5 -8.14286
3589.5 -3.85714
3590.5 7.42857
3591.5 6.28571
3592.5 8.71429
3593.5 -10.1429
3594.5 12.1429
3595.5 9.57143
3596.5 4.71429
3597.5 -8.42857
3598.5 -4.85714
3599.5 -1.71429
3600.5 2.42857
3601.5 -5.42857
3602.5 21.1429
3603.5 2.71429
3604.5 20.2857
3605.5 8.42857
3606.5 9
3607.5 8.14286
3608.5 17.1429
3609.5 23.7143
3610.5 6.42857
3611.5 8.71429
3612.5 18.2857
3613.5 0.857142
3614.5 -5.85714
3615.5 12.4286
3616.5 4.28571
3617.5 2.14286
3618.5 2.28571
3619.5 8.71429
3620.5 44.7143
3621.5 4.42857
3622.5 17.1429
3623.5 19.7143
3624.5 10.7143
3625.5 14.4286
3626.5 14.5714
3627.5 16.4286
3628.5 1.42857
3629.5 19.8571
3630.5 13.4286
3631.5 12.2857
3632.5 12.4286
3633.5 15
3634.5 2.14286
3635.5 17.5714
3636.5 33.1429
3637.5 -9.28571
3638.5 4.28571
3639.5 9.85714
3640.5 -1.42857
3641.5 7
3642.5 20.4286
3643.5 3.42857
3644.5 -1
3645.5 16.7143
3646.5 11.8571
3647.5 -8.85714
3648.5 -11.1429
3649.5 13.1429
3650.5 -10.8571
3651.5 19.5714
3652.5 18.4286
3653.5 5.85714
3654.5 6.57143
3655.5 4.85714
3656.5 24.7143
3657.5 23
3658.5 27.5714
3659.5 3.57143
3660.5 8.14286
3661.5 18.5714
3662.5 17.1429
3663.5 -0.857144
3664.5 32.4286
3665.5 21.4286
3666.5 12.7143
3667.5 -11
3668.5 15.8571
3669.5 9.57143
3670.5 5.71429
3671.5 12.4286
3672.5 18
3673.5 28.1429
3674.5 4.85714
3675.5 14.2857
3676.5 -2.28571
3677.5 5.14286
3678.5 21.1429
3679.5 25.2857
3680.5 31.7143
3681.5 12
3682.5 21
3683.5 14.8571
3684.5 23.2857
3685.5 -6.57143
3686.5 9.42857
3687.5 16.8571
3688.5 2.57143
3689.5 7.71429
3690.5 24
3691.5 14.1429
3692.5 2.28571
3693.5 -5.96046e-07
3694.5 15.8571
3695.5 5.85714
3696.5 -11
3697.5 -20.8571
3698.5 6.85714
3699.5 -14.7143
3700.5 4.71429
3701.5 20.4286
3702.5 -11.4286
3703.5 14.4286
3704.5 14
3705.5 16.5714
3706.5 12.8571
3707.5 27
3708.5 0.571428
3709.5 2.85714
3710.5 -2.71429
3711.5 -16.7143
3712.5 9.57143
3713.5 13.1429
3714.5 1.42857
3715.5 0.857142
3716.5 2.85714
3717.5 17.2857
3718.5 3.57143
3719.5 26
3720.5 3.14286
3721.5 -22.2857
3722.5 22.8571
3723.5 -11.4286
3724.5 16
3725.5 12.8571
3726.5 18
3727.5 11.1429
3728.5 3.28571
3729.5 8.57143
3730.5 7.57143
3731.5 5.57143
3732.5 17
3733.5 2.42857
3734.5 2.28571
3735.5 7.57143
3736.5 20.4286
3737.5 17.7143
3738.5 10.7143
3739.5 21.1429
3740.5 1.71429
3741.5 11.2857
3742.5 11.5714
3743.5 28.4286
3744.5 -12.5714
3745.5 21.5714
3746.5 34
3747.5 16.1429
3748.5 2.71428
3749.5 4.28571
3750.5 16
3751.5 4.42857
3752.5 -0.285715
3753.5 15
3754.5 -3.28571
3755.5 13.1429
3756.5 11.4286
3757.5 0.571428
3758.5 10.8571
3759.5 9.28571
3760.5 18.4286
3761.5 19.7143
3762.5 1.57143
3763.5 17.8571
3764.5 9.57143
3765.5 4
3766.5 4.28571
3767.5 8.28571
3768.5 16.7143
3769.5 10.2857
3770.5 8.57143
3771.5 15.2857
3772.5 10.8571
3773.5 4.71429
3774.5 25.7143
3775.5 20.5714
3776.5 1.85714
3777.5 5
3778.5 13.7143
3779.5 13
3780.5 10.4286
3781.5 -4.57143
3782.5 -5.28571
3783.5 13.7143
3784.5 -3.28571
3785.5 6
3786.5 -8.14286
3787.5 5.42857
3788.5 -9.28571
3789.5 2.28571
3790.5 15.8571
3791.5 -1.71429
3792.5 7.14286
3793.5 5.71429
3794.5 22
3795.5 2.85714
3796.5 11.7143
3797.5 0.142857
3798.5 4.28571
3799.5 11
3800.5 3.85714
3801.5 0.142857
3802.5 11.8571
3803.5 14.5714
3804.5 23.8571
3805.5 12.5714
3806.5 20.2857
3807.5 0.857142
3808.5 10.7143
3809.5 9.28571
3810.5 12.4286
3811.5 2
3812.5 4.14286
3813.5 10.4286
3814.5 6.14286
3815.5 3.85714
3816.5 -7.85714
3817.5 7.85714
3818.5 12
3819.5 25.4286
3820.5 8.42857
3821.5 -4.17233e-07
3822.5 11.2857
3823.5 -7.14286
3824.5 16.1429
3825.5 14
3826.5 -7.85714
3827.5 20.5714
3828.5 4.57143
3829.5 -13
3830.5 3
3831.5 27.4286
3832.5 2.71429
3833.5 15.4286
3834.5 19.1429
3835.5 25.5714
3836.5 5.57143
3837.5 17.7143
3838.5 12.8571
3839.5 20.8571
3840.5 2.14286
3841.5 -2.28571
3842.5 23.8571
3843.5 -10.8571
3844.5 17.5714
3845.5 22.8571
3846.5 0.999999
3847.5 -0.428572
3848.5 31.8571
3849.5 3.42857
3850.5 6
3851.5 9.14286
3852.5 15.4286
3853.5 -5.57143
3854.5 2.42857
3855.5 28.2857
3856.5 3.28571
3857.5 21.1429
3858.5 5.14286
3859.5 22.5714
3860.5 0.285714
3861.5 14.5714
3862.5 16.4286
3863.5 -28
3864.5 17.1429
3865.5 15.7143
3866.5 2.85714
3867.5 1.14286
3868.5 18.7143
3869.5 14.5714
3870.5 18.2857
3871.5 11
3872.5 10.7143
3873.5 8.28571
3874.5 10.2857
3875.5 9.85714
3876.5 1.57143
3877.5 19.4286
3878.5 -9.42857
3879.5 2.71429
3880.5 5.42857
3881.5 -11.5714
3882.5 17.5714
3883.5 -6.28571
3884.5 8.57143
3885.5 14
3886.5 -1.85714
3887.5 24.1429
3888.5 11.1429
3889.5 21.1429
3890.5 4.57143
3891.5 3.57143
3892.5 17.7143
3893.5 18
3894.5 10.1429
3895.5 7.42857
3896.5 13.1429
3897.5 19.7143
3898.5 17.2857
3899.5 21.5714
3900.5 35.5714
3901.5 64.5714
3902.5 66.7143
3903.5 81.4286
3904.5 76.1429
3905.5 48.4286
3906.5 20.4286
3907.5 0.714285
3908.5 19.4286
3909.5 -3.42857
3910.5 12.8571
3911.5 14
3912.5 6
3913.5 22.5714
3914.5 18.4286
3915.5 13.7143
3916.5 2.71429
3917.5 11
3918.5 8.14286
3919.5 2.14286
3920.5 -7.42857
3921.5 6.71429
3922.5 10.2857
3923.5 13.8571
3924.5 -7
3925.5 17
3926.5 -15.5714
3927.5 13.4286
3928.5 8.85714
3929.5 -3.28571
3930.5 12.8571
3931.5 3.85714
3932.5 -1.85714
3933.5 26.2857
3934.5 7.57143
3935.5 7
3936.5 -16.7143
3937.5 10.8571
3938.5 14.8571
3939.5 15.2857
3940.5 -1.57143
3941.5 13
3942.5 2.14286
3943.5 2.57143
3944.5 9.85714
3945.5 15.7143
3946.5 -3.85714
3947.5 6.28571
3948.5 3
3949.5 9.57143
3950.5 13.8571
3951.5 2.14286
3952.5 -5.57143
3953.5 10.1429
3954.5 -4.14286
3955.5 -2.42857
3956.5 5.14286
3957.5 6.71429
3958.5 -13.4286
3959.5 12.2857
3960.5 25.1429
3961.5 9.28571
3962.5 12.5714
3963.5 23.5714
3964.5 0.857142
3965.5 0.714285
3966.5 2.28571
3967.5 13.4286
3968.5 12.8571
3969.5 -5.57143
3970.5 14.1429
3971.5 -9.28572
3972.5 3.57143
3973.5 2.28571
3974.5 2.85714
3975.5 -3.57143
3976.5 7.85714
3977.5 17.4286
3978.5 3.85714
3979.5 -1.71429
3980.5 10
3981.5 9.85714
3982.5 6.57143
3983.5 -7.42857
3984.5 7.57143
3985.5 19.7143
3986.5 15.7143
3987.5 -9
3988.5 15.5714
3989.5 5.85714
3990.5 7.14286
3991.5 -1.71429
3992.5 -10
3993.5 12.7143
3994.5 1.57143
3995.5 5.85714
3996.5 -0.571429
3997.5 14.2857
3998.5 6
3999.5 -4.14286
4000.5 6.71429
4001.5 3.71429
4002.5 -10.8571
4003.5 8.85714
4004.5 10
4005.5 6.42857
4006.5 7.71429
4007.5 6.85714
4008.5 1
4009.5 7
4010.5 19.5714
4011.5 13.8571
4012.5 12.4286
4013.5 4.71429
4014.5 18
4015.5 13.1429
4016.5 5.28571
4017.5 9.85714
4018.5 8.42857
4019.5 5.14286
4020.5 6.14286
4021.5 2.14286
4022.5 5.71429
4023.5 25.1429
4024.5 13.2857
4025.5 4.71429
4026.5 15.1429
4027.5 5.85714
4028.5 11.5714
4029.5 16.8571
4030.5 6.28571
4031.5 0.857142
4032.5 -13.8571
4033.5 11.1429
4034.5 -1
4035.5 13
4036.5 28.4286
4037.5 26.1429
4038.5 46.1429
4039.5 18.5714
4040.5 34.8571
4041.5 41.4286
4042.5 29.4286
4043.5 27
4044.5 8.28571
4045.5 22.1429
4046.5 22.1429
4047.5 22.2857
4048.5 4.42857
4049.5 6.85714
4050.5 -5.57143
4051.5 10.5714
4052.5 16.2857
4053.5 24.8571
4054.5 2
4055.5 4.57143
4056.5 9.57143
4057.5 24.1429
4058.5 9.85714
4059.5 7.85714
4060.5 2
4061.5 15
4062.5 8.28571
4063.5 12.8571
4064.5 1.71429
4065.5 15.5714
4066.5 1.85714
4067.5 8.85714
4068.5 11.5714
4069.5 27
4070.5 16
4071.5 9.85714
4072.5 13.8571
4073.5 1.14286
4074.5 10.8571
4075.5 -6
4076.5 31.7143
4077.5 0.428571
4078.5 1.42857
4079.5 16.2857
4080.5 17
4081.5 27.2857
4082.5 6
4083.5 1.28571
4084.5 10.8571
4085.5 9.85714
4086.5 10
4087.5 12
4088.5 14.1429
4089.5 10.2857
4090.5 19.7143
4091.5 1.42857
4092.5 5.57143
4093.5 10.5714
4094.5 18
4095.5 -3.14286
4096.5 8.71429
4097.5 12.4286
4098.5 11.8571
4099.5 11.2857
4100.5 -0.428572
4101.5 5.57143
4102.5 14.8571
4103.5 10.2857
4104.5 0.857142
4105.5 6.85714
4106.5 3.42857
4107.5 7.14286
4108.5 31.5714
4109.5 16.7143
4110.5 40.2857
4111.5 42.1429
4112.5 28.7143
4113.5 33.2857
4114.5 34
4115.5 18.2857
4116.5 10.1429
4117.5 -1.85714
4118.5 7.28571
4119.5 1.14286
4120.5 37.4286
4121.5 7.42857
4122.5 17
4123.5 15.2857
4124.5 5.42857
4125.5 9
4126.5 25.7143
4127.5 12.2857
4128.5 7.85714
4129.5 12.2857
4130.5 14.8571
4131.5 4.71429
4132.5 17.2857
4133.5 17.8571
4134.5 29.4286
4135.5 5.42857
4136.5 3.85714
4137.5 7.71429
4138.5 15.1429
4139.5 13.1429
4140.5 10
4141.5 17
4142.5 -2
4143.5 8.14286
4144.5 33.2857
4145.5 -4
4146.5 11.8571
4147.5 -4.57143
4148.5 11.7143
4149.5 10.4286
4150.5 19.4286
4151.5 18
4152.5 -0.714286
4153.5 14.4286
4154.5 9
4155.5 6
4156.5 3.28571
4157.5 2.85714
4158.5 -1.42857
4159.5 -6.42857
4160.5 8.71429
4161.5 16.5714
4162.5 26.4286
4163.5 20.5714
4164.5 1.85714
4165.5 -2.85714
4166.5 14.5714
4167.5 -0.857144
4168.5 -8.28572
4169.5 9.42857
4170.5 12.8571
4171.5 16.2857
4172.5 1.42857
4173.5 26
4174.5 15.1429
4175.5 4.85714
4176.5 17.1429
4177.5 16.5714
4178.5 -8
4179.5 6.85714
4180.5 2.57143
4181.5 5
4182.5 14.4286
4183.5 17.5714
4184.5 24.2857
4185.5 2.71429
4186.5 14
4187.5 5.42857
4188.5 0.428571
4189.5 -0.857143
4190.5 -7
4191.5 19.2857
4192.5 22.4286
4193.5 -0.285715
4194.5 14
4195.5 13.2857
4196.5 16.1429
4197.5 -6.14286
4198.5 25.4286
4199.5 38.8571
4200.5 20.7143
4201.5 40.7143
4202.5 6.57143
4203.5 21.7143
4204.5 8.57143
4205.5 -8
4206.5 -17.4286
4207.5 -31.4286
4208.5 -49
4209.5 -35.1429
4210.5 -38
4211.5 -25.4286
4212.5 -12.2857
4213.5 3.57143
4214.5 -4.14286
4215.5 15.7143
4216.5 -4
4217.5 29.1429
4218.5 -5.57143
4219.5 4.42857
4220.5 9.57143
4221.5 17.5714
4222.5 23.4286
4223.5 7
4224.5 6.14286
4225.5 9.71429
4226.5 13.8571
4227.5 2.28571
4228.5 17.1429
4229.5 15.7143
4230.5 4.57143
4231.5 4
4232.5 15.1429
4233.5 8.28571
4234.5 14.4286
4235.5 14.4286
4236.5 14.2857
4237.5 11.7143
4238.5 15.1429
4239.5 6.14286
4240.5 0.714285
4241.5 11.4286
4242.5 12.2857
4243.5 31.1429
4244.5 23.7143
4245.5 5.57143
4246.5 7
4247.5 5.57143
4248.5 20.5714
4249.5 9.71429
4250.5 20.7143
4251.5 8.28571
4252.5 8
4253.5 11.2857
4254.5 17
4255.5 23.1429
4256.5 18.5714
4257.5 14
4258.5 6.28571
4259.5 15.8571
4260.5 -2.28571
4261.5 17.5714
4262.5 16.8571
4263.5 16.5714
4264.5 30.7143
4265.5 5
4266.5 10.1429
4267.5 5.85714
4268.5 14.7143
4269.5 10.4286
4270.5 5.14286
4271.5 8.42857
4272.5 -1.42857
4273.5 14.2857
4274.5 25.4286
4275.5 6.57143
4276.5 -2.85714
4277.5 8.85714
4278.5 26.5714
4279.5 5.28571
4280.5 5.57143
4281.5 9.85714
4282.5 5.71429
4283.5 4.28571
4284.5 8
4285.5 13.5714
4286.5 17.5714
4287.5 22.4286
4288.5 25.1429
4289.5 2.28571
4290.5 5.14286
4291.5 7.85714
4292.5 13.7143
4293.5 10.4286
4294.5 -10
4295.5 16.8571
4296.5 -1.28571
4297.5 11.7143
4298.5 4.42857
4299.5 27.4286
4300.5 11.4286
4301.5 11.4286
4302.5 15.5714
4303.5 4.14286
4304.5 9.42857
4305.5 15.4286
4306.5 6
4307.5 3
4308.5 11.1429
4309.5 3.14286
4310.5 -14.2857
4311.5 13.7143
4312.5 6.57143
4313.5 7.57143
4314.5 -10.4286
4315.5 13.1429
4316.5 4.42857
4317.5 3
4318.5 4.85714
4319.5 -8.57143
4320.5 6.14286
4321.5 12.1429
4322.5 10.5714
4323.5 17
4324.5 0.714285
4325.5 3.42857
4326.5 2
4327.5 9
4328.5 5.85714
4329.5 13
4330.5 16
4331.5 19
4332.5 8.42857
4333.5 7.14286
4334.5 26.7143
4335.5 13.8571
4336.5 29.8571
4337.5 15.4286
4338.5 7.14286
4339.5 4.71429
4340.5 5.14286
4341.5 -7
4342.5 4.71429
4343.5 20.5714
4344.5 23.7143
4345.5 31.1429
4346.5 13.2857
4347.5 15.5714
4348.5 7.14286
4349.5 15.7143
4350.5 19.4286
4351.5 19.4286
4352.5 9.14286
4353.5 19.5714
4354.5 23.2857
4355.5 7.28571
4356.5 3.85714
4357.5 19.7143
4358.5 16.4286
4359.5 15.8571
4360.5 28.8571
4361.5 4.14286
4362.5 10.8571
4363.5 20.8571
4364.5 27.2857
4365.5 15.4286
4366.5 14.5714
4367.5 1.28571
4368.5 17.8571
4369.5 18.7143
4370.5 -10.2857
4371.5 6.14286
4372.5 14.2857
4373.5 11.7143
4374.5 -18.2857
4375.5 1.57143
4376.5 -10.5714
4377.5 -6.57143
4378.5 12.2857
4379.5 3.42857
4380.5 -2.71429
4381.5 -3.14286
4382.5 3.57143
4383.5 12.1429
4384.5 7.28571
4385.5 19.1429
4386.5 9.85714
4387.5 4.71429
4388.5 13.8571
4389.5 -11.8571
4390.5 25.5714
4391.5 13.5714
4392.5 12.2857
4393.5 19
4394.5 23.1429
4395.5 39.2857
4396.5 12.5714
4397.5 9
4398.5 9.14286
4399.5 21.1429
4400.5 26.5714
4401.5 4
4402.5 5.71429
4403.5 5.57143
4404.5 29.4286
4405.5 4
4406.5 13.7143
4407.5 17.1429
4408.5 3.42857
4409.5 -5.85714
4410.5 5.14286
4411.5 16
4412.5 -1.14286
4413.5 -2.71429
4414.5 22.7143
4415.5 13.5714
4416.5 -3.42857
4417.5 7.57143
4418.5 9.28571
4419.5 3.85714
4420.5 17.2857
4421.5 8.42857
4422.5 5.85714
4423.5 16.1429
4424.5 17.1429
4425.5 14.8571
4426.5 5.71429
4427.5 3.57143
4428.5 16.7143
4429.5 2.57143
4430.5 14.8571
4431.5 12.2857
4432.5 -3
4433.5 5
4434.5 12
4435.5 -4.14286
4436.5 25
4437.5 29.8571
4438.5 2.42857
4439.5 31.4286
4440.5 -1.85714
4441.5 31.8571
4442.5 23.5714
4443.5 25.8571
4444.5 15
4445.5 8.28571
4446.5 12.5714
4447.5 6.14286
4448.5 -8
4449.5 27.1429
4450.5 8.57143
4451.5 11.7143
4452.5 17.5714
4453.5 15.5714
4454.5 14
4455.5 -1.14286
4456.5 7.42857
4457.5 -14
4458.5 12.8571
4459.5 25.1429
4460.5 10.4286
4461.5 9.42857
4462.5 -18.5714
4463.5 24.7143
4464.5 21.1429
4465.5 7.71429
4466.5 20.4286
4467.5 -0.857143
4468.5 50.7143
4469.5 39.7143
4470.5 55.2857
4471.5 33.2857
4472.5 36.5714
4473.5 19.5714
4474.5 25.2857
4475.5 22.5714
4476.5 31.2857
4477.5 9.71429
4478.5 13.5714
4479.5 -8.28571
4480.5 19.8571
4481.5 -8
4482.5 3.85714
4483.5 13.2857
4484.5 23.8571
4485.5 21.8571
4486.5 31.1429
4487.5 12.1429
4488.5 17.4286
4489.5 34.4286
4490.5 11.8571
4491.5 10.1429
4492.5 15.8571
4493.5 11.5714
4494.5 8.14286
4495.5 2.28571
4496.5 21.1429
4497.5 16.2857
4498.5 10.5714
4499.5 15.1429
4500.5 10.4286
4501.5 22.7143
4502.5 12.8571
4503.5 11
4504.5 23.5714
4505.5 5.57143
4506.5 14.1429
4507.5 -0.857143
4508.5 8.42857
4509.5 -7.42857
4510.5 7.71429
4511.5 3.85714
4512.5 -6.71429
4513.5 9.14286
4514.5 -4.28571
4515.5 14.7143
4516.5 6.14286
4517.5 20.8571
4518.5 9.57143
4519.5 7
4520.5 8.42857
4521.5 19.8571
4522.5 19.4286
4523.5 19.4286
4524.5 16.2857
4525.5 6.71429
4526.5 0.857143
4527.5 4.28571
4528.5 7.14286
4529.5 14.4286
4530.5 18
4531.5 13.2857
4532.5 -2.85714
4533.5 -0.142857
4534.5 4.42857
4535.5 9.42857
4536.5 10.5714
4537.5 9.14286
4538.5 10
4539.5 5.42857
4540.5 0.285714
4541.5 18.2857
4542.5 20
4543.5 43.8571
4544.5 32.4286
4545.5 67.2857
4546.5 113.429
4547.5 120.857
4548.5 112
4549.5 101
4550.5 89.7143
4551.5 106.429
4552.5 107.571
4553.5 58.1429
4554.5 48.1429
4555.5 26.1429
4556.5 16.7143
4557.5 14.2857
4558.5 24.1429
4559.5 29.1429
4560.5 5.14286
4561.5 18.7143
4562.5 11
4563.5 29.1429
4564.5 11
4565.5 10.4286
4566.5 5
4567.5 8.57143
4568.5 2.57143
4569.5 6.85714
4570.5 6.42857
4571.5 20.2857
4572.5 20.1429
4573.5 -2.98023e-07
4574.5 15.7143
4575.5 14.1429
4576.5 -7
4577.5 18.1429
4578.5 -5.28571
4579.5 7
4580.5 2.28571
4581.5 -1
4582.5 3.57143
4583.5 12.1429
4584.5 21.8571
4585.5 14.2857
4586.5 15.2857
4587.5 16.7143
4588.5 12.5714
4589.5 4.42857
4590.5 2.14286
4591.5 -9.57143
4592.5 13.4286
4593.5 21.7143
4594.5 18.2857
4595.5 19.4286
4596.5 10
4597.5 26.8571
4598.5 6
4599.5 28.5714
4600.5 15.4286
4601.5 3
4602.5 17.4286
4603.5 13.7143
4604.5 22.2857
4605.5 14.7143
4606.5 -1.71429
4607.5 20.7143
4608.5 -2.85714
4609.5 11
4610.5 9.14286
4611.5 19.1429
4612.5 3.85714
4613.5 11.5714
4614.5 10.2857
4615.5 4.57143
4616.5 13.2857
4617.5 -1.14286
4618.5 14.7143
4619.5 3
4620.5 -3.57143
4621.5 8.28571
4622.5 15.8571
4623.5 -11.7143
4624.5 2.42857
4625.5 24.7143
4626.5 2.57143
4627.5 10.8571
4628.5 16.4286
4629.5 11.1429
4630.5 11.2857
4631.5 12.2857
4632.5 12.8571
4633.5 13.5714
4634.5 14
4635.5 5.14286
4636.5 3
4637.5 5.42857
4638.5 20.2857
4639.5 13.1429
4640.5 11.7143
4641.5 14.8571
4642.5 -1.57143
4643.5 8.28571
4644.5 -1.42857
4645.5 6.71429
4646.5 13.7143
4647.5 14.4286
4648.5 -4.14286
4649.5 33.1429
4650.5 11.1429
4651.5 -5.85714
4652.5 21.4286
4653.5 19.4286
4654.5 12
4655.5 19.4286
4656.5 4.57143
4657.5 16.1429
4658.5 19.1429
4659.5 2.42857
4660.5 9.85714
4661.5 6
4662.5 1.14286
4663.5 27
4664.5 4.14286
4665.5 4.71429
4666.5 15.1429
4667.5 6.85714
4668.5 -6.14286
4669.5 6.71429
4670.5 4.57143
4671.5 11.1429
4672.5 31.2857
4673.5 7
4674.5 1.14286
4675.5 28.7143
4676.5 2.42857
4677.5 8
4678.5 5.85714
4679.5 10
4680.5 12.1429
4681.5 13.7143
4682.5 6.57143
4683.5 14
4684.5 8.57143
4685.5 -2.42857
4686.5 14
4687.5 7.14286
4688.5 16.5714
4689.5 25.1429
4690.5 27.4286
4691.5 50.1429
4692.5 79.1429
4693.5 86.5714
4694.5 88.8571
4695.5 59.8571
4696.5 33.2857
4697.5 22.4286
4698.5 9.71429
4699.5 7.85714
4700.5 11.4286
4701.5 14.2857
4702.5 31.2857
4703.5 18
4704.5 6.42857
4705.5 21
4706.5 21.8571
4707.5 21
4708.5 25.1429
4709.5 47.5714
4710.5 59.5714
4711.5 39.8571
4712.5 73.5714
4713.5 52.8571
4714.5 27.1429
4715.5 27.2857
4716.5 21.4286
4717.5 18.5714
4718.5 18.4286
4719.5 4.57143
4720.5 7.85714
4721.5 2.14286
4722.5 5.57143
4723.5 9.71429
4724.5 7.85714
4725.5 13.4286
4726.5 18.7143
4727.5 16.7143
4728.5 17.4286
4729.5 26.7143
4730.5 17.7143
4731.5 2.85714
4732.5 10.1429
4733.5 15.2857
4734.5 17.7143
4735.5 32.7143
4736.5 15.1429
4737.5 18
4738.5 22
4739.5 1.85714
4740.5 -6.28571
4741.5 -4
4742.5 10.5714
4743.5 15.2857
4744.5 3.57143
4745.5 18.1429
4746.5 17
4747.5 22.7143
4748.5 5.42857
4749.5 23.1429
4750.5 23.5714
4751.5 9.57143
4752.5 20.5714
4753.5 13.5714
4754.5 12.4286
4755.5 15.8571
4756.5 23.2857
4757.5 19.8571
4758.5 17.4286
4759.5 7.42857
4760.5 15
4761.5 19.4286
4762.5 22.8571
4763.5 0.428571
4764.5 6.28571
4765.5 9.42857
4766.5 9.42857
4767.5 15
4768.5 12.5714
4769.5 8.71429
4770.5 10
4771.5 13.7143
4772.5 14.4286
4773.5 22.7143
4774.5 6.42857
4775.5 20.1429
4776.5 18
4777.5 15.1429
4778.5 32.5714
4779.5 6.71429
4780.5 18.2857
4781.5 19.5714
4782.5 16
4783.5 27
4784.5 6.28571
4785.5 6.14286
4786.5 30.4286
4787.5 28.1429
4788.5 11
4789.5 8.57143
4790.5 9.71429
4791.5 8
4792.5 3.14286
4793.5 9.71429
4794.5 21.4286
4795.5 11.4286
4796.5 23.1429
4797.5 2.14286
4798.5 18.1429
4799.5 9.14286
4800.5 2.14286
4801.5 27
4802.5 15.5714
4803.5 3.71429
4804.5 11.5714
4805.5 -1.28571
4806.5 9
4807.5 13.8571
4808.5 9.85714
4809.5 -0.714286
4810.5 5.42857
4811.5 1.28571
4812.5 15.2857
4813.5 16.7143
4814.5 14.7143
4815.5 15.4286
4816.5 9
4817.5 6.42857
4818.5 3.28571
4819.5 4.85714
4820.5 8.14286
4821.5 2.57143
4822.5 23.5714
4823.5 19.2857
4824.5 6.57143
4825.5 2.71429
4826.5 11.1429
4827.5 7.42857
4828.5 12.4286
4829.5 7
4830.5 16.1429
4831.5 27.4286
4832.5 10.1429
4833.5 18
4834.5 36
4835.5 8.85714
4836.5 19.1429
4837.5 26.5714
4838.5 26.2857
4839.5 14.1429
4840.5 25.4286
4841.5 12.5714
4842.5 7.42857
4843.5 7.42857
4844.5 12.2857
4845.5 34.1429
4846.5 7.28571
4847.5 13.8571
4848.5 25.2857
4849.5 4.42857
4850.5 17.2857
4851.5 10.1429
4852.5 10.7143
4853.5 21.5714
4854.5 21.4286
4855.5 14
4856.5 24.7143
4857.5 11.2857
4858.5 0.571428
4859.5 13.7143
4860.5 22.2857
4861.5 11.7143
4862.5 15.4286
4863.5 23.7143
4864.5 14
4865.5 9.42857
4866.5 17.1429
4867.5 11.1429
4868.5 10.8571
4869.5 20.5714
4870.5 20.7143
4871.5 21.8571
4872.5 19.1429
4873.5 15.1429
4874.5 5.28571
4875.5 16.4286
4876.5 -1.57143
4877.5 15.2857
4878.5 22
4879.5 -4.17233e-07
4880.5 9.14286
4881.5 3.28571
4882.5 6.85714
4883.5 15.4286
4884.5 13.2857
4885.5 5.14286
4886.5 21.5714
4887.5 26.7143
4888.5 24.2857
4889.5 6.42857
4890.5 12.1429
4891.5 19.1429
4892.5 -0.857143
4893.5 18.4286
4894.5 11.2857
4895.5 4.57143
4896.5 17.2857
4897.5 29.2857
4898.5 6
4899.5 13.7143
4900.5 27.5714
4901.5 39.7143
4902.5 17.8571
4903.5 38.8571
4904.5 18.1429
4905.5 68.2857
4906.5 25.8571
4907.5 34.2857
4908.5 21.1429
4909.5 14.7143
4910.5 12.2857
4911.5 16.8571
4912.5 18.1429
4913.5 15.1429
4914.5 -13.2857
4915.5 -7.57143
4916.5 -4.57143
4917.5 3.14286
4918.5 -21.8571
4919.5 -34.8571
4920.5 -17.1429
4921.5 -5.57143
4922.5 6.71429
4923.5 15.7143
4924.5 13.7143
4925.5 1.85714
4926.5 2.57143
4927.5 10.2857
4928.5 12.2857
4929.5 -0.714286
4930.5 18.2857
4931.5 17.7143
4932.5 18.5714
4933.5 12.2857
4934.5 14.4286
4935.5 16.1429
4936.5 5.71429
4937.5 21
4938.5 18.1429
4939.5 -1.28571
4940.5 7.42857
4941.5 4
4942.5 -4.85714
4943.5 7.14286
4944.5 14.2857
4945.5 4.14286
4946.5 14.8571
4947.5 3.28571
4948.5 21.2857
4949.5 15.2857
4950.5 13.4286
4951.5 22
4952.5 22.5714
4953.5 25
4954.5 6.42857
4955.5 17.1429
4956.5 17.8571
4957.5 19.7143
4958.5 23.2857
4959.5 29.5714
4960.5 17.5714
4961.5 22.8571
4962.5 34
4963.5 21.7143
4964.5 27
4965.5 13
4966.5 14.7143
4967.5 19.8571
4968.5 24.7143
4969.5 24.2857
4970.5 24.1429
4971.5 34.2857
4972.5 24.5714
4973.5 36.2857
4974.5 25.4286
4975.5 11.4286
4976.5 24.8571
4977.5 27
4978.5 25.8571
4979.5 39.4286
4980.5 55
4981.5 86
4982.5 96.7143
4983.5 122.857
4984.5 122.857
4985.5 71.5714
4986.5 54
4987.5 17
4988.5 13
4989.5 14.4286
4990.5 1.85714
4991.5 -7.85714
4992.5 10.4286
4993.5 -9
4994.5 7
4995.5 12
4996.5 8.85714
4997.5 18.1429
4998.5 21.8571
4999.5 5.57143
5000.5 11.5714
5001.5 9.85714
5002.5 20
5003.5 6.71429
5004.5 27.8571
5005.5 21.2857
5006.5 7.28571
5007.5 8.28571
5008.5 12.5714
5009.5 10.5714
5010.5 28.7143
5011.5 0.714285
5012.5 22.4286
5013.5 5
5014.5 10.8571
5015.5 13.8571
5016.5 8.14286
5017.5 21.8571
5018.5 5.28571
5019.5 12.2857
5020.5 24
5021.5 6.28571
5022.5 6.57143
5023.5 7.85714
5024.5 16.4286
5025.5 -3.14286
5026.5 23.1429
5027.5 17.4286
5028.5 7.28571
5029.5 12.7143
5030.5 7.14286
5031.5 14.2857
5032.5 28.4286
5033.5 22
5034.5 7.14286
5035.5 12
5036.5 18
5037.5 19
5038.5 30.1429
5039.5 7.85714
5040.5 19.8571
5041.5 6.71429
5042.5 6.28571
5043.5 3.85714
5044.5 10.5714
5045.5 19
5046.5 24.4286
5047.5 3
5048.5 12.7143
5049.5 17.4286
5050.5 17.5714
5051.5 8
5052.5 6.57143
5053.5 2
5054.5 24.8571
5055.5 14.4286
5056.5 15
5057.5 0.571428
5058.5 17.2857
5059.5 18.8571
5060.5 15.7143
5061.5 20
5062.5 -2
5063.5 3.57143
5064.5 17.1429
5065.5 17.5714
5066.5 24.5714
5067.5 7.85714
5068.5 14.7143
5069.5 9.71429
5070.5 7.57143
5071.5 25.8571
5072.5 18.7143
5073.5 12.4286
5074.5 -4.42857
5075.5 15.1429
5076.5 35.7143
5077.5 12.2857
5078.5 24
5079.5 17.4286
5080.5 6.42857
5081.5 14.7143
5082.5 29.4286
5083.5 7.28571
5084.5 -2.71429
5085.5 12.1429
5086.5 3.14286
5087.5 16.4286
5088.5 23
5089.5 26.1429
5090.5 22
5091.5 25.7143
5092.5 5.42857
5093.5 5.57143
5094.5 6.85714
5095.5 13.5714
5096.5 11.1429
5097.5 15.5714
5098.5 12.8571
5099.5 3.85714
5100.5 17.1429
5101.5 -0.571429
5102.5 7.14286
5103.5 18.8571
5104.5 16
5105.5 11.7143
5106.5 30.7143
5107.5 20.8571
5108.5 12.7143
5109.5 3.85714
5110.5 7
5111.5 5.42857
5112.5 6.28571
5113.5 4.28571
5114.5 23
5115.5 14.8571
5116.5 5.85714
5117.5 9.71429
5118.5 9.14286
5119.5 6.57143
5120.5 1
5121.5 13.8571
5122.5 -1.14286
5123.5 -5.42857
5124.5 17.2857
5125.5 11.4286
5126.5 10.7143
5127.5 15.2857
5128.5 9.57143
5129.5 13.4286
5130.5 1.85714
5131.5 18.8571
5132.5 4.14286
5133.5 24.7143
5134.5 7.57143
5135.5 15.8571
5136.5 -3.71429
5137.5 17
5138.5 6.71429
5139.5 11.5714
5140.5 14.8571
5141.5 16.7143
5142.5 3.85714
5143.5 7
5144.5 12.1429
5145.5 6
5146.5 20.2857
5147.5 7.71429
5148.5 6
5149.5 18.4286
5150.5 27.2857
5151.5 9.85714
5152.5 15.4286
5153.5 14.4286
5154.5 5.14286
5155.5 13.2857
5156.5 21.2857
5157.5 15.1429
5158.5 16.4286
5159.5 3.14286
5160.5 7.14286
5161.5 14.7143
5162.5 12.4286
5163.5 7.71429
5164.5 20.2857
5165.5 11
5166.5 13.4286
5167.5 4.42857
5168.5 10
5169.5 14.5714
5170.5 17.4286
5171.5 -1.57143
5172.5 13.2857
5173.5 4.71429
5174.5 12.2857
5175.5 13
5176.5 12.2857
5177.5 -0.428572
5178.5 15.1429
5179.5 17
5180.5 5
5181.5 -3
5182.5 18.7143
5183.5 9.28571
5184.5 6.85714
5185.5 17.1429
5186.5 21.1429
5187.5 17.1429
5188.5 10.1429
5189.5 1.71429
5190.5 3.57143
5191.5 15.8571
5192.5 7
5193.5 18.7143
5194.5 9.57143
5195.5 12
5196.5 18
5197.5 24.1429
5198.5 59.2857
5199.5 74.4286
5200.5 94.5714
5201.5 136.286
5202.5 179.143
5203.5 240.857
5204.5 240.714
5205.5 245.429
5206.5 184.286
5207.5 118.571
5208.5 77.5714
5209.5 35
5210.5 27.2857
5211.5 26.1429
5212.5 16.5714
5213.5 27.8571
5214.5 20.8571
5215.5 10.8571
5216.5 19.1429
5217.5 25.2857
5218.5 37
5219.5 45.1429
5220.5 73.7143
5221.5 121.429
5222.5 131
5223.5 145
5224.5 140.286
5225.5 83.5714
5226.5 51.7143
5227.5 30.8571
5228.5 4.14286
5229.5 8
5230.5 4.42857
5231.5 11.5714
5232.5 8.42857
5233.5 10.4286
5234.5 26.5714
5235.5 14.4286
5236.5 9
5237.5 20.1429
5238.5 7.85714
5239.5 6
5240.5 -10
5241.5 5.57143
5242.5 6.28571
5243.5 11
5244.5 5.85714
5245.5 11.2857
5246.5 4.71429
5247.5 19.2857
5248.5 16.2857
5249.5 16.7143
5250.5 3.85714
5251.5 6.14286
5252.5 9.71429
5253.5 27.2857
5254.5 5.71429
5255.5 12.7143
5256.5 20.5714
5257.5 15
5258.5 7.57143
5259.5 1.14286
5260.5 10
5261.5 13.8571
5262.5 6.14286
5263.5 1.57143
5264.5 5
5265.5 19.1429
5266.5 14.4286
5267.5 2.14286
5268.5 -0.714286
5269.5 16.8571
5270.5 9.42857
5271.5 15.4286
5272.5 17
5273.5 19
5274.5 8.85714
5275.5 3.85714
5276.5 26.4286
5277.5 10.4286
5278.5 14.4286
5279.5 13.1429
5280.5 15.8571
5281.5 21
5282.5 3.42857
5283.5 13.8571
5284.5 12.8571
5285.5 15.7143
5286.5 9.57143
5287.5 3.57143
5288.5 6.71429
5289.5 4.42857
5290.5 11.8571
5291.5 21.5714
5292.5 15.7143
5293.5 16.5714
5294.5 6.28571
5295.5 -5.85714
5296.5 1.57143
5297.5 17.2857
5298.5 8.85714
5299.5 -2.14286
5300.5 15
5301.5 11.2857
5302.5 14.7143
5303.5 19.1429
5304.5 21.1429
5305.5 4.57143
5306.5 25.4286
5307.5 5
5308.5 10.2857
5309.5 -4.42857
5310.5 11.5714
5311.5 14.1429
5312.5 13.5714
5313.5 4
5314.5 3.42857
5315.5 10
5316.5 11.1429
5317.5 10.8571
5318.5 8.14286
5319.5 6.28571
5320.5 8.28571
5321.5 14.4286
5322.5 10.1429
5323.5 9.42857
5324.5 15
5325.5 13.2857
5326.5 5
5327.5 7.85714
5328.5 14.5714
5329.5 32.4286
5330.5 5
5331.5 12
5332.5 12.5714
5333.5 13.8571
5334.5 12
5335.5 0.714285
5336.5 16.4286
5337.5 12.2857
5338.5 15.2857
5339.5 18.4286
5340.5 15.8571
5341.5 13.7143
5342.5 12
5343.5 13.5714
5344.5 17.1429
5345.5 9.28571
5346.5 -0.285715
5347.5 11
5348.5 10.1429
5349.5 18.2857
5350.5 13.1429
5351.5 22.7143
5352.5 -1.28572
5353.5 22
5354.5 13
5355.5 -2
5356.5 19.5714
5357.5 2.57143
5358.5 11.1429
5359.5 11.7143
5360.5 7.85714
5361.5 20.5714
5362.5 8.14286
5363.5 11.7143
5364.5 9.42857
5365.5 7.57143
5366.5 17.2857
5367.5 6.71429
5368.5 24.4286
5369.5 5.71429
5370.5 9.71429
5371.5 13.7143
5372.5 3.42857
5373.5 17.2857
5374.5 19
5375.5 7.71429
5376.5 23.4286
5377.5 19.5714
5378.5 11.4286
5379.5 23.8571
5380.5 14.5714
5381.5 19.2857
5382.5 18
5383.5 26.5714
5384.5 4.14286
5385.5 12.8571
5386.5 2.85714
5387.5 -19
5388.5 7.28571
5389.5 -5.57143
5390.5 7.14286
5391.5 -1.28571
5392.5 -5.14286
5393.5 16.1429
5394.5 23.8571
5395.5 44.4286
5396.5 -30
5397.5 3.85714
5398.5 -11.5714
5399.5 18.4286
5400.5 0.428571
5401.5 23.8571
5402.5 4.42857
5403.5 -1
5404.5 5.42857
5405.5 18.8571
5406.5 15.8571
5407.5 23.8571
5408.5 13.5714
5409.5 15.4286
5410.5 3.85714
5411.5 3
5412.5 9.85714
5413.5 2.42857
5414.5 15.8571
5415.5 23.5714
5416.5 9.71429
5417.5 6.57143
5418.5 7.71429
5419.5 9
5420.5 8.42857
5421.5 15.1429
5422.5 11.5714
5423.5 8.42857
5424.5 11.4286
5425.5 10
5426.5 12.7143
5427.5 20
5428.5 16.1429
5429.5 20.4286
5430.5 13.1429
5431.5 19.1429
5432.5 12.8571
5433.5 22
5434.5 21
5435.5 13.4286
5436.5 21
5437.5 6.71429
5438.5 14.1429
5439.5 13.7143
5440.5 9.85714
5441.5 7.71429
5442.5 18.7143
5443.5 12.8571
5444.5 4.71429
5445.5 2.28571
5446.5 20
5447.5 18.2857
5448.5 21
5449.5 17.7143
5450.5 15.2857
5451.5 9.28571
5452.5 14.1429
5453.5 14
5454.5 20.4286
5455.5 10.5714
5456.5 7.28571
5457.5 10.1429
5458.5 16.8571
5459.5 15.8571
5460.5 9.71429
5461.5 12.7143
5462.5 10.4286
5463.5 17.2857
5464.5 21
5465.5 11.7143
5466.5 22.2857
5467.5 14.2857
5468.5 16
5469.5 25.2857
5470.5 42.7143
5471.5 40
5472.5 43
5473.5 39.4286
5474.5 27.7143
5475.5 24.1429
5476.5 19.8571
5477.5 -0.285715
5478.5 11.1429
5479.5 13.5714
5480.5 2.57143
5481.5 11.2857
5482.5 15.1429
5483.5 20
5484.5 5.85714
5485.5 9.71429
5486.5 3.42857
5487.5 1.42857
5488.5 11.2857
5489.5 -2.14286
5490.5 -3.57143
5491.5 9
5492.5 -4.71429
5493.5 6.57143
5494.5 16
5495.5 1.42857
5496.5 10.5714
5497.5 9.42857
5498.5 23.1429
5499.5 28.1429
5500.5 15.4286
5501.5 9.57143
5502.5 -3.57143
5503.5 2.71429
5504.5 -7.14286
5505.5 1.57143
5506.5 15.4286
5507.5 12.2857
5508.5 12.7143
5509.5 -0.857143
5510.5 6
5511.5 15.8571
5512.5 15.2857
5513.5 7.14286
5514.5 13.1429
5515.5 18.2857
5516.5 14.8571
5517.5 4
5518.5 14.7143
5519.5 2.85714
5520.5 4
5521.5 9.57143
5522.5 11.2857
5523.5 11.2857
5524.5 12
5525.5 10
5526.5 25.1429
5527.5 17.2857
5528.5 1.85714
5529.5 18
5530.5 18.2857
5531.5 16
5532.5 14.7143
5533.5 8.85714
5534.5 14
5535.5 3.28571
5536.5 11.2857
5537.5 2.14286
5538.5 11.7143
5539.5 9.28571
5540.5 22.8571
5541.5 3.71429
5542.5 2.14286
5543.5 1.14286
5544.5 10.1429
5545.5 13.8571
5546.5 3.42857
5547.5 3.57143
5548.5 6.14286
5549.5 19.7143
5550.5 25.7143
5551.5 5.85714
5552.5 17.5714
5553.5 -0.571429
5554.5 5.57143
5555.5 6.14286
5556.5 3.57143
5557.5 -3.57143
5558.5 7.85714
5559.5 2.42857
5560.5 8.14286
5561.5 10.4286
5562.5 6.85714
5563.5 14.5714
5564.5 9.28571
5565.5 26.4286
5566.5 7
5567.5 8
5568.5 12.2857
5569.5 11.4286
5570.5 9.71429
5571.5 10.4286
5572.5 13
5573.5 7.85714
5574.5 7
5575.5 14.1429
5576.5 11.5714
5577.5 9.85714
5578.5 8.42857
5579.5 0.857142
5580.5 14.2857
5581.5 7.28571
5582.5 2.28571
5583.5 0.857142
5584.5 10
5585.5 10.8571
5586.5 -1.14286
5587.5 1.14286
5588.5 15.2857
5589.5 14.7143
5590.5 0.857143
5591.5 15.5714
5592.5 4
5593.5 7.85714
5594.5 13.7143
5595.5 2.71429
5596.5 0.142857
5597.5 6.57143
5598.5 -0.428572
5599.5 15.1429
5600.5 5.85714
5601.5 1.14286
5602.5 7.85714
5603.5 11.1429
5604.5 4.42857
5605.5 6.42857
5606.5 19
5607.5 3.42857
5608.5 6.14286
5609.5 5.71429
5610.5 0.571428
5611.5 11.4286
5612.5 11.7143
5613.5 21.8571
5614.5 11.1429
5615.5 10.2857
5616.5 -1
5617.5 3.28571
5618.5 2.71429
5619.5 3
5620.5 15.8571
5621.5 8
5622.5 9.14286
5623.5 9.42857
5624.5 8.42857
5625.5 11.5714
5626.5 -2.14286
5627.5 9.71429
5628.5 13.1429
5629.5 6.71429
5630.5 0.285714
5631.5 -7
5632.5 13.2857
5633.5 12.7143
5634.5 -1.78814e-07
5635.5 5.42857
5636.5 8.28571
5637.5 -9.28571
5638.5 7.57143
5639.5 -1.71429
5640.5 7.28571
5641.5 -7
5642.5 -4.71429
5643.5 -0.285714
5644.5 -7.14286
5645.5 2.42857
5646.5 0.857143
5647.5 7.28571
5648.5 3.85714
5649.5 2.14286
5650.5 -3.42857
5651.5 3.28571
5652.5 11
5653.5 4.85714
5654.5 0.571428
5655.5 7.14286
5656.5 14.5714
5657.5 0.142857
5658.5 0.571428
5659.5 1.42857
5660.5 9.28571
5661.5 -8
5662.5 -2.28571
5663.5 10.2857
5664.5 -5.71429
5665.5 -5
5666.5 0.857143
5667.5 3.85714
5668.5 12
5669.5 -0.571429
5670.5 -0.714286
5671.5 7.71429
5672.5 21
5673.5 9
5674.5 3.28571
5675.5 -5.14286
5676.5 -3.28571
5677.5 5.14286
5678.5 8
5679.5 7.42857
5680.5 2.71429
5681.5 9.42857
5682.5 2.85714
5683.5 -1.19209e-07
5684.5 7.57143
5685.5 -6.57143
5686.5 10.7143
5687.5 11.1429
5688.5 -2.71429
5689.5 13.4286
5690.5 6.14286
5691.5 2
5692.5 -1.85714
5693.5 4.42857
5694.5 10.8571
5695.5 -1.78814e-07
5696.5 0.571428
5697.5 8.85714
5698.5 10.2857
5699.5 2.57143
5700.5 0.285714
5701.5 5.28571
5702.5 -0.714286
5703.5 9
5704.5 9.57143
5705.5 16.2857
5706.5 18.7143
5707.5 28.7143
5708.5 37.7143
5709.5 54.2857
5710.5 98.1429
5711.5 171.286
5712.5 267.857
5713.5 410.714
5714.5 510.143
5715.5 688.429
5716.5 668
5717.5 515.429
5718.5 316.286
5719.5 159.143
5720.5 65
5721.5 29
5722.5 20.5714
5723.5 11.7143
5724.5 9.71429
5725.5 5.57143
5726.5 2
5727.5 5.57143
5728.5 5.71429
5729.5 7.85714
5730.5 -3.42857
5731.5 2.57143
5732.5 1.42857
5733.5 1.71429
5734.5 4
5735.5 7.57143
5736.5 0.428571
5737.5 -1.14286
5738.5 -1.78814e-07
5739.5 7.85714
5740.5 1.57143
5741.5 -4.28571
5742.5 -3
5743.5 -5.28571
5744.5 -5.42857
5745.5 -4
5746.5 -1.57143
5747.5 -0.285714
5748.5 -0.142857
5749.5 -9.28571
5750.5 -1.85714
5751.5 2
5752.5 -6.42857
5753.5 7.14286
5754.5 2.42857
5755.5 -0.285715
5756.5 -1.71429
5757.5 3.42857
5758.5 -2
5759.5 -4.28571
5760.5 2.42857
5761.5 4
5762.5 5.28571
5763.5 1
5764.5 -11.2857
5765.5 -0.857143
5766.5 1.28571
5767.5 4.57143
5768.5 1.71429
5769.5 0.428571
5770.5 -1.19209e-07
5771.5 -10.1429
5772.5 -3.85714
5773.5 -2
5774.5 -4
5775.5 -6.71429
5776.5 -1.42857
5777.5 0.714286
5778.5 0.142857
5779.5 1
5780.5 2.57143
5781.5 -4.42857
5782.5 -6.85714
5783.5 -4.14286
5784.5 6.14286
5785.5 -2
5786.5 -10.8571
5787.5 -4.85714
5788.5 0.285714
5789.5 -5.57143
5790.5 -7.42857
5791.5 4.28571
5792.5 1.85714
5793.5 2.28571
5794.5 6.42857
5795.5 -0.714286
5796.5 0.285714
5797.5 -4.57143
5798.5 -7.28571
5799.5 -9.42857
5800.5 1.14286
5801.5 -5.71429
5802.5 1.42857
5803.5 2.57143
5804.5 -3.85714
5805.5 -7.28571
5806.5 -1.42857
5807.5 -3
5808.5 0.571428
5809.5 -2.28571
5810.5 6.28571
5811.5 -8.28571
5812.5 -2.28571
5813.5 -1.57143
5814.5 -3.14286
5815.5 -1.19209e-07
5816.5 1
5817.5 -0.428572
5818.5 -6.42857
5819.5 6
5820.5 2
5821.5 -1.57143
5822.5 -4.14286
5823.5 -6.42857
5824.5 1
5825.5 3.28571
5826.5 -7
5827.5 3.57143
5828.5 -2.85714
5829.5 -8
5830.5 -0.428572
5831.5 -2.71429
5832.5 2
5833.5 4.85714
5834.5 6.28571
5835.5 2.42857
5836.5 1.28571
5837.5 -4.28571
5838.5 5.28571
5839.5 -8.42857
5840.5 8.14286
5841.5 0.285714
5842.5 -3.71429
5843.5 4.71429
5844.5 4.71429
5845.5 3.14286
5846.5 -4
5847.5 -1
5848.5 1.71429
5849.5 -0.714286
5850.5 -6.57143
5851.5 3.42857
5852.5 4.28571
5853.5 -0.428572
5854.5 -3.85714
5855.5 -1
5856.5 2.71429
5857.5 -2.14286
5858.5 1
5859.5 7.57143
5860.5 -4.57143
5861.5 -1.71429
5862.5 2.42857
5863.5 0.428571
5864.5 1.42857
5865.5 2.28571
5866.5 1.85714
5867.5 -7.71429
5868.5 3.42857
5869.5 3.42857
5870.5 -1.28571
5871.5 -2.71429
5872.5 -6.57143
5873.5 -5
5874.5 -7.14286
5875.5 -3
5876.5 0.428571
5877.5 4.14286
5878.5 -8.42857
5879.5 8
5880.5 -0.142857
5881.5 -0.285714
5882.5 -3.85714
5883.5 -2.57143
5884.5 -10.7143
5885.5 5.14286
5886.5 2
5887.5 1.85714
5888.5 4.85714
5889.5 -5
5890.5 -1.28571
5891.5 1.85714
5892.5 6.57143
5893.5 -6.57143
5894.5 -18.8571
5895.5 -3
5896.5 -9.85714
5897.5 -12.5714
5898.5 -10.4286
5899.5 -38.8571
5900.5 -9.85714
5901.5 -23.5714
5902.5 -14
5903.5 -2
5904.5 -3.85714
5905.5 -11.7143
5906.5 7
5907.5 -3.42857
5908.5 -8.71429
5909.5 -8.42857
5910.5 1.85714
5911.5 -1.57143
5912.5 -2.57143
5913.5 6.28571
5914.5 1.28571
5915.5 -4.85714
5916.5 5.71429
5917.5 0.285714
5918.5 2.57143
5919.5 2.71429
5920.5 -1.28571
5921.5 -2
5922.5 4.14286
5923.5 -0.428572
5924.5 -1.42857
5925.5 2.28571
5926.5 -3.28571
5927.5 4
5928.5 2.71429
5929.5 -0.285714
5930.5 1.57143
5931.5 2.42857
5932.5 -1.14286
5933.5 -7
5934.5 -1.71429
5935.5 -2.28571
5936.5 -2
5937.5 -4
5938.5 -2.57143
5939.5 -7.28571
5940.5 -0.571429
5941.5 -1.14286
5942.5 0.571428
5943.5 4.14286
5944.5 8.57143
5945.5 -0.571429
5946.5 -3.42857
5947.5 -0.571429
5948.5 -5.96046e-08
5949.5 6.85714
5950.5 5
5951.5 -1.57143
5952.5 5
5953.5 11.1429
5954.5 -0.142857
5955.5 -0.857143
5956.5 -5.96046e-08
5957.5 1.71429
5958.5 9.85714
5959.5 -2.71429
5960.5 -4.57143
5961.5 0.142857
5962.5 -1.19209e-07
5963.5 7.14286
5964.5 0.428571
5965.5 -7.14286
5966.5 0.285714
5967.5 15.7143
5968.5 9.42857
5969.5 -3.85714
5970.5 7.57143
5971.5 3.14286
5972.5 8.71429
5973.5 -4.28571
5974.5 2.57143
5975.5 -6.42857
5976.5 5.14286
5977.5 2
5978.5 4.85714
5979.5 7.71429
5980.5 0.571428
5981.5 4.28571
5982.5 11
5983.5 -5.85714
5984.5 4.85714
5985.5 7.42857
5986.5 -1
5987.5 2.14286
5988.5 -0.714286
5989.5 -2.57143
5990.5 -3.42857
5991.5 3.14286
5992.5 4.28571
5993.5 -5.28571
5994.5 -3.57143
5995.5 -11
5996.5 -15.5714
5997.5 -19.8571
5998.5 -8.14286
5999.5 -9
6000.5 -26.2857
6001.5 -12
6002.5 -8.71429
6003.5 -2.14286
6004.5 6.42857
6005.5 -11.2857
6006.5 -6.71429
6007.5 10.1429
6008.5 1.71429
6009.5 0.428571
6010.5 -8.28571
6011.5 -12.2857
6012.5 1.14286
6013.5 -12
6014.5 -16.2857
6015.5 -8.71429
6016.5 -22.1429
6017.5 -15.1429
6018.5 -23.2857
6019.5 -15.5714
6020.5 -12.2857
6021.5 2
6022.5 2.28571
6023.5 2.85714
6024.5 -0.714286
6025.5 -5.85714
6026.5 -10.7143
6027.5 -5.42857
6028.5 6.57143
6029.5 -6.57143
6030.5 -0.714286
6031.5 4.42857
6032.5 -12.8571
6033.5 11
6034.5 9.85714
6035.5 -6.14286
6036.5 -7.42857
6037.5 0.857143
6038.5 2.14286
6039.5 0.428571
6040.5 5.71429
6041.5 -5.96046e-08
6042.5 3.85714
6043.5 -2.14286
6044.5 -2.28571
6045.5 -2.85714
6046.5 -1
6047.5 0.142857
6048.5 5.28571
6049.5 -1.14286
6050.5 -1
6051.5 -5.96046e-08
6052.5 -3.85714
6053.5 1.71429
6054.5 2.85714
6055.5 -2.85714
6056.5 1.14286
6057.5 1.57143
6058.5 -0.714286
6059.5 -5.96046e-08
6060.5 -1.85714
6061.5 2.71429
6062.5 -2.57143
6063.5 -5.71429
6064.5 -0.714286
6065.5 -2.85714
6066.5 -6.71429
6067.5 -4
6068.5 -1.57143
6069.5 -4.57143
6070.5 -2.42857
6071.5 -5.28571
6072.5 -2.42857
6073.5 1.85714
6074.5 -1.71429
6075.5 -1
6076.5 3
6077.5 0.285714
6078.5 1.57143
6079.5 -5.71429
6080.5 4.14286
6081.5 0.571428
6082.5 -4.42857
6083.5 3
6084.5 -5.42857
6085.5 3.57143
6086.5 -4.71429
6087.5 0.285714
6088.5 4.42857
6089.5 -3.57143
6090.5 0.142857
6091.5 5.85714
6092.5 -0.285714
6093.5 1.14286
6094.5 5.71429
6095.5 1.28571
6096.5 1.28571
6097.5 1.14286
6098.5 4.28571
6099.5 4
6100.5 4.85714
6101.5 -0.857143
6102.5 -0.857143
6103.5 17.4286
6104.5 -2
6105.5 1.85714
6106.5 -3.71429
6107.5 -1.14286
6108.5 8.85714
6109.5 1.28571
6110.5 -2.14286
6111.5 -9
6112.5 9
6113.5 -3.85714
6114.5 -4.42857
6115.5 -2.28571
6116.5 0.714286
6117.5 3.28571
6118.5 -1.57143
6119.5 1.57143
6120.5 0.428571
6121.5 -2.14286
6122.5 8.85714
6123.5 -0.285714
6124.5 -2.14286
6125.5 -3.71429
6126.5 2
6127.5 -8.57143
6128.5 5.42857
6129.5 -1.42857
6130.5 7.14286
6131.5 2.14286
6132.5 1.57143
6133.5 0.428571
6134.5 0.142857
6135.5 1.42857
6136.5 1.57143
6137.5 -2.42857
6138.5 -5
6139.5 6.42857
6140.5 -2.85714
6141.5 1.28571
6142.5 2
6143.5 2.14286
6144.5 -1
6145.5 5.85714
6146.5 -6.14286
6147.5 3.42857
6148.5 -1.85714
6149.5 -1.71429
6150.5 -6.28571
6151.5 3.28571
6152.5 6.28571
6153.5 -0.142857
6154.5 -5.42857
6155.5 2.85714
6156.5 0.857143
6157.5 -0.428571
6158.5 -4.28571
6159.5 4.71429
6160.5 3.71429
6161.5 2.85714
6162.5 1
6163.5 -3.57143
6164.5 -3.57143
6165.5 -8.85714
6166.5 12.8571
6167.5 -5.71429
6168.5 2.85714
6169.5 -3.85714
6170.5 9.57143
6171.5 -1.14286
6172.5 -0.857143
6173.5 -1.85714
6174.5 2.42857
6175.5 -5.71429
6176.5 -5.42857
6177.5 -2.14286
6178.5 2.14286
6179.5 6.85714
6180.5 1.14286
6181.5 -1.85714
6182.5 -1.85714
6183.5 -1.85714
6184.5 -2.71429
6185.5 6.85714
6186.5 0.285714
6187.5 -3
6188.5 9.57143
6189.5 0.571428
6190.5 -0.142857
6191.5 1.85714
6192.5 3.71429
6193.5 4.57143
6194.5 5.71429
6195.5 -5.96046e-08
6196.5 1
6197.5 -1.57143
6198.5 1.71429
6199.5 3.42857
6200.5 4.57143
6201.5 -1.14286
6202.5 -3.57143
6203.5 -4.14286
6204.5 5.71429
6205.5 -3.42857
6206.5 -7.28571
6207.5 4.71429
6208.5 3.71429
6209.5 -1.85714
6210.5 -3.57143
6211.5 -2
6212.5 3.71429
6213.5 -3
6214.5 1.14286
6215.5 -2.71429
6216.5 2
6217.5 5
6218.5 -1
6219.5 -2.28571
6220.5 -2.14286
6221.5 -3.57143
6222.5 9.42857
6223.5 -5.42857
6224.5 -6.28571
6225.5 -5.14286
6226.5 -7.14286
6227.5 1.57143
6228.5 -0.714286
6229.5 6
6230.5 4.28571
6231.5 3.28571
6232.5 1.42857
6233.5 2.71429
6234.5 -2.71429
6235.5 7.28571
6236.5 3.85714
6237.5 -1.42857
6238.5 3.42857
6239.5 1.71429
6240.5 -1
6241.5 -1.71429
6242.5 2.14286
6243.5 1
6244.5 -4.14286
6245.5 3.85714
6246.5 -1.42857
6247.5 -3.57143
6248.5 -0.857143
6249.5 -1.14286
6250.5 -1.85714
6251.5 -6.71429
6252.5 0.857143
6253.5 -2.57143
6254.5 -2.14286
6255.5 -0.714286
6256.5 9.57143
6257.5 0.571428
6258.5 -2.14286
6259.5 6.14286
6260.5 -11.5714
6261.5 4.85714
6262.5 -6.71429
6263.5 -6.28571
6264.5 1
6265.5 -0.142857
6266.5 6
6267.5 -3.57143
6268.5 -1
6269.5 4
6270.5 2.71429
6271.5 2.85714
6272.5 -1.14286
6273.5 -4.57143
6274.5 0.857143
6275.5 2.85714
6276.5 3.71429
6277.5 3
6278.5 -7.71429
6279.5 7.57143
6280.5 -1
6281.5 0.714286
6282.5 2.42857
6283.5 4.71429
6284.5 0.714286
6285.5 2.42857
6286.5 5.71429
6287.5 6.42857
6288.5 -3.85714
6289.5 -2.42857
6290.5 2.14286
6291.5 1.71429
6292.5 -2.85714
6293.5 -1.71429
6294.5 1.57143
6295.5 2.42857
6296.5 -4
6297.5 5.71429
6298.5 -2.28571
6299.5 1.57143
6300.5 -1.71429
6301.5 1.57143
6302.5 -2.71429
6303.5 -3.85714
6304.5 0.142857
6305.5 2.57143
6306.5 3.71429
6307.5 1.42857
6308.5 -0.142857
6309.5 -0.857143
6310.5 -0.142857
6311.5 -6
6312.5 1.14286
6313.5 -8.42857
6314.5 1.71429
6315.5 7.42857
6316.5 0.571429
6317.5 -3.57143
6318.5 5.28571
6319.5 0.285714
6320.5 -3
6321.5 -4.14286
6322.5 -7.14286
6323.5 0.285714
6324.5 -2.57143
6325.5 -4.57143
6326.5 -1.42857
6327.5 -2.57143
6328.5 -0.142857
6329.5 7
6330.5 5.57143
6331.5 -4
6332.5 -1.57143
6333.5 3.28571
6334.5 1.71429
6335.5 0.285714
6336.5 -3
6337.5 -4
6338.5 6.14286
6339.5 -3.57143
6340.5 -1.28571
6341.5 -1.85714
6342.5 -3.85714
6343.5 5.85714
6344.5 -0.714286
6345.5 1.85714
6346.5 -3.28571
6347.5 1.71429
6348.5 1.14286
6349.5 4.28571
6350.5 7.28571
6351.5 6.71429
6352.5 -0.428572
6353.5 -4
6354.5 -0.571429
6355.5 -7.14286
6356.5 -4.85714
6357.5 -4.71429
6358.5 -2.42857
6359.5 -1.28571
6360.5 -5.96046e-08
6361.5 0.142857
6362.5 1.14286
6363.5 -3
6364.5 -1.85714
6365.5 -3.85714
6366.5 3.85714
6367.5 -1
6368.5 -2.14286
6369.5 -5.96046e-08
6370.5 -3.71429
6371.5 -0.428571
6372.5 -4.42857
6373.5 -2.85714
6374.5 2.28571
6375.5 2.42857
6376.5 5.14286
6377.5 10.5714
6378.5 2
6379.5 4.71429
6380.5 3.42857
6381.5 3.57143
6382.5 -0.142857
6383.5 2.42857
6384.5 -3.14286
6385.5 -1.14286
6386.5 2.71429
6387.5 7.42857
6388.5 -3.28571
6389.5 4.14286
6390.5 2.85714
6391.5 4.57143
6392.5 -1.14286
6393.5 1.42857
6394.5 1.85714
6395.5 -0.428571
6396.5 -0.428571
6397.5 1.57143
6398.5 3.57143
6399.5 -1.14286
6400.5 -1.14286
6401.5 -4.28571
6402.5 0.714286
6403.5 -2.85714
6404.5 0.571429
6405.5 -0.285714
6406.5 -2.28571
6407.5 1.71429
6408.5 -0.285714
6409.5 0.857143
6410.5 4.42857
6411.5 -1.28571
6412.5 -2.14286
6413.5 1.42857
6414.5 2.14286
6415.5 1.85714
6416.5 3.42857
6417.5 4.71429
6418.5 -0.714286
6419.5 3.71429
6420.5 -3.42857
6421.5 -1.78814e-07
6422.5 -5.71429
6423.5 1
6424.5 3.42857
6425.5 4.57143
6426.5 -3.28571
6427.5 5.85714
6428.5 -2.85714
6429.5 -1.85714
6430.5 -4.57143
6431.5 -1
6432.5 0.571429
6433.5 1.71429
6434.5 -3.14286
6435.5 1.71429
6436.5 -2.28571
6437.5 5.85714
6438.5 -5.71429
6439.5 11.2857
6440.5 -8.28571
6441.5 -1.19209e-07
6442.5 -3.42857
6443.5 -1.14286
6444.5 1.28571
6445.5 4.71429
6446.5 -0.714286
6447.5 -5.96046e-08
6448.5 0.714286
6449.5 3.85714
6450.5 3.42857
6451.5 -3
6452.5 1.71429
6453.5 1.42857
6454.5 -2.42857
6455.5 1
6456.5 2.57143
6457.5 -1.28571
6458.5 -2
6459.5 -1.28571
6460.5 -5.42857
6461.5 1.28571
6462.5 3.57143
6463.5 -3.85714
6464.5 1.71429
6465.5 -0.285714
6466.5 3.28571
6467.5 -1.28571
6468.5 3.42857
6469.5 0.571429
6470.5 2.85714
6471.5 0.571429
6472.5 3.42857
6473.5 0.857143
6474.5 0.571428
6475.5 -4.42857
6476.5 7.57143
6477.5 -10.2857
6478.5 -0.571429
6479.5 -6.42857
6480.5 -8.28571
6481.5 -6.85714
6482.5 -13.5714
6483.5 -2
6484.5 -2.14286
6485.5 0.714286
6486.5 4.14286
6487.5 -0.571429
6488.5 0.571429
6489.5 0.571429
6490.5 -3.71429
6491.5 -2.28571
6492.5 0.571429
6493.5 -1.85714
6494.5 -2.42857
6495.5 -3.28571
6496.5 -0.142857
6497.5 -2.28571
6498.5 0.428571
6499.5 -2.42857
6500.5 -5.96046e-08
6501.5 -0.428571
6502.5 -5
6503.5 -2.42857
6504.5 -1.28571
6505.5 1.57143
6506.5 -2.85714
6507.5 -0.142857
6508.5 -4
6509.5 -0.571429
6510.5 -0.285714
6511.5 -1.14286
6512.5 0.428571
6513.5 -0.714286
6514.5 -3.14286
6515.5 0.428571
6516.5 3.42857
6517.5 -1.42857
6518.5 6.28571
6519.5 -2.85714
6520.5 -2.14286
6521.5 0.285714
6522.5 -2.28571
6523.5 -3.14286
6524.5 -1.57143
6525.5 -0.428571
6526.5 -0.428571
6527.5 7.14286
6528.5 0.857143
6529.5 -1.71429
6530.5 3.14286
6531.5 0.428571
6532.5 -0.428571
6533.5 2.14286
6534.5 -3.14286
6535.5 -1.57143
6536.5 2.28571
6537.5 4.28571
6538.5 0.428571
6539.5 -1
6540.5 -2.14286
6541.5 4.28571
6542.5 -0.428572
6543.5 -1.28571
6544.5 1.42857
6545.5 -15.7143
6546.5 -0.142858
6547.5 0.714285
6548.5 -3.14286
6549.5 -17.1429
6550.5 -1
6551.5 -3.14286
6552.5 -2.85714
6553.5 -1.28571
6554.5 -0.428571
6555.5 -5
6556.5 1.71429
6557.5 -3.42857
6558.5 4.28571
6559.5 -0.285714
6560.5 4.14286
6561.5 1.28571
6562.5 -2.57143
6563.5 3.42857
6564.5 -5.96046e-08
6565.5 0.428571
6566.5 -1.57143
6567.5 -4.28571
6568.5 -1.14286
6569.5 3.14286
6570.5 2.42857
6571.5 -0.428571
6572.5 7.57143
6573.5 1.14286
6574.5 -0.428571
6575.5 0.571429
6576.5 -2.28571
6577.5 -0.571429
6578.5 3.28571
6579.5 -0.571429
6580.5 5.28571
6581.5 -4.14286
6582.5 -1.42857
6583.5 0.571429
6584.5 -2.14286
6585.5 -1.57143
6586.5 -0.142857
6587.5 6.57143
6588.5 5.71429
6589.5 4
6590.5 9.14286
6591.5 5.57143
6592.5 5.42857
6593.5 3.42857
6594.5 3.57143
6595.5 -0.285714
6596.5 0.428571
6597.5 2.28571
6598.5 4.14286
6599.5 0.428571
6600.5 -0.142857
6601.5 2.42857
6602.5 1.85714
6603.5 -1.28571
6604.5 1.42857
6605.5 -2.14286
6606.5 -0.714286
6607.5 -3.28571
6608.5 0.142857
6609.5 -1.28571
6610.5 3.42857
6611.5 -1.14286
6612.5 -1.28571
6613.5 -0.428571
6614.5 1.57143
6615.5 -4.85714
6616.5 5.42857
6617.5 -0.428571
6618.5 0.285714
6619.5 -3.85714
6620.5 -1.57143
6621.5 -0.571429
6622.5 1.42857
6623.5 1.71429
6624.5 2.42857
6625.5 0.571429
6626.5 0.428571
6627.5 4.14286
6628.5 2.42857
6629.5 -3.28571
6630.5 5.42857
6631.5 0.142857
6632.5 -4.14286
6633.5 -2.42857
6634.5 2.14286
6635.5 1.28571
6636.5 1.28571
6637.5 -4
6638.5 0.142857
6639.5 1.57143
6640.5 0.285714
6641.5 0.428571
6642.5 0.571429
6643.5 -2
6644.5 4.71429
6645.5 7.42857
6646.5 5
6647.5 1.14286
6648.5 -1.28571
6649.5 2
6650.5 0.285714
6651.5 -0.142857
6652.5 6.42857
6653.5 3.28571
6654.5 -0.857143
6655.5 -2.42857
6656.5 -3.71429
6657.5 3.42857
6658.5 -0.571429
6659.5 -2.42857
6660.5 4.14286
6661.5 -5.85714
6662.5 1.28571
6663.5 1.14286
6664.5 -2.28571
6665.5 -4.28571
6666.5 1.28571
6667.5 0.142857
6668.5 -1.42857
6669.5 -1.28571
6670.5 0.285714
6671.5 0.285714
6672.5 2.57143
6673.5 0
6674.5 1.14286
6675.5 0.714286
6676.5 0.285714
6677.5 0.428571
6678.5 -4.28571
6679.5 2.28571
6680.5 0.142857
6681.5 0.571429
6682.5 5.28571
6683.5 -2.28571
6684.5 2.42857
6685.5 0.571429
6686.5 1.42857
6687.5 0.285714
6688.5 -0.714286
6689.5 1.28571
6690.5 1.14286
6691.5 -1.57143
6692.5 2.14286
6693.5 0.285714
6694.5 0.571429
6695.5 0.857143
6696.5 -2.42857
6697.5 -0.428571
6698.5 0.428571
6699.5 -3.42857
6700.5 -1.57143
6701.5 0.285714
6702.5 0.428571
6703.5 -4
6704.5 3
6705.5 -0.714286
6706.5 -1.42857
6707.5 -0.285714
6708.5 4
6709.5 -3.42857
6710.5 -4.85714
6711.5 -1.28571
6712.5 -0.571429
6713.5 3.85714
6714.5 -2.42857
6715.5 0.857143
6716.5 -3.14286
6717.5 0.714286
6718.5 2.42857
6719.5 4
6720.5 0.428571
6721.5 2.28571
6722.5 -2.57143
6723.5 -0.428571
6724.5 -0.428571
6725.5 2.28571
6726.5 -0.571429
6727.5 -4.57143
6728.5 0.714286
6729.5 -0.142857
6730.5 2.42857
6731.5 -1.85714
6732.5 1.71429
6733.5 1.42857
6734.5 2.28571
6735.5 6
6736.5 -2.57143
6737.5 1.85714
6738.5 1.28571
6739.5 1.14286
6740.5 -2.42857
6741.5 -1.57143
6742.5 1.57143
6743.5 -0.714286
6744.5 1.28571
6745.5 -2.57143
6746.5 3.28571
6747.5 -1.42857
6748.5 3.28571
6749.5 -2.28571
6750.5 -3
6751.5 -3.42857
6752.5 -1.42857
6753.5 0.428571
6754.5 1.28571
6755.5 0.428571
6756.5 0.285714
6757.5 -4.28571
6758.5 7.14286
6759.5 -1.57143
6760.5 -0.571429
6761.5 -2.42857
6762.5 -0.571429
6763.5 -2.28571
6764.5 6.42857
6765.5 -2
6766.5 -1.57143
6767.5 5.71429
6768.5 1.85714
6769.5 3.28571
6770.5 4.57143
6771.5 -5.42857
6772.5 11
6773.5 -2.42857
6774.5 -4.85714
6775.5 0.142857
6776.5 -7.14286
6777.5 -2.57143
6778.5 -3.28571
6779.5 -2.57143
6780.5 0
6781.5 1.42857
6782.5 2.14286
6783.5 2.14286
6784.5 -1.42857
6785.5 0.428571
6786.5 -2.42857
6787.5 -2.28571
6788.5 -3.28571
6789.5 -1.14286
6790.5 2.14286
6791.5 -0.571429
6792.5 2
6793.5 0.285714
6794.5 3.14286
6795.5 -1.71429
6796.5 -1.57143
6797.5 -1.28571
6798.5 -2.42857
6799.5 -4.28571
6800.5 -1.71429
6801.5 2.14286
6802.5 0.142857
6803.5 1.42857
6804.5 -0.714286
6805.5 -0.571429
6806.5 -1.57143
6807.5 2.42857
6808.5 1.57143
6809.5 -0.714286
6810.5 1.42857
6811.5 -1.28571
6812.5 0.142857
6813.5 0.428571
6814.5 2.42857
6815.5 -3.14286
6816.5 -0.428571
6817.5 -0.285714
6818.5 -4.14286
6819.5 0.571429
6820.5 -1.57143
6821.5 0.142857
6822.5 -2.57143
6823.5 -0.857143
6824.5 0.428571
6825.5 -1.71429
6826.5 -1.57143
6827.5 0
6828.5 -3.42857
6829.5 0.142857
6830.5 2.14286
6831.5 0.142857
6832.5 -1.28571
6833.5 0.285714
6834.5 2.14286
6835.5 0.142857
6836.5 -1.71429
6837.5 2.57143
6838.5 -1.42857
6839.5 2.28571
6840.5 -0.857143
6841.5 2.42857
6842.5 2
6843.5 2.28571
6844.5 0
6845.5 1.28571
6846.5 -0.714286
6847.5 0
6848.5 -0.714286
6849.5 0
6850.5 1
6851.5 -0.571429
6852.5 1.28571
6853.5 -1.71429
6854.5 -2.57143
6855.5 -0.714286
6856.5 -0.428571
6857.5 2.14286
6858.5 1.14286
6859.5 1.42857
6860.5 0.285714
6861.5 -1.57143
6862.5 1
6863.5 2.14286
6864.5 2.14286
6865.5 -0.571429
6866.5 0.714286
6867.5 -1.42857
6868.5 0.571429
6869.5 -1.42857
6870.5 1.28571
6871.5 1.42857
6872.5 -4.28571
6873.5 3
6874.5 1.28571
6875.5 0.428571
6876.5 -3.42857
6877.5 -0.714286
6878.5 -1.71429
6879.5 0.142857
6880.5 1
6881.5 -1.71429
6882.5 3.14286
6883.5 -1.57143
6884.5 0.285714
6885.5 0
6886.5 -0.857143
6887.5 -0.714286
6888.5 1.28571
6889.5 0.428571
6890.5 -0.714286
6891.5 0
6892.5 1
6893.5 0
6894.5 -1.57143
6895.5 -0.714286
6896.5 1
6897.5 -0.857143
6898.5 -1.57143
6899.5 -1.71429
6900.5 0.142857
6901.5 2
6902.5 1.14286
6903.5 -1.57143
6904.5 2
6905.5 1.14286
6906.5 -0.714286
6907.5 0.142857
6908.5 -1.42857
6909.5 -1.57143
6910.5 -2.28571
6911.5 3
6912.5 0
6913.5 1.28571
6914.5 3.28571
6915.5 1.42857
6916.5 3
6917.5 -3.42857
6918.5 -1.71429
6919.5 -2.42857
6920.5 -0.714286
6921.5 -0.714286
6922.5 1
6923.5 -0.714286
6924.5 -1.71429
6925.5 4.28571
6926.5 1.42857
6927.5 -0.571429
6928.5 -2.85714
6929.5 3.28571
6930.5 -0.142857
6931.5 -0.285714
6932.5 -5.14286
6933.5 4.71429
6934.5 -15.5714
6935.5 6.14286
6936.5 7.28571
6937.5 13.5714
6938.5 4.28571
6939.5 -4.71429
6940.5 -1.28571
6941.5 -1.42857
6942.5 4
6943.5 -2.42857
6944.5 -1.42857
6945.5 2
6946.5 -0.714286
6947.5 1.14286
6948.5 -0.714286
6949.5 -1.57143
6950.5 0.142857
6951.5 2
6952.5 -2.57143
6953.5 1.14286
6954.5 0.428571
6955.5 -0.857143
6956.5 0
6957.5 0
6958.5 0.142857
6959.5 0.142857
6960.5 0.142857
6961.5 1
6962.5 -1.71429
6963.5 -1.71429
6964.5 -1.42857
6965.5 -1.42857
6966.5 0.142857
6967.5 0.285714
6968.5 0.142857
6969.5 0
6970.5 3
6971.5 0.285714
6972.5 -1.57143
6973.5 -0.857143
6974.5 -1.71429
6975.5 2.14286
6976.5 1.14286
6977.5 2
6978.5 -1.71429
6979.5 0.285714
6980.5 0.714286
6981.5 6.14286
6982.5 -1.57143
6983.5 -3.42857
6984.5 3.14286
6985.5 -0.857143
6986.5 3
6987.5 0
6988.5 2
6989.5 0
6990.5 1
6991.5 1.14286
6992.5 -0.857143
6993.5 -0.857143
6994.5 0.142857
6995.5 0.285714
6996.5 1
6997.5 1
6998.5 0
6999.5 0.142857
7000.5 0.142857
7001.5 0.285714
7002.5 0.142857
7003.5 3
7004.5 -0.857143
7005.5 -0.714286
7006.5 0.142857
7007.5 -0.857143
7008.5 0
7009.5 1.14286
7010.5 -2.57143
7011.5 0.142857
7012.5 2
7013.5 -0.714286
7014.5 3
7015.5 1
7016.5 1
7017.5 0.142857
7018.5 2.14286
7019.5 -0.857143
7020.5 -1.57143
7021.5 1
7022.5 -0.714286
7023.5 -0.714286
7024.5 2.14286
7025.5 1
7026.5 1.28571
7027.5 -0.857143
7028.5 -1.57143
7029.5 0
7030.5 0.142857
7031.5 0
7032.5 2
7033.5 0.142857
7034.5 2
7035.5 -0.857143
7036.5 1.14286
7037.5 -1.71429
7038.5 -1.71429
7039.5 -0.857143
7040.5 0
7041.5 3
7042.5 1.14286
7043.5 -0.857143
7044.5 -0.714286
7045.5 0.142857
7046.5 -1.71429
7047.5 1.28571
7048.5 1
7049.5 0.142857
7050.5 -1.57143
7051.5 3
7052.5 -2.57143
7053.5 0.142857
7054.5 -0.857143
7055.5 -0.571429
7056.5 0.285714
7057.5 -0.857143
7058.5 0.142857
7059.5 1.14286
7060.5 1
7061.5 3.14286
7062.5 1
7063.5 -1.57143
7064.5 -1.71429
7065.5 3
7066.5 3
7067.5 1
7068.5 1
7069.5 3
7070.5 1.14286
7071.5 3
7072.5 -0.571429
7073.5 1
7074.5 1
7075.5 2.14286
7076.5 -0.714286
7077.5 0.428571
7078.5 -0.714286
7079.5 -0.428571
7080.5 1.28571
7081.5 1
7082.5 -1.42857
7083.5 0.142857
7084.5 -0.714286
7085.5 1.14286
7086.5 2
7087.5 2.14286
7088.5 0
7089.5 2
7090.5 2
7091.5 0.142857
7092.5 0.285714
7093.5 -0.857143
7094.5 0
7095.5 0.142857
7096.5 3
7097.5 0.142857
7098.5 1
7099.5 1
7100.5 1.14286
7101.5 -1.71429
7102.5 0.142857
7103.5 1.14286
7104.5 0
7105.5 1.14286
7106.5 1
7107.5 -0.714286
7108.5 -0.857143
7109.5 -0.857143
7110.5 1.14286
7111.5 0
7112.5 1
7113.5 -0.857143
7114.5 1
7115.5 0.142857
7116.5 -0.857143
7117.5 -0.857143
7118.5 0.285714
7119.5 -0.714286
7120.5 -0.857143
7121.5 1
7122.5 1.14286
7123.5 -0.714286
7124.5 1
7125.5 0
7126.5 -0.857143
7127.5 0.142857
7128.5 0.142857
7129.5 0
7130.5 1
7131.5 2.14286
7132.5 1.28571
7133.5 0
7134.5 -0.857143
7135.5 -0.571429
7136.5 -4.28571
7137.5 -2.57143
7138.5 -0.714286
7139.5 0.428571
7140.5 -2.57143
7141.5 -2.57143
7142.5 0
7143.5 -1.57143
7144.5 -1.71429
7145.5 -4.28571
7146.5 -1.71429
7147.5 -0.714286
7148.5 1.28571
7149.5 0
7150.5 0
7151.5 2
7152.5 -0.857143
7153.5 0.142857
7154.5 2
7155.5 1
7156.5 0
7157.5 -1.71429
7158.5 0
7159.5 -0.714286
7160.5 2
7161.5 -0.857143
7162.5 0.142857
7163.5 -1.57143
7164.5 1
7165.5 0
7166.5 2.14286
7167.5 0.142857
7168.5 0
7169.5 0
7170.5 0
7171.5 1
7172.5 -0.857143
7173.5 -1.71429
7174.5 0
7175.5 0
7176.5 0
7177.5 0.142857
7178.5 -0.714286
7179.5 1
7180.5 -1.71429
7181.5 0.142857
7182.5 1
7183.5 0
7184.5 -1.71429
7185.5 1.14286
7186.5 1.14286
7187.5 -0.857143
7188.5 1
7189.5 0
7190.5 0
7191.5 -0.857143
7192.5 -2.57143
7193.5 -0.714286
7194.5 0
7195.5 -0.857143
7196.5 0
7197.5 0.142857
7198.5 0.285714
7199.5 0.142857
7200.5 1
7201.5 0.142857
7202.5 -1.71429
7203.5 0.285714
7204.5 -0.857143
7205.5 2.28571
7206.5 -2.57143
7207.5 0.285714
7208.5 2.42857
7209.5 1.28571
7210.5 2
7211.5 0
7212.5 2
7213.5 2
7214.5 2
7215.5 1
7216.5 -0.857143
7217.5 2
7218.5 -0.857143
7219.5 2
7220.5 0.142857
7221.5 -1.57143
7222.5 -0.857143
7223.5 -0.857143
7224.5 1
7225.5 1
7226.5 1
7227.5 0
7228.5 0.142857
7229.5 -0.714286
7230.5 2
7231.5 0
7232.5 -1.71429
7233.5 0.142857
7234.5 0
7235.5 2
7236.5 0
7237.5 0
7238.5 0
7239.5 0
7240.5 2
7241.5 1
7242.5 4
7243.5 0.142857
7244.5 -2.42857
7245.5 -0.714286
7246.5 0.142857
7247.5 -0.714286
7248.5 -1.71429
7249.5 1.14286
7250.5 -0.857143
7251.5 0
7252.5 0.285714
7253.5 0
7254.5 1
7255.5 0
7256.5 -2.57143
7257.5 2.14286
7258.5 0.285714
7259.5 0.142857
7260.5 4
7261.5 -0.857143
7262.5 2.14286
7263.5 1.14286
7264.5 1.28571
7265.5 -1.71429
7266.5 1
7267.5 0.142857
7268.5 -0.857143
7269.5 -0.857143
7270.5 -0.857143
7271.5 2.14286
7272.5 -0.857143
7273.5 2
7274.5 0.142857
7275.5 0.142857
7276.5 1.14286
7277.5 0
7278.5 1.28571
7279.5 0
7280.5 1
7281.5 0
7282.5 0.142857
7283.5 -0.857143
7284.5 0.285714
7285.5 -1.71429
7286.5 -2.57143
7287.5 -1.71429
7288.5 -0.857143
7289.5 -0.857143
7290.5 -1.71429
7291.5 -0.714286
7292.5 0
7293.5 -3.42857
7294.5 0
7295.5 -1.71429
7296.5 1
7297.5 0
7298.5 1
7299.5 -0.714286
7300.5 -0.714286
7301.5 0.142857
7302.5 -0.714286
7303.5 0
7304.5 -0.857143
7305.5 2
7306.5 0.285714
7307.5 1
7308.5 0
7309.5 3
7310.5 1
7311.5 -0.714286
7312.5 3
7313.5 3
7314.5 -1.57143
7315.5 0.285714
7316.5 4.28571
7317.5 0.285714
7318.5 0.428571
7319.5 4.28571
7320.5 1.28571
7321.5 2
7322.5 1.14286
7323.5 0
7324.5 -2.57143
7325.5 0
7326.5 -0.857143
7327.5 0
7328.5 1
7329.5 -0.857143
7330.5 0.142857
7331.5 -0.857143
7332.5 1
7333.5 -0.857143
7334.5 1
7335.5 0
7336.5 1
7337.5 1.28571
7338.5 0.142857
7339.5 1
7340.5 0.142857
7341.5 0
7342.5 2.14286
7343.5 -0.714286
7344.5 -2.57143
7345.5 0.142857
7346.5 1
7347.5 0.142857
7348.5 -0.714286
7349.5 -0.857143
7350.5 3
7351.5 1.14286
7352.5 -0.857143
7353.5 1.14286
7354.5 0
7355.5 2
7356.5 0
7357.5 4
7358.5 3
7359.5 -0.857143
7360.5 2
7361.5 0
7362.5 0
7363.5 2.14286
7364.5 0.142857
7365.5 -0.857143
7366.5 -0.857143
7367.5 0.142857
7368.5 0
7369.5 1
7370.5 -0.857143
7371.5 -0.857143
7372.5 -0.857143
7373.5 0
7374.5 -0.857143
7375.5 0
7376.5 2
7377.5 -0.857143
7378.5 -0.857143
7379.5 0.142857
7380.5 0
7381.5 0
7382.5 -0.857143
7383.5 0
7384.5 -0.857143
7385.5 0
7386.5 0
7387.5 -0.857143
7388.5 -1.71429
7389.5 1
7390.5 0
7391.5 1
7392.5 2
7393.5 0
7394.5 -0.714286
7395.5 0
7396.5 1
7397.5 0
7398.5 0.142857
7399.5 -0.857143
7400.5 -0.857143
7401.5 0
7402.5 0
7403.5 1.14286
7404.5 0
7405.5 -2.57143
7406.5 1
7407.5 2
7408.5 0
7409.5 0.142857
7410.5 0
7411.5 0.285714
7412.5 1
7413.5 -1.57143
7414.5 -1.71429
7415.5 -0.714286
7416.5 0.285714
7417.5 -0.571429
7418.5 1.14286
7419.5 1
7420.5 -1.71429
7421.5 0.142857
7422.5 1
7423.5 0
7424.5 0.142857
7425.5 0
7426.5 -0.857143
7427.5 -0.857143
7428.5 -0.857143
7429.5 1
7430.5 0
7431.5 0
7432.5 -2.57143
7433.5 2.14286
7434.5 0
7435.5 0
7436.5 -0.714286
7437.5 0
7438.5 -0.714286
7439.5 -0.857143
7440.5 -0.857143
7441.5 -2.57143
7442.5 0
7443.5 0
7444.5 0.142857
7445.5 0
7446.5 1
7447.5 1
7448.5 -0.857143
7449.5 -0.857143
7450.5 0
7451.5 0.142857
7452.5 0.142857
7453.5 1
7454.5 1
7455.5 1
7456.5 0
7457.5 1
7458.5 1
7459.5 0
7460.5 0.142857
7461.5 0.142857
7462.5 -0.857143
7463.5 -0.857143
7464.5 -0.857143
7465.5 0
7466.5 1
7467.5 0.142857
7468.5 -0.857143
7469.5 -0.857143
7470.5 -0.857143
7471.5 0
7472.5 1
7473.5 0
7474.5 0
7475.5 -0.857143
7476.5 1
7477.5 0.142857
7478.5 -0.857143
7479.5 1
7480.5 0.142857
7481.5 0
7482.5 -0.857143
7483.5 -0.857143
7484.5 1
7485.5 0
7486.5 -0.714286
7487.5 0
7488.5 -0.857143
7489.5 -1.71429
7490.5 1
7491.5 -0.714286
7492.5 1
7493.5 1
7494.5 -0.857143
7495.5 1
7496.5 0
7497.5 -0.857143
7498.5 2
7499.5 1
7500.5 -1.71429
7501.5 1
7502.5 0
7503.5 0.142857
7504.5 -1.71429
7505.5 0
7506.5 0
7507.5 0
7508.5 -0.857143
7509.5 3
7510.5 0
7511.5 -0.857143
7512.5 0.142857
7513.5 0.142857
7514.5 0
7515.5 -0.857143
7516.5 0
7517.5 -0.714286
7518.5 -0.857143
7519.5 1
7520.5 -1.71429
7521.5 1
7522.5 0
7523.5 0
7524.5 -0.857143
7525.5 2
7526.5 0
7527.5 -0.857143
7528.5 -0.857143
7529.5 1
7530.5 0
7531.5 -1.71429
7532.5 -0.857143
7533.5 1
7534.5 -0.857143
7535.5 -1.57143
7536.5 0
7537.5 0.142857
7538.5 -1.71429
7539.5 2
7540.5 0
7541.5 1
7542.5 4
7543.5 0
7544.5 -0.857143
7545.5 0
7546.5 1
7547.5 1
7548.5 -1.71429
7549.5 -1.71429
7550.5 -0.857143
7551.5 1
7552.5 -0.857143
7553.5 0
7554.5 1
7555.5 -0.857143
7556.5 -0.857143
7557.5 2
7558.5 0.142857
7559.5 -0.714286
7560.5 0
7561.5 0
7562.5 -0.714286
7563.5 0.142857
7564.5 -1.71429
7565.5 0
7566.5 -0.714286
7567.5 -0.857143
7568.5 1.14286
7569.5 -0.857143
7570.5 1
7571.5 1
7572.5 1
7573.5 -1.71429
7574.5 -0.714286
7575.5 0
7576.5 0
7577.5 1
7578.5 -0.857143
7579.5 0
7580.5 1
7581.5 0.142857
7582.5 1.14286
7583.5 1
7584.5 0
7585.5 -0.857143
7586.5 0
7587.5 0
7588.5 0
7589.5 0
7590.5 0
7591.5 0
7592.5 -0.857143
7593.5 -0.857143
7594.5 0
7595.5 -0.857143
7596.5 0
7597.5 -0.857143
7598.5 0
7599.5 0
7600.5 0
7601.5 0.142857
7602.5 0
7603.5 0.142857
7604.5 0
7605.5 2
7606.5 0
7607.5 0
7608.5 0
7609.5 -0.857143
7610.5 -0.857143
7611.5 1.14286
7612.5 0
7613.5 0.142857
7614.5 0.142857
7615.5 1
7616.5 -0.857143
7617.5 1
7618.5 0
7619.5 0
7620.5 0
7621.5 0
7622.5 -0.857143
7623.5 -0.857143
7624.5 0
7625.5 0
7626.5 0.142857
7627.5 -0.714286
7628.5 1
7629.5 1
7630.5 0
7631.5 -0.857143
7632.5 0
7633.5 -2.57143
7634.5 -0.857143
7635.5 -0.857143
7636.5 0.142857
7637.5 0.142857
7638.5 0.285714
7639.5 0
7640.5 0
7641.5 0
7642.5 -0.857143
7643.5 -0.857143
7644.5 -1.71429
7645.5 0.285714
7646.5 -0.857143
7647.5 0.285714
7648.5 2
7649.5 0.285714
7650.5 1
7651.5 0
7652.5 1
7653.5 0.142857
7654.5 0
7655.5 0
7656.5 1
7657.5 0
7658.5 0
7659.5 -0.857143
7660.5 0
7661.5 0
7662.5 2
7663.5 1
7664.5 1
7665.5 -0.857143
7666.5 -0.857143
7667.5 2.14286
7668.5 0.142857
7669.5 0
7670.5 0
7671.5 0
7672.5 1
7673.5 0
7674.5 -0.857143
7675.5 0
7676.5 -1.71429
7677.5 0
7678.5 0
7679.5 0
7680.5 1
7681.5 0
7682.5 0.142857
7683.5 0
7684.5 0
7685.5 1
7686.5 0
7687.5 0
7688.5 0
7689.5 0
7690.5 0
7691.5 -0.857143
7692.5 0
7693.5 1
7694.5 1
7695.5 1
7696.5 0
7697.5 -0.714286
7698.5 3.14286
7699.5 -0.857143
7700.5 1
7701.5 0
7702.5 0
7703.5 1
7704.5 1
7705.5 1
7706.5 0.142857
7707.5 0
7708.5 0
7709.5 -1.71429
7710.5 0
7711.5 0
7712.5 0
7713.5 0.142857
7714.5 0.142857
7715.5 -1.71429
7716.5 1
7717.5 0
7718.5 -0.857143
7719.5 -0.857143
7720.5 -2.42857
7721.5 1
7722.5 1.14286
7723.5 -0.571429
7724.5 0
7725.5 0
7726.5 2
7727.5 0
7728.5 -0.857143
7729.5 -0.857143
7730.5 -0.857143
7731.5 -0.857143
7732.5 -1.57143
7733.5 0
7734.5 -2.57143
7735.5 0
7736.5 -0.857143
7737.5 1
7738.5 0
7739.5 1
7740.5 0
7741.5 0
7742.5 0
7743.5 0
7744.5 -0.857143
7745.5 1
7746.5 0
7747.5 0
7748.5 0
7749.5 0
7750.5 0
7751.5 -0.857143
7752.5 0
7753.5 -0.714286
7754.5 0
7755.5 0
7756.5 0
7757.5 -0.857143
7758.5 0
7759.5 -0.857143
7760.5 0
7761.5 0
7762.5 2
7763.5 3
7764.5 -0.857143
7765.5 0
7766.5 -0.857143
7767.5 2.28571
7768.5 0.142857
7769.5 2.14286
7770.5 0.285714
7771.5 0.142857
7772.5 2.14286
7773.5 0.285714
7774.5 -1.57143
7775.5 0.142857
7776.5 0.142857
7777.5 0.142857
7778.5 -0.857143
7779.5 0
7780.5 1
7781.5 1
7782.5 0
7783.5 0
7784.5 1
7785.5 -0.857143
7786.5 0
7787.5 0
7788.5 1
7789.5 0.142857
7790.5 0
7791.5 0
7792.5 -0.857143
7793.5 0.142857
7794.5 1
7795.5 2
7796.5 0
7797.5 0
7798.5 0
7799.5 0
7800.5 0
7801.5 0
7802.5 0
7803.5 0
7804.5 0
7805.5 0
7806.5 0
7807.5 0
7808.5 0
7809.5 -0.714286
7810.5 0
7811.5 -0.857143
7812.5 0
7813.5 -0.857143
7814.5 0
7815.5 1
7816.5 0
7817.5 1
7818.5 0
7819.5 0
7820.5 -0.571429
7821.5 -2.57143
7822.5 -0.571429
7823.5 -3.28571
7824.5 -0.714286
7825.5 1.42857
7826.5 -3.28571
7827.5 7.71429
7828.5 2.57143
7829.5 -6.14286
7830.5 1.57143
7831.5 1.42857
7832.5 -3.14286
7833.5 0.142857
7834.5 1
7835.5 0.142857
7836.5 2
7837.5 1
7838.5 0
7839.5 1
7840.5 0
7841.5 0
7842.5 -0.857143
7843.5 1
7844.5 0
7845.5 0
7846.5 -0.857143
7847.5 0.142857
7848.5 0
7849.5 0
7850.5 1
7851.5 0
7852.5 0
7853.5 0
7854.5 0
7855.5 0
7856.5 0
7857.5 0
7858.5 0
7859.5 -0.857143
7860.5 0
7861.5 0
7862.5 0
7863.5 1
7864.5 -0.857143
7865.5 0
7866.5 0
7867.5 -0.857143
7868.5 0
7869.5 0
7870.5 -0.857143
7871.5 -0.857143
7872.5 0
7873.5 0
7874.5 0
7875.5 0
7876.5 0
7877.5 0
7878.5 1
7879.5 1
7880.5 0
7881.5 -0.857143
7882.5 0
7883.5 0
7884.5 0.142857
7885.5 0
7886.5 0
7887.5 0
7888.5 0
7889.5 0
7890.5 -0.857143
7891.5 0
7892.5 -0.857143
7893.5 0
7894.5 -0.857143
7895.5 0
7896.5 0
7897.5 0.142857
7898.5 0
7899.5 1
7900.5 1
7901.5 0
7902.5 0
7903.5 0
7904.5 0
7905.5 0
7906.5 0
7907.5 0
7908.5 0
7909.5 -0.857143
7910.5 0
7911.5 0.142857
7912.5 1
7913.5 0
7914.5 1
7915.5 -0.857143
7916.5 0
7917.5 1
7918.5 0
7919.5 1
7920.5 0
7921.5 1
7922.5 0
7923.5 0
7924.5 0
7925.5 0
7926.5 -0.857143
7927.5 0
7928.5 -1.57143
7929.5 0
7930.5 0
7931.5 0
7932.5 -0.857143
7933.5 0
7934.5 0
7935.5 0
7936.5 0
7937.5 0
7938.5 0
7939.5 0
7940.5 0
7941.5 0
7942.5 0
7943.5 0
7944.5 0
7945.5 0
7946.5 0
7947.5 0
7948.5 -0.857143
7949.5 1
7950.5 0
7951.5 0
7952.5 -0.857143
7953.5 0
7954.5 0.142857
7955.5 0
7956.5 0
7957.5 0
7958.5 1
7959.5 1
7960.5 0
7961.5 0
7962.5 1
7963.5 0
7964.5 0.142857
7965.5 0
7966.5 1
7967.5 0
7968.5 -0.857143
7969.5 0
7970.5 0.142857
7971.5 0
7972.5 0
7973.5 -0.857143
7974.5 0
7975.5 0
7976.5 0
7977.5 1
7978.5 0
7979.5 0
7980.5 0
7981.5 0.142857
7982.5 0
7983.5 -0.857143
7984.5 -1.71429
7985.5 0
7986.5 0
7987.5 -0.857143
7988.5 2
7989.5 -1.71429
7990.5 0
7991.5 0
7992.5 1
7993.5 0
7994.5 0.285714
7995.5 0
7996.5 0
7997.5 -1.71429
7998.5 -0.857143
7999.5 0.142857
8000.5 0
8001.5 -1.71429
8002.5 1
8003.5 0
8004.5 0
8005.5 0
8006.5 0
8007.5 0
8008.5 -0.857143
8009.5 1
8010.5 0
8011.5 0
8012.5 0
8013.5 0
8014.5 0
8015.5 -0.857143
8016.5 1
8017.5 0
8018.5 0
8019.5 0
8020.5 0
8021.5 2
8022.5 1
8023.5 -0.857143
8024.5 0
8025.5 0
8026.5 0
8027.5 0
8028.5 0
8029.5 0
8030.5 0
8031.5 1
8032.5 0
8033.5 1
8034.5 0
8035.5 -0.857143
8036.5 0
8037.5 0
8038.5 1
8039.5 0
8040.5 -0.857143
8041.5 0
8042.5 -0.857143
8043.5 0.142857
8044.5 0
8045.5 0
8046.5 1
8047.5 0
8048.5 2
8049.5 0
8050.5 0
8051.5 0
8052.5 0
8053.5 0
8054.5 1
8055.5 1
8056.5 0
8057.5 0
8058.5 1
8059.5 0
8060.5 0
8061.5 0
8062.5 0
8063.5 0
8064.5 0
8065.5 1
8066.5 0
8067.5 0
8068.5 1
8069.5 0
8070.5 -2.57143
8071.5 0
8072.5 0
8073.5 0
8074.5 0
8075.5 0
8076.5 0
8077.5 0
8078.5 -0.857143
8079.5 0
8080.5 0
8081.5 0
8082.5 1
8083.5 0
8084.5 0
8085.5 -0.714286
8086.5 1
8087.5 0.142857
8088.5 0
8089.5 0
8090.5 0
8091.5 -0.857143
8092.5 0
8093.5 1.14286
8094.5 0
8095.5 0
8096.5 0.142857
8097.5 -0.857143
8098.5 0
8099.5 0
8100.5 0
8101.5 0
8102.5 0
8103.5 0
8104.5 0
8105.5 1
8106.5 0
8107.5 0
8108.5 0
8109.5 0
8110.5 0
8111.5 0
8112.5 0
8113.5 0
8114.5 -0.857143
8115.5 1
8116.5 -0.857143
8117.5 0
8118.5 -0.857143
8119.5 -0.857143
8120.5 0
8121.5 0
8122.5 0
8123.5 0
8124.5 0
8125.5 -0.857143
8126.5 0
8127.5 -0.857143
8128.5 0
8129.5 0
8130.5 1
8131.5 0
8132.5 0
8133.5 0
8134.5 0
8135.5 0
8136.5 -0.857143
8137.5 -0.857143
8138.5 0
8139.5 0
8140.5 0
8141.5 1
8142.5 0
8143.5 1
8144.5 0
8145.5 0
8146.5 0
8147.5 0
8148.5 0
8149.5 -0.857143
8150.5 -0.857143
8151.5 0
8152.5 0.142857
8153.5 1
8154.5 -0.857143
8155.5 0
8156.5 -0.857143
8157.5 1
8158.5 -0.857143
8159.5 -0.857143
8160.5 0
8161.5 0
8162.5 0
8163.5 -0.857143
8164.5 0
8165.5 0
8166.5 0
8167.5 0
8168.5 0
8169.5 0
8170.5 1
8171.5 -0.857143
8172.5 0
8173.5 0
8174.5 1
8175.5 0.142857
8176.5 0
8177.5 0
8178.5 0
8179.5 1
8180.5 0
8181.5 0
8182.5 0
8183.5 0
8184.5 0
8185.5 0
8186.5 1
8187.5 0
8188.5 0
8189.5 -0.857143
8190.5 1
8191.5 0
8192.5 1
8193.5 0
8194.5 0
8195.5 0
8196.5 0
8197.5 0
8198.5 0
8199.5 0
8200.5 -0.857143
8201.5 1
8202.5 0
8203.5 -0.857143
8204.5 0
8205.5 0
8206.5 0
8207.5 0
8208.5 0
8209.5 1
8210.5 0
8211.5 1
8212.5 1
8213.5 0
8214.5 0
8215.5 1
8216.5 0.142857
8217.5 -0.857143
8218.5 1
8219.5 0
8220.5 0
8221.5 0
8222.5 0
8223.5 0
8224.5 0
8225.5 0
8226.5 0
8227.5 0
8228.5 1
8229.5 0
8230.5 0
8231.5 0
8232.5 0
8233.5 0
8234.5 1
8235.5 0
8236.5 0
8237.5 0
8238.5 1
8239.5 0
8240.5 -0.857143
8241.5 0
8242.5 0
8243.5 0
8244.5 0
8245.5 0
8246.5 0
8247.5 1
8248.5 0
8249.5 0
8250.5 0
8251.5 0
8252.5 0
8253.5 0
8254.5 0
8255.5 0
8256.5 -0.857143
8257.5 1
8258.5 0
8259.5 -0.857143
8260.5 0
8261.5 0
8262.5 -1.71429
8263.5 0
8264.5 0
8265.5 1
8266.5 0
8267.5 0
8268.5 1
8269.5 0
8270.5 0
8271.5 0
8272.5 0
8273.5 0
8274.5 0
8275.5 -1.71429
8276.5 0
8277.5 1
8278.5 1
8279.5 0
8280.5 1
8281.5 0
8282.5 0
8283.5 0
8284.5 0
8285.5 0
8286.5 0
8287.5 0
8288.5 0
8289.5 0
8290.5 2
8291.5 0
8292.5 0
8293.5 0
8294.5 0
8295.5 0
8296.5 0
8297.5 0
8298.5 0
8299.5 0
8300.5 0
8301.5 0.142857
8302.5 0
8303.5 1
8304.5 0
8305.5 1
8306.5 0
8307.5 0
8308.5 0
8309.5 0
8310.5 0
8311.5 0
8312.5 0
8313.5 0
8314.5 0
8315.5 0
8316.5 0
8317.5 0
8318.5 0.142857
8319.5 0
8320.5 -0.857143
8321.5 1
8322.5 -0.857143
8323.5 0
8324.5 0
8325.5 0
8326.5 -0.857143
8327.5 0
8328.5 0
8329.5 0
8330.5 0
8331.5 0
8332.5 1
8333.5 0
8334.5 0
8335.5 -0.857143
8336.5 0
8337.5 -0.857143
8338.5 1
8339.5 0
8340.5 -0.857143
8341.5 0
8342.5 0
8343.5 1
8344.5 -0.857143
8345.5 0
8346.5 0
8347.5 0
8348.5 0
8349.5 0
8350.5 0
8351.5 0
8352.5 0
8353.5 0
8354.5 0
8355.5 0
8356.5 -0.857143
8357.5 0
8358.5 1
8359.5 1
8360.5 0
8361.5 0
8362.5 0
8363.5 1
8364.5 0
8365.5 1
8366.5 0
8367.5 0
8368.5 0
8369.5 0
8370.5 0
8371.5 0
8372.5 0
8373.5 0
8374.5 -0.857143
8375.5 0
8376.5 0
8377.5 0
8378.5 0
8379.5 0
8380.5 0
8381.5 0
8382.5 0
8383.5 0
8384.5 0
8385.5 0
8386.5 2
8387.5 0
8388.5 0
8389.5 0
8390.5 0
8391.5 -0.857143
8392.5 0
8393.5 -0.857143
8394.5 0
8395.5 0
8396.5 0.142857
8397.5 0.142857
8398.5 -0.857143
8399.5 0
8400.5 0
8401.5 0
8402.5 0
8403.5 0
8404.5 0
8405.5 0
8406.5 0
8407.5 0
8408.5 0
8409.5 0
8410.5 1
8411.5 1
8412.5 0
8413.5 0
8414.5 0
8415.5 0
8416.5 0
8417.5 0
8418.5 1
8419.5 0
8420.5 0
8421.5 0
8422.5 0
8423.5 0
8424.5 0
8425.5 0
8426.5 0
8427.5 0
8428.5 0
8429.5 0
8430.5 0
8431.5 -0.857143
8432.5 0
8433.5 0
8434.5 0
8435.5 0
8436.5 0
8437.5 1
8438.5 1
8439.5 0
8440.5 0
8441.5 0
8442.5 0
8443.5 0
8444.5 0
8445.5 0
8446.5 0
8447.5 0
8448.5 0
8449.5 1
8450.5 0
8451.5 0
8452.5 0
8453.5 -0.857143
8454.5 0
8455.5 0
8456.5 0
8457.5 0
8458.5 -0.857143
8459.5 0
8460.5 0
8461.5 0
8462.5 0
8463.5 0
8464.5 0
8465.5 0
8466.5 0
8467.5 1
8468.5 0
8469.5 0
8470.5 0
8471.5 0
8472.5 0
8473.5 -0.857143
8474.5 0
8475.5 0
8476.5 0
8477.5 0.142857
8478.5 0
8479.5 0
8480.5 0
8481.5 0
8482.5 0
8483.5 0
8484.5 0
8485.5 0
8486.5 1
8487.5 -0.857143
8488.5 0
8489.5 0
8490.5 1
8491.5 0
8492.5 0
8493.5 0
8494.5 -1.71429
8495.5 0
8496.5 0
8497.5 0
8498.5 0
8499.5 0
8500.5 0
8501.5 0
8502.5 0
8503.5 0
8504.5 -0.857143
8505.5 -0.857143
8506.5 0
8507.5 1
8508.5 0
8509.5 0
8510.5 -0.857143
8511.5 0
8512.5 1
8513.5 0
8514.5 0
8515.5 0
8516.5 0
8517.5 0
8518.5 0
8519.5 -0.857143
8520.5 0
8521.5 0
8522.5 0
8523.5 0
8524.5 0
8525.5 -0.857143
8526.5 0
8527.5 0
8528.5 0
8529.5 1
8530.5 0
8531.5 0
8532.5 -0.857143
8533.5 -0.857143
8534.5 0
8535.5 1
8536.5 0
8537.5 0
8538.5 0
8539.5 0
8540.5 0
8541.5 0
8542.5 0
8543.5 0
8544.5 0
8545.5 0
8546.5 -0.857143
8547.5 -0.857143
8548.5 0
8549.5 0
8550.5 0
8551.5 0
8552.5 0
8553.5 0
8554.5 0
8555.5 0
8556.5 0
8557.5 0
8558.5 0
8559.5 0
8560.5 0
8561.5 0
8562.5 -0.857143
8563.5 0
8564.5 -0.857143
8565.5 0
8566.5 0
8567.5 0
8568.5 0
8569.5 0
8570.5 0
8571.5 0
8572.5 -0.857143
8573.5 0
8574.5 0
8575.5 -0.857143
8576.5 0
8577.5 0
8578.5 2
8579.5 -0.857143
8580.5 0.142857
8581.5 0
8582.5 0
8583.5 0
8584.5 0
8585.5 -0.857143
8586.5 0
8587.5 0
8588.5 -0.857143
8589.5 0
8590.5 0
8591.5 -0.857143
8592.5 0
8593.5 0
8594.5 0
8595.5 0
8596.5 0
8597.5 0
8598.5 0
8599.5 0
8600.5 -0.857143
8601.5 0
8602.5 0
8603.5 0
8604.5 0
8605.5 0
8606.5 0.142857
8607.5 0
8608.5 0
8609.5 0
8610.5 0
8611.5 0
8612.5 0
8613.5 0
8614.5 0
8615.5 0
8616.5 0
8617.5 0
8618.5 0
8619.5 0
8620.5 0
8621.5 0
8622.5 0
8623.5 0
8624.5 0
8625.5 1
8626.5 0
8627.5 0
8628.5 0
8629.5 -0.857143
8630.5 1
8631.5 1
8632.5 0
8633.5 -0.857143
8634.5 0
8635.5 0
8636.5 0
8637.5 0
8638.5 0
8639.5 0
8640.5 1
8641.5 0
8642.5 0
8643.5 0
8644.5 0
8645.5 -0.857143
8646.5 1
8647.5 0
8648.5 0
8649.5 1
8650.5 0
8651.5 0
8652.5 -0.857143
8653.5 0
8654.5 0
8655.5 0
8656.5 0
8657.5 0
8658.5 0
8659.5 1
8660.5 0
8661.5 0
8662.5 0
8663.5 0
8664.5 0
8665.5 0
8666.5 0
8667.5 -0.857143
8668.5 0
8669.5 0
8670.5 0
8671.5 -0.857143
8672.5 0
8673.5 0
8674.5 0
8675.5 0
8676.5 0
8677.5 0
8678.5 0
8679.5 0
8680.5 1
8681.5 0
8682.5 0
8683.5 0
8684.5 0
8685.5 0
8686.5 1
8687.5 0
8688.5 0
8689.5 0
8690.5 0
8691.5 0
8692.5 0
8693.5 0
8694.5 0
8695.5 0
8696.5 0
8697.5 -0.857143
8698.5 0
8699.5 -0.857143
8700.5 0
8701.5 0
8702.5 -0.857143
8703.5 0
8704.5 0
8705.5 0
8706.5 -0.857143
8707.5 0
8708.5 1
8709.5 0
8710.5 0
8711.5 0
8712.5 0
8713.5 0
8714.5 0
8715.5 0
8716.5 0
8717.5 0
8718.5 0
8719.5 0
8720.5 0
8721.5 0
8722.5 0
8723.5 0
8724.5 0
8725.5 0
8726.5 1
8727.5 0
8728.5 1
8729.5 0
8730.5 0
8731.5 0
8732.5 0
8733.5 0
8734.5 0
8735.5 0
8736.5 0
8737.5 -0.857143
8738.5 0
8739.5 0
8740.5 0
8741.5 0
8742.5 0
8743.5 0
8744.5 0
8745.5 0.142857
8746.5 0
8747.5 1
8748.5 -0.857143
8749.5 0
8750.5 0
8751.5 0
8752.5 0
8753.5 0
8754.5 0
8755.5 0
8756.5 0
8757.5 0
8758.5 0
8759.5 0
8760.5 -0.857143
8761.5 0
8762.5 0
8763.5 0
8764.5 -0.857143
8765.5 0
8766.5 0
8767.5 0
8768.5 -0.857143
8769.5 0
8770.5 1
8771.5 0
8772.5 0
8773.5 1
8774.5 0
8775.5 0
8776.5 0
8777.5 0
8778.5 0
8779.5 -0.857143
8780.5 0
8781.5 0
8782.5 1
8783.5 0
8784.5 0
8785.5 0
8786.5 0
8787.5 -0.857143
8788.5 0
8789.5 0
8790.5 0
8791.5 0
8792.5 0
8793.5 0
8794.5 0
8795.5 0
8796.5 -0.857143
8797.5 0
8798.5 1
8799.5 -0.857143
8800.5 1
8801.5 1
8802.5 0
8803.5 0
8804.5 0
8805.5 0
8806.5 0
8807.5 1
8808.5 0
8809.5 0
8810.5 0
8811.5 0
8812.5 0
8813.5 0
8814.5 -1.71429
8815.5 0
8816.5 0
8817.5 0
8818.5 -0.857143
8819.5 0
8820.5 1
8821.5 0
8822.5 1
8823.5 0
8824.5 0
8825.5 0
8826.5 1
8827.5 0
8828.5 0
8829.5 0
8830.5 0
8831.5 0
8832.5 0
8833.5 0
8834.5 0
8835.5 0
8836.5 0
8837.5 0
8838.5 0
8839.5 2
8840.5 1
8841.5 0
8842.5 1
8843.5 0
8844.5 2
8845.5 -0.714286
8846.5 0
8847.5 0
8848.5 0
8849.5 0
8850.5 0
8851.5 0
8852.5 0
8853.5 0
8854.5 0
8855.5 0
8856.5 0
8857.5 0
8858.5 0
8859.5 -0.857143
8860.5 0
8861.5 0
8862.5 0
8863.5 0
8864.5 0
8865.5 0
8866.5 -0.857143
8867.5 0
8868.5 0
8869.5 0
8870.5 0
8871.5 0
8872.5 0
8873.5 1
8874.5 -0.857143
8875.5 0
8876.5 0
8877.5 0
8878.5 0
8879.5 0
8880.5 0
8881.5 0
8882.5 0
8883.5 0
8884.5 0
8885.5 0
8886.5 0
8887.5 0
8888.5 0
8889.5 0
8890.5 0.142857
8891.5 0
8892.5 0
8893.5 0
8894.5 0
8895.5 0
8896.5 0
8897.5 0
8898.5 0
8899.5 -0.857143
8900.5 0
8901.5 0
8902.5 0
8903.5 0
8904.5 0
8905.5 0
8906.5 0
8907.5 0
8908.5 0
8909.5 1
8910.5 0
8911.5 -0.857143
8912.5 0
8913.5 0.142857
8914.5 0
8915.5 -0.857143
8916.5 -0.857143
8917.5 0
8918.5 -0.857143
8919.5 3
8920.5 -0.857143
8921.5 0
8922.5 -0.857143
8923.5 0
8924.5 -0.857143
8925.5 0
8926.5 0
8927.5 0
8928.5 0
8929.5 0
8930.5 0
8931.5 0
8932.5 0
8933.5 1
8934.5 0
8935.5 0
8936.5 0
8937.5 0
8938.5 0
8939.5 0
8940.5 0
8941.5 -0.857143
8942.5 0
8943.5 0
8944.5 0
8945.5 0
8946.5 0
8947.5 -0.857143
8948.5 1
8949.5 -0.857143
8950.5 1
8951.5 -0.857143
8952.5 0
8953.5 0
8954.5 0
8955.5 0
8956.5 0
8957.5 0
8958.5 0
8959.5 0
8960.5 0
8961.5 0
8962.5 -0.857143
8963.5 1
8964.5 -0.714286
8965.5 1
8966.5 -0.857143
8967.5 0
8968.5 1
8969.5 0
8970.5 0
8971.5 0
8972.5 0
8973.5 0
8974.5 0
8975.5 0
8976.5 -0.857143
8977.5 0
8978.5 0
8979.5 0
8980.5 -0.857143
8981.5 1
8982.5 0
8983.5 -0.857143
8984.5 1
8985.5 0
8986.5 0
8987.5 0
8988.5 0
8989.5 0
8990.5 0
8991.5 0
8992.5 1
8993.5 0
8994.5 0
8995.5 0
8996.5 0
8997.5 0
8998.5 0
8999.5 1
9000.5 0
9001.5 0
9002.5 0
9003.5 0
9004.5 0
9005.5 0
9006.5 0
9007.5 0
9008.5 0
9009.5 0
9010.5 0
9011.5 0
9012.5 0
9013.5 0
9014.5 0
9015.5 0
9016.5 0
9017.5 0
9018.5 -0.857143
9019.5 1
9020.5 0
9021.5 0
9022.5 0
9023.5 1
9024.5 0
9025.5 0
9026.5 0
9027.5 0
9028.5 0
9029.5 0
9030.5 0
9031.5 0
9032.5 0
9033.5 0
9034.5 0
9035.5 1
9036.5 0
9037.5 0
9038.5 0
9039.5 -0.857143
9040.5 0
9041.5 0
9042.5 0
9043.5 0
9044.5 0
9045.5 0
9046.5 1
9047.5 0
9048.5 1
9049.5 0
9050.5 0
9051.5 1
9052.5 0
9053.5 0
9054.5 1
9055.5 0
9056.5 0
9057.5 0
9058.5 -1.71429
9059.5 0
9060.5 0
9061.5 -0.857143
9062.5 0
9063.5 -0.857143
9064.5 0
9065.5 0
9066.5 0
9067.5 -1.71429
9068.5 0
9069.5 0.142857
9070.5 0
9071.5 0
9072.5 0
9073.5 0
9074.5 -0.857143
9075.5 0
9076.5 0
9077.5 0
9078.5 2
9079.5 0
9080.5 0
9081.5 -0.857143
9082.5 0
9083.5 0
9084.5 0
9085.5 0
9086.5 0
9087.5 0
9088.5 1
9089.5 0
9090.5 0
9091.5 0
9092.5 0
9093.5 -0.857143
9094.5 0
9095.5 0
9096.5 1
9097.5 1
9098.5 0
9099.5 0
9100.5 0
9101.5 0
9102.5 -0.857143
9103.5 0
9104.5 0
9105.5 0
9106.5 0
9107.5 0
9108.5 0
9109.5 0
9110.5 -0.857143
9111.5 0
9112.5 0
9113.5 0
9114.5 -0.857143
9115.5 0
9116.5 0
9117.5 -0.857143
9118.5 0
9119.5 0
9120.5 0
9121.5 0
9122.5 0
9123.5 0
9124.5 0
9125.5 0
9126.5 0
9127.5 -0.857143
9128.5 -0.857143
9129.5 0
9130.5 0
9131.5 0
9132.5 0
9133.5 0
9134.5 1
9135.5 0
9136.5 1
9137.5 0
9138.5 -0.857143
9139.5 0
9140.5 -0.857143
9141.5 0
9142.5 0
9143.5 0
9144.5 0
9145.5 0
9146.5 -0.857143
9147.5 0
9148.5 0
9149.5 0
9150.5 0
9151.5 0
9152.5 0
9153.5 -0.857143
9154.5 0
9155.5 0
9156.5 0
9157.5 0
9158.5 1
9159.5 0
9160.5 0
9161.5 0
9162.5 0
9163.5 0
9164.5 0
9165.5 0
9166.5 0
9167.5 0
9168.5 0
9169.5 0
9170.5 0
9171.5 0
9172.5 0
9173.5 0
9174.5 0
9175.5 1
9176.5 0
9177.5 0
9178.5 0
9179.5 0
9180.5 0
9181.5 0
9182.5 0
9183.5 0
9184.5 0
9185.5 0
9186.5 0
9187.5 0
9188.5 0
9189.5 0
9190.5 0
9191.5 0
9192.5 0
9193.5 0
9194.5 0
9195.5 0
9196.5 0
9197.5 2
9198.5 0
9199.5 0
9200.5 0
9201.5 0
9202.5 0
9203.5 0
9204.5 0
9205.5 0
9206.5 0
9207.5 1
9208.5 1
9209.5 0
9210.5 0
9211.5 0
9212.5 0
9213.5 1
9214.5 0
9215.5 1
9216.5 0
9217.5 0
9218.5 0
9219.5 0
9220.5 -0.857143
9221.5 -0.857143
9222.5 0
9223.5 0
9224.5 0
9225.5 0
9226.5 0
9227.5 0
9228.5 0
9229.5 0
9230.5 0
9231.5 0
9232.5 0
9233.5 0
9234.5 0
9235.5 0
9236.5 0
9237.5 0
9238.5 0
9239.5 0
9240.5 0
9241.5 0
9242.5 0
9243.5 0
9244.5 0
9245.5 0
9246.5 0
9247.5 0
9248.5 0
9249.5 0
9250.5 0
9251.5 0
9252.5 0
9253.5 0
9254.5 0
9255.5 0
9256.5 0
9257.5 0
9258.5 0
9259.5 -1.71429
9260.5 0
9261.5 0
9262.5 0
9263.5 0
9264.5 0
9265.5 -0.857143
9266.5 0
9267.5 0
9268.5 -0.857143
9269.5 0
9270.5 0
9271.5 1
9272.5 0
9273.5 0
9274.5 0
9275.5 0
9276.5 0
9277.5 0
9278.5 1
9279.5 0
9280.5 0
9281.5 0
9282.5 0
9283.5 0
9284.5 0
9285.5 0
9286.5 0
9287.5 0
9288.5 1
9289.5 0
9290.5 0
9291.5 0
9292.5 0
9293.5 0
9294.5 0.142857
9295.5 0
9296.5 -0.857143
9297.5 0
9298.5 0
9299.5 -0.857143
9300.5 0
9301.5 0
9302.5 0
9303.5 0
9304.5 0
9305.5 0
9306.5 0
9307.5 0
9308.5 0
9309.5 0
9310.5 1
9311.5 0
9312.5 0
9313.5 0
9314.5 0
9315.5 0
9316.5 0
9317.5 1
9318.5 0
9319.5 0
9320.5 0
9321.5 0
9322.5 0
9323.5 0
9324.5 0
9325.5 1
9326.5 0
9327.5 0
9328.5 0
9329.5 -0.857143
9330.5 0
9331.5 0
9332.5 2
9333.5 -0.857143
9334.5 0
9335.5 -1.71429
9336.5 0
9337.5 0
9338.5 0
9339.5 0
9340.5 1
9341.5 -0.857143
9342.5 0
9343.5 0
9344.5 0
9345.5 0
9346.5 0
9347.5 0
9348.5 0
9349.5 -0.857143
9350.5 0
9351.5 0
9352.5 0
9353.5 0
9354.5 0
9355.5 0
9356.5 0
9357.5 0
9358.5 0
9359.5 -0.857143
9360.5 0
9361.5 0
9362.5 0
9363.5 0
9364.5 0
9365.5 0
9366.5 0
9367.5 0
9368.5 0
9369.5 0
9370.5 0
9371.5 0
9372.5 0
9373.5 0
9374.5 0
9375.5 0
9376.5 0
9377.5 0
9378.5 0
9379.5 0
9380.5 0
9381.5 0
9382.5 0
9383.5 0
9384.5 0
9385.5 0
9386.5 0
9387.5 0
9388.5 0
9389.5 0
9390.5 0
9391.5 0
9392.5 0
9393.5 0
9394.5 1
9395.5 1
9396.5 0
9397.5 -0.857143
9398.5 0
9399.5 0
9400.5 -0.857143
9401.5 -0.857143
9402.5 0
9403.5 0
9404.5 0
9405.5 1
9406.5 0
9407.5 0
9408.5 0
9409.5 0
9410.5 0
9411.5 0
9412.5 0
9413.5 0
9414.5 0
9415.5 0
9416.5 0
9417.5 0
9418.5 0
9419.5 -0.857143
9420.5 -0.857143
9421.5 0
9422.5 0
9423.5 0
9424.5 0
9425.5 0
9426.5 0
9427.5 0.142857
9428.5 0
9429.5 0
9430.5 0
9431.5 0
9432.5 0
9433.5 0
9434.5 0
9435.5 0
9436.5 0
9437.5 0
9438.5 0
9439.5 0
9440.5 0
9441.5 0
9442.5 0
9443.5 1
9444.5 0
9445.5 0
9446.5 1
9447.5 1
9448.5 0
9449.5 0
9450.5 0
9451.5 0
9452.5 -0.857143
9453.5 0
9454.5 0
9455.5 0
9456.5 0
9457.5 0
9458.5 0
9459.5 0
9460.5 0
9461.5 0
9462.5 1
9463.5 0
9464.5 0
9465.5 0
9466.5 0
9467.5 1
9468.5 0
9469.5 0
9470.5 0
9471.5 0
9472.5 0
9473.5 0
9474.5 0
9475.5 0
9476.5 0
9477.5 1
9478.5 0
9479.5 0
9480.5 0
9481.5 1
9482.5 0
9483.5 0
9484.5 0
9485.5 0
9486.5 1
9487.5 0
9488.5 0
9489.5 0
9490.5 0
9491.5 -0.857143
9492.5 0
9493.5 0
9494.5 0
9495.5 0
9496.5 0
9497.5 0
9498.5 0
9499.5 0
9500.5 1
9501.5 -0.857143
9502.5 0
9503.5 0
9504.5 0
9505.5 0
9506.5 0
9507.5 0
9508.5 0
9509.5 0
9510.5 0
9511.5 0
9512.5 0
9513.5 0
9514.5 0
9515.5 0
9516.5 0
9517.5 0
9518.5 0
9519.5 0
9520.5 0
9521.5 0
9522.5 0
9523.5 0
9524.5 0
9525.5 0
9526.5 0
9527.5 0
9528.5 0
9529.5 0
9530.5 0
9531.5 1
9532.5 0
9533.5 0
9534.5 0
9535.5 0
9536.5 0
9537.5 0
9538.5 0
9539.5 0
9540.5 0
9541.5 0
9542.5 0
9543.5 0
9544.5 0
9545.5 0
9546.5 1
9547.5 0
9548.5 0
9549.5 0
9550.5 0
9551.5 0
9552.5 -0.857143
9553.5 1
9554.5 0
9555.5 0
9556.5 0
9557.5 0
9558.5 0
9559.5 0
9560.5 0
9561.5 0
9562.5 0
9563.5 0
9564.5 0
9565.5 0
9566.5 -0.857143
9567.5 0
9568.5 0
9569.5 0
9570.5 0
9571.5 0
9572.5 0
9573.5 0
9574.5 0
9575.5 0
9576.5 0
9577.5 0
9578.5 0
9579.5 1
9580.5 0
9581.5 0
9582.5 -0.857143
9583.5 1
9584.5 0
9585.5 0
9586.5 0
9587.5 0
9588.5 0
9589.5 0
9590.5 0
9591.5 0
9592.5 0
9593.5 0
9594.5 0
9595.5 -0.857143
9596.5 0
9597.5 0
9598.5 0
9599.5 0
9600.5 0
9601.5 0
9602.5 1
9603.5 0
9604.5 0
9605.5 0
9606.5 0
9607.5 -0.857143
9608.5 0
9609.5 -0.857143
9610.5 0
9611.5 0
9612.5 0
9613.5 -0.857143
9614.5 0
9615.5 0
9616.5 0
9617.5 0
9618.5 0
9619.5 0
9620.5 0
9621.5 -0.857143
9622.5 0
9623.5 0
9624.5 1
9625.5 0
9626.5 0
9627.5 0
9628.5 -0.857143
9629.5 0
9630.5 0
9631.5 0
9632.5 0
9633.5 0
9634.5 0
9635.5 0
9636.5 0
9637.5 0.142857
9638.5 0
9639.5 0
9640.5 0
9641.5 0
9642.5 0
9643.5 0
9644.5 0
9645.5 0
9646.5 0
9647.5 0
9648.5 -0.857143
9649.5 0
9650.5 0
9651.5 0
9652.5 0
9653.5 0
9654.5 0
9655.5 0
9656.5 0
9657.5 -0.857143
9658.5 0
9659.5 -0.857143
9660.5 0
9661.5 0
9662.5 0
9663.5 0
9664.5 0
9665.5 0
9666.5 0
9667.5 1
9668.5 0
9669.5 0
9670.5 -0.857143
9671.5 0
9672.5 0
9673.5 0
9674.5 0
9675.5 0
9676.5 0
9677.5 0
9678.5 0
9679.5 0
9680.5 0
9681.5 0
9682.5 0
9683.5 0
9684.5 0
9685.5 0
9686.5 0
9687.5 0
9688.5 0
9689.5 0
9690.5 0
9691.5 0
9692.5 0
9693.5 0
9694.5 0
9695.5 0
9696.5 0
9697.5 -0.857143
9698.5 0
9699.5 0
9700.5 1
9701.5 0
9702.5 0
9703.5 0
9704.5 0
9705.5 0
9706.5 0
9707.5 0
9708.5 0
9709.5 0
9710.5 0
9711.5 0
9712.5 0
9713.5 0
9714.5 0
9715.5 0
9716.5 1
9717.5 0
9718.5 0
9719.5 0
9720.5 -0.857143
9721.5 1
9722.5 0
9723.5 -0.857143
9724.5 0
9725.5 0
9726.5 0
9727.5 0
9728.5 0
9729.5 0
9730.5 0
9731.5 0
9732.5 0
9733.5 0
9734.5 0
9735.5 0
9736.5 0
9737.5 0
9738.5 0
9739.5 0
9740.5 0
9741.5 0
9742.5 0
9743.5 0
9744.5 0
9745.5 0
9746.5 -0.857143
9747.5 0
9748.5 0
9749.5 0
9750.5 0
9751.5 0
9752.5 0
9753.5 0
9754.5 0
9755.5 0
9756.5 0
9757.5 0
9758.5 0
9759.5 0
9760.5 0.142857
9761.5 0
9762.5 0
9763.5 0
9764.5 1
9765.5 0
9766.5 0
9767.5 0
9768.5 0
9769.5 0
9770.5 0
9771.5 0
9772.5 0
9773.5 0
9774.5 0
9775.5 0
9776.5 0
9777.5 0
9778.5 0
9779.5 0
9780.5 0
9781.5 0
9782.5 0
9783.5 0
9784.5 0
9785.5 0
9786.5 0
9787.5 0
9788.5 0
9789.5 0
9790.5 0
9791.5 0
9792.5 0
9793.5 0
9794.5 0
9795.5 0
9796.5 0
9797.5 0
9798.5 0
9799.5 0
9800.5 -0.857143
9801.5 0
9802.5 0
9803.5 0
9804.5 0
9805.5 0
9806.5 0
9807.5 0
9808.5 0
9809.5 0
9810.5 0
9811.5 -0.857143
9812.5 0
9813.5 0
9814.5 0
9815.5 0
9816.5 0
9817.5 0
9818.5 0
9819.5 0
9820.5 0
9821.5 0
9822.5 0
9823.5 0
9824.5 0
9825.5 1
9826.5 0
9827.5 0
9828.5 0
9829.5 0
9830.5 0
9831.5 0
9832.5 0
9833.5 0
9834.5 0
9835.5 0
9836.5 0
9837.5 0
9838.5 0
9839.5 0
9840.5 0
9841.5 0
9842.5 0
9843.5 0
9844.5 0
9845.5 0
9846.5 0
9847.5 0
9848.5 0
9849.5 0
9850.5 0
9851.5 0
9852.5 0
9853.5 0
9854.5 0
9855.5 0
9856.5 0
9857.5 0
9858.5 0
9859.5 0
9860.5 0
9861.5 0
9862.5 0
9863.5 0
9864.5 0
9865.5 0
9866.5 0
9867.5 0
9868.5 1
9869.5 0
9870.5 0
9871.5 0
9872.5 0
9873.5 0
9874.5 0
9875.5 -0.857143
9876.5 0
9877.5 0
9878.5 0
9879.5 0
9880.5 0
9881.5 0
9882.5 0
9883.5 0
9884.5 0
9885.5 0
9886.5 0
9887.5 0
9888.5 0
9889.5 0
9890.5 0
9891.5 0
9892.5 0
9893.5 0
9894.5 0
9895.5 0
9896.5 0
9897.5 0
9898.5 0
9899.5 1
9900.5 0
9901.5 0
9902.5 0
9903.5 0
9904.5 0
9905.5 0
9906.5 0
9907.5 0
9908.5 0
9909.5 0
9910.5 0
9911.5 0
9912.5 -0.857143
9913.5 0
9914.5 0
9915.5 0
9916.5 0
9917.5 0
9918.5 0
9919.5 1
9920.5 0
9921.5 0
9922.5 0
9923.5 0
9924.5 0
9925.5 1
9926.5 0
9927.5 0
9928.5 0
9929.5 0
9930.5 0
9931.5 0
9932.5 0
9933.5 0
9934.5 0
9935.5 -0.857143
9936.5 0
9937.5 0
9938.5 0
9939.5 0
9940.5 0
9941.5 1
9942.5 0
9943.5 0
9944.5 0
9945.5 0
9946.5 0
9947.5 0
9948.5 0
9949.5 0
9950.5 0
9951.5 0
9952.5 0
9953.5 0
9954.5 0
9955.5 0
9956.5 0
9957.5 0
9958.5 0
9959.5 0
9960.5 0
9961.5 0
9962.5 -0.857143
9963.5 0
9964.5 0
9965.5 0
9966.5 0
9967.5 0
9968.5 0
9969.5 0
9970.5 0
9971.5 0
9972.5 0
9973.5 0
9974.5 0
9975.5 0
9976.5 0
9977.5 0
9978.5 0
9979.5 0
9980.5 0
9981.5 0
9982.5 0
9983.5 0
9984.5 0
9985.5 0
9986.5 0
9987.5 0
9988.5 0
9989.5 0
9990.5 -0.857143
9991.5 0
9992.5 0
9993.5 0
9994.5 0
9995.5 0
9996.5 0
9997.5 0
9998.5 0
9999.5 0
10000.5 0
10001.5 0
10002.5 0
10003.5 0
10004.5 0
10005.5 0
10006.5 -0.857143
10007.5 0
10008.5 0
10009.5 0
10010.5 0
10011.5 0
10012.5 0
10013.5 0
10014.5 0
10015.5 0
10016.5 0
10017.5 0
10018.5 0
10019.5 0
10020.5 0
10021.5 0
10022.5 0
10023.5 0
10024.5 0
10025.5 0
10026.5 0
10027.5 0
10028.5 0
10029.5 0
10030.5 0
10031.5 0
10032.5 0
10033.5 0
10034.5 0
10035.5 0
10036.5 0
10037.5 0
10038.5 0
10039.5 0
10040.5 0
10041.5 0
10042.5 0
10043.5 0
10044.5 0
10045.5 0
10046.5 0
10047.5 0
10048.5 0
10049.5 0
10050.5 0
10051.5 0
10052.5 0
10053.5 0
10054.5 0
10055.5 0
10056.5 0
10057.5 0
10058.5 -0.857143
10059.5 0
10060.5 0
10061.5 1
10062.5 0
10063.5 0
10064.5 0
10065.5 0
10066.5 0
10067.5 0
10068.5 0
10069.5 0
10070.5 0
10071.5 1
10072.5 0
10073.5 0
10074.5 0
10075.5 0
10076.5 0
10077.5 0
10078.5 0
10079.5 0
10080.5 0
10081.5 0
10082.5 0
10083.5 0
10084.5 0
10085.5 0
10086.5 0
10087.5 0
10088.5 0
10089.5 0
10090.5 0
10091.5 0
10092.5 0
10093.5 0
10094.5 0
10095.5 0
10096.5 0
10097.5 0
10098.5 0
10099.5 0
10100.5 0
10101.5 0
10102.5 0
10103.5 0
10104.5 0
10105.5 0
10106.5 0
10107.5 0
10108.5 0
10109.5 0
10110.5 0
10111.5 0
10112.5 0
10113.5 0
10114.5 0
10115.5 0
10116.5 0
10117.5 0
10118.5 0
10119.5 0
10120.5 0
10121.5 0
10122.5 0
10123.5 0
10124.5 0
10125.5 0
10126.5 0
10127.5 0
10128.5 0
10129.5 0
10130.5 0
10131.5 0
10132.5 0
10133.5 0
10134.5 0
10135.5 0
10136.5 0
10137.5 0
10138.5 0
10139.5 0
10140.5 0
10141.5 0
10142.5 0
10143.5 0
10144.5 0
10145.5 0
10146.5 0
10147.5 0
10148.5 0
10149.5 0
10150.5 0
10151.5 0
10152.5 0
10153.5 0
10154.5 0
10155.5 0
10156.5 0
10157.5 0
10158.5 -0.857143
10159.5 0
10160.5 0
10161.5 0
10162.5 0
10163.5 0
10164.5 0
10165.5 0
10166.5 0
10167.5 0
10168.5 0
10169.5 0
10170.5 0
10171.5 0
10172.5 0
10173.5 0
10174.5 0
10175.5 0
10176.5 0
10177.5 0
10178.5 0
10179.5 0
10180.5 0
10181.5 0
10182.5 0
10183.5 0
10184.5 0
10185.5 0
10186.5 0
10187.5 0
10188.5 0
10189.5 0
10190.5 -0.857143
10191.5 0
10192.5 0
10193.5 0
10194.5 0
10195.5 0
10196.5 0
10197.5 0
10198.5 0
10199.5 0
10200.5 0
10201.5 0
10202.5 0
10203.5 0
10204.5 0
10205.5 0
10206.5 0
10207.5 0
10208.5 0
10209.5 0
10210.5 0
10211.5 0
10212.5 0
10213.5 0
10214.5 0
10215.5 0
10216.5 0
10217.5 0
10218.5 0
10219.5 0
10220.5 0
10221.5 0
10222.5 0
10223.5 0
10224.5 0
10225.5 0
10226.5 0
10227.5 0
10228.5 0
10229.5 0
10230.5 0
10231.5 0
10232.5 0
10233.5 0
10234.5 0
10235.5 0
10236.5 0
10237.5 0
10238.5 0
10239.5 0
10240.5 0
10241.5 0
10242.5 0
10243.5 0
10244.5 0
10245.5 0
10246.5 0
10247.5 0
10248.5 0
10249.5 0
10250.5 0
10251.5 0
10252.5 0
10253.5 0
10254.5 0
10255.5 0
10256.5 0
10257.5 0
10258.5 0
10259.5 0
10260.5 0
10261.5 0
10262.5 0
10263.5 0
10264.5 0
10265.5 0
10266.5 0
10267.5 0
10268.5 0
10269.5 0
10270.5 0
10271.5 0
10272.5 0
10273.5 0
10274.5 0
10275.5 0
10276.5 0
10277.5 0
10278.5 0
10279.5 0
10280.5 0
10281.5 0
10282.5 0
10283.5 0
10284.5 0
10285.5 0
10286.5 0
10287.5 0
10288.5 0
10289.5 0
10290.5 0
10291.5 0
10292.5 0
10293.5 0
10294.5 0
10295.5 0
10296.5 0
10297.5 0
10298.5 0
10299.5 0
10300.5 0
10301.5 0
10302.5 0
10303.5 0
10304.5 0
10305.5 0
10306.5 0
10307.5 0
10308.5 0
10309.5 0
10310.5 0
10311.5 0
10312.5 0
10313.5 0
10314.5 0
10315.5 0
10316.5 0
10317.5 0
10318.5 0
10319.5 0
10320.5 0
10321.5 0
10322.5 0
10323.5 0
10324.5 0
10325.5 0
10326.5 0
10327.5 0
10328.5 0
10329.5 0
10330.5 0
10331.5 0
10332.5 0
10333.5 0
10334.5 0
10335.5 0
10336.5 0
10337.5 0
10338.5 0
10339.5 0
10340.5 0
10341.5 0
10342.5 1
10343.5 0
10344.5 0
10345.5 0
10346.5 0
10347.5 0
10348.5 0
10349.5 0
10350.5 0
10351.5 0
10352.5 0
10353.5 0
10354.5 0
10355.5 0
10356.5 0
10357.5 0
10358.5 0
10359.5 0
10360.5 0
10361.5 0
10362.5 0
10363.5 0
10364.5 0
10365.5 0
10366.5 0
10367.5 0
10368.5 0
10369.5 0
10370.5 0
10371.5 0
10372.5 0
10373.5 0
10374.5 0
10375.5 0
10376.5 0
10377.5 0
10378.5 0
10379.5 0
10380.5 0
10381.5 0
10382.5 0
10383.5 0
10384.5 0
10385.5 1
10386.5 0
10387.5 0
10388.5 0
10389.5 0
10390.5 0
10391.5 0
10392.5 0
10393.5 0
10394.5 0
10395.5 0
10396.5 0
10397.5 0
10398.5 0
10399.5 0
10400.5 0
10401.5 0
10402.5 0
10403.5 0
10404.5 0
10405.5 0
10406.5 0
10407.5 0
10408.5 0
10409.5 0
10410.5 0
10411.5 0
10412.5 -0.857143
10413.5 0
10414.5 0
10415.5 0
10416.5 0
10417.5 0
10418.5 0
10419.5 0
10420.5 0
10421.5 0
10422.5 0
10423.5 0
10424.5 0
10425.5 0
10426.5 0
10427.5 0
10428.5 0
10429.5 0
10430.5 0
10431.5 0
10432.5 0
10433.5 0
10434.5 0
10435.5 0
10436.5 0
10437.5 0
10438.5 0
10439.5 0
10440.5 0
10441.5 0
10442.5 0
10443.5 0
10444.5 0
10445.5 0
10446.5 0
10447.5 0
10448.5 0
10449.5 0
10450.5 0
10451.5 0
10452.5 0
10453.5 0
10454.5 0
10455.5 0
10456.5 0
10457.5 0
10458.5 0
10459.5 0
10460.5 0
10461.5 0
10462.5 0
10463.5 0
10464.5 1
10465.5 0
10466.5 0
10467.5 0
10468.5 0
10469.5 0
10470.5 0
10471.5 0
10472.5 0
10473.5 0
10474.5 0
10475.5 0
10476.5 0
10477.5 0
10478.5 0
10479.5 0
10480.5 0
10481.5 0
10482.5 0
10483.5 0
10484.5 0
10485.5 0
10486.5 0
10487.5 0
10488.5 0
10489.5 0
10490.5 0
10491.5 0
10492.5 0
10493.5 0
10494.5 0
10495.5 0
10496.5 0
10497.5 0
10498.5 0
10499.5 0
10500.5 0
10501.5 0
10502.5 0
10503.5 0
10504.5 0
10505.5 0
10506.5 0
10507.5 0
10508.5 0
10509.5 0
10510.5 0
10511.5 0
10512.5 0
10513.5 0
10514.5 0
10515.5 0
10516.5 0
10517.5 0
10518.5 0
10519.5 0
10520.5 0
10521.5 0
10522.5 0
10523.5 0
10524.5 0
10525.5 0
10526.5 0
10527.5 0
10528.5 0
10529.5 0
10530.5 0
10531.5 0
10532.5 0
10533.5 0
10534.5 0
10535.5 0
10536.5 0
10537.5 0
10538.5 0
10539.5 0
10540.5 0
10541.5 0
10542.5 0
10543.5 0
10544.5 1
10545.5 0
10546.5 0
10547.5 0
10548.5 0
10549.5 0
10550.5 0
10551.5 0
10552.5 0
10553.5 0
10554.5 0
10555.5 0
10556.5 0
10557.5 0
10558.5 0
10559.5 0
10560.5 0
10561.5 0
10562.5 0
10563.5 0
10564.5 0
10565.5 0
10566.5 0
10567.5 0
10568.5 0
10569.5 0
10570.5 0
10571.5 0
10572.5 0
10573.5 0
10574.5 0
10575.5 0
10576.5 0
10577.5 0
10578.5 0
10579.5 0
10580.5 0
10581.5 0
10582.5 0
10583.5 0
10584.5 0
10585.5 0
10586.5 0
10587.5 0
10588.5 0
10589.5 0
10590.5 0
10591.5 0
10592.5 0
10593.5 0
10594.5 0
10595.5 0
10596.5 0
10597.5 0
10598.5 0
10599.5 0
10600.5 0
10601.5 0
10602.5 0
10603.5 0
10604.5 0
10605.5 0
10606.5 0
10607.5 0
10608.5 0
10609.5 0
10610.5 0
10611.5 0
10612.5 0
10613.5 0
10614.5 0
10615.5 0
10616.5 0
10617.5 0
10618.5 0
10619.5 0
10620.5 0
10621.5 0
10622.5 0
10623.5 0
10624.5 0
10625.5 0
10626.5 0
10627.5 0
10628.5 0
10629.5 0
10630.5 0
10631.5 0
10632.5 0
10633.5 0
10634.5 0
10635.5 0
10636.5 0
10637.5 0
10638.5 0
10639.5 0
10640.5 0
10641.5 0
10642.5 0
10643.5 0
10644.5 0
10645.5 0
10646.5 0
10647.5 0
10648.5 0
10649.5 0
10650.5 0
10651.5 0
10652.5 0
10653.5 0
10654.5 0
10655.5 0
10656.5 0
10657.5 0
10658.5 0
10659.5 0
10660.5 0
10661.5 0
10662.5 0
10663.5 0
10664.5 0
10665.5 0
10666.5 0
10667.5 0
10668.5 0
10669.5 0
10670.5 0
10671.5 0
10672.5 0
10673.5 0
10674.5 0
10675.5 0
10676.5 0
10677.5 0
10678.5 0
10679.5 0
10680.5 0
10681.5 0
10682.5 0
10683.5 0
10684.5 0
10685.5 0
10686.5 0
10687.5 0
10688.5 0
10689.5 0
10690.5 0
10691.5 0
10692.5 0
10693.5 0
10694.5 0
10695.5 0
10696.5 0
10697.5 0
10698.5 0
10699.5 0
10700.5 0
10701.5 0
10702.5 0
10703.5 0
10704.5 0
10705.5 0
10706.5 0
10707.5 0
10708.5 0
10709.5 0
10710.5 0
10711.5 0
10712.5 0
10713.5 0
10714.5 0
10715.5 0
10716.5 0
10717.5 0
10718.5 0
10719.5 0
10720.5 0
10721.5 0
10722.5 0
10723.5 0
10724.5 0
10725.5 0
10726.5 0
10727.5 -0.857143
10728.5 0
10729.5 0
10730.5 0
10731.5 0
10732.5 0
10733.5 0
10734.5 0
10735.5 0
10736.5 0
10737.5 0
10738.5 0
10739.5 0
10740.5 0
10741.5 0
10742.5 0
10743.5 0
10744.5 0
10745.5 0
10746.5 0
10747.5 0
10748.5 0
10749.5 0
10750.5 0
10751.5 0
10752.5 0
10753.5 0
10754.5 0
10755.5 0
10756.5 0
10757.5 0
10758.5 0
10759.5 0
10760.5 0
10761.5 0
10762.5 0
10763.5 0
10764.5 0
10765.5 0
10766.5 0
10767.5 0
10768.5 0
10769.5 0
10770.5 0
10771.5 0
10772.5 0
10773.5 0
10774.5 0
10775.5 0
10776.5 0
10777.5 0
10778.5 0
10779.5 0
10780.5 0
10781.5 0
10782.5 0
10783.5 0
10784.5 0
10785.5 0
10786.5 0
10787.5 0
10788.5 0
10789.5 0
10790.5 0
10791.5 0
10792.5 0
10793.5 0
10794.5 0
10795.5 0
10796.5 0
10797.5 0
10798.5 0
10799.5 0
10800.5 0
10801.5 0
10802.5 0
10803.5 0
10804.5 0
10805.5 0
10806.5 0
10807.5 0
10808.5 0
10809.5 0
10810.5 0
10811.5 0
10812.5 0
10813.5 0
10814.5 0
10815.5 0
10816.5 0
10817.5 0
10818.5 0
10819.5 0
10820.5 0
10821.5 0
10822.5 0
10823.5 0
10824.5 0
10825.5 0
10826.5 0
10827.5 0
10828.5 0
10829.5 0
10830.5 0
10831.5 0
10832.5 0
10833.5 0
10834.5 0
10835.5 0
10836.5 0
10837.5 0
10838.5 0
10839.5 0
10840.5 0
10841.5 0
10842.5 0
10843.5 0
10844.5 0
10845.5 0
10846.5 0
10847.5 0
10848.5 0
10849.5 -0.857143
10850.5 0
10851.5 0
10852.5 0
10853.5 0
10854.5 0
10855.5 0
10856.5 0
10857.5 0
10858.5 0
10859.5 0
10860.5 0
10861.5 0
10862.5 0
10863.5 0
10864.5 0
10865.5 0
10866.5 0
10867.5 0
10868.5 0
10869.5 -0.857143
10870.5 0
10871.5 0
10872.5 0
10873.5 0
10874.5 0
10875.5 0
10876.5 0
10877.5 0
10878.5 0
10879.5 0
10880.5 0
10881.5 0
10882.5 0
10883.5 0
10884.5 0
10885.5 0
10886.5 0
10887.5 0
10888.5 0
10889.5 0
10890.5 0
10891.5 0
10892.5 0
10893.5 0
10894.5 0
10895.5 0
10896.5 0
10897.5 0
10898.5 1
10899.5 0
10900.5 0
10901.5 0
10902.5 0
10903.5 0
10904.5 0
10905.5 0
10906.5 0
10907.5 0
10908.5 0
10909.5 0
10910.5 0
10911.5 0
10912.5 0
10913.5 0
10914.5 0
10915.5 0
10916.5 0
10917.5 0
10918.5 0
10919.5 0
10920.5 0
10921.5 0
10922.5 0
10923.5 0
10924.5 0
10925.5 0
10926.5 0
10927.5 -0.857143
10928.5 0
10929.5 0
10930.5 0
10931.5 1
10932.5 0
10933.5 0
10934.5 0
10935.5 0
10936.5 0
10937.5 0
10938.5 0
10939.5 0
10940.5 0
10941.5 0
10942.5 0
10943.5 0
10944.5 0
10945.5 0
10946.5 0
10947.5 0
10948.5 0
10949.5 0
10950.5 0
10951.5 0
10952.5 0
10953.5 0
10954.5 0
10955.5 0
10956.5 0
10957.5 0
10958.5 0
10959.5 0
10960.5 0
10961.5 0
10962.5 0
10963.5 0
10964.5 0
10965.5 0
10966.5 0
10967.5 0
10968.5 0
10969.5 0
10970.5 0
10971.5 0
10972.5 0
10973.5 0
10974.5 0
10975.5 0
10976.5 1
10977.5 0
10978.5 0
10979.5 0
10980.5 0
10981.5 0
10982.5 0
10983.5 0
10984.5 0
10985.5 0
10986.5 0
10987.5 0
10988.5 0
10989.5 0
10990.5 0
10991.5 0
10992.5 0
10993.5 0
10994.5 0
10995.5 0
10996.5 0
10997.5 0
10998.5 0
10999.5 0
11000.5 0
11001.5 0
11002.5 0
11003.5 0
11004.5 0
11005.5 0
11006.5 0
11007.5 0
11008.5 0
11009.5 0
11010.5 0
11011.5 0
11012.5 0
11013.5 1
11014.5 0
11015.5 0
11016.5 0
11017.5 0
11018.5 0
11019.5 0
11020.5 0
11021.5 0
11022.5 0
11023.5 0
11024.5 0
11025.5 0
11026.5 0
11027.5 0
11028.5 0
11029.5 -0.857143
11030.5 0
11031.5 0
11032.5 0
11033.5 0
11034.5 0
11035.5 0
11036.5 0
11037.5 0
11038.5 0
11039.5 0
11040.5 0
11041.5 0
11042.5 0
11043.5 0
11044.5 0
11045.5 0
11046.5 0
11047.5 0
11048.5 0
11049.5 0
11050.5 0
11051.5 0
11052.5 0
11053.5 0
11054.5 0
11055.5 0
11056.5 0
11057.5 0
11058.5 0
11059.5 0
11060.5 0
11061.5 0
11062.5 0
11063.5 0
11064.5 0
11065.5 0
11066.5 0
11067.5 0
11068.5 0
11069.5 0
11070.5 0
11071.5 0
11072.5 0
11073.5 0
11074.5 0
11075.5 0
11076.5 0
11077.5 0
11078.5 0
11079.5 0
11080.5 0
11081.5 0
11082.5 0
11083.5 0
11084.5 0
11085.5 0
11086.5 0
11087.5 0
11088.5 0
11089.5 0
11090.5 0
11091.5 0
11092.5 0
11093.5 0
11094.5 0
11095.5 0
11096.5 0
11097.5 0
11098.5 0
11099.5 0
11100.5 0
11101.5 0
11102.5 0
11103.5 0
11104.5 0
11105.5 0
11106.5 0
11107.5 0
11108.5 0
11109.5 0
11110.5 0
11111.5 0
11112.5 0
11113.5 0
11114.5 0
11115.5 0
11116.5 0
11117.5 0
11118.5 0
11119.5 0
11120.5 0
11121.5 0
11122.5 0
11123.5 0
11124.5 0
11125.5 0
11126.5 0
11127.5 0
11128.5 0
11129.5 0
11130.5 0
11131.5 0
11132.5 0
11133.5 0
11134.5 0
11135.5 0
11136.5 0
11137.5 0
11138.5 0
11139.5 0
11140.5 0
11141.5 0
11142.5 0
11143.5 0
11144.5 0
11145.5 0
11146.5 0
11147.5 0
11148.5 0
11149.5 0
11150.5 0
11151.5 0
11152.5 0
11153.5 0
11154.5 0
11155.5 0
11156.5 0
11157.5 0
11158.5 0
11159.5 0
11160.5 0
11161.5 0
11162.5 0
11163.5 0
11164.5 0
11165.5 0
11166.5 0
11167.5 0
11168.5 0
11169.5 0
11170.5 0
11171.5 0
11172.5 0
11173.5 0
11174.5 0
11175.5 0
11176.5 0
11177.5 0
11178.5 0
11179.5 0
11180.5 0
11181.5 0
11182.5 0
11183.5 0
11184.5 0
11185.5 0
11186.5 0
11187.5 0
11188.5 0
11189.5 0
11190.5 0
11191.5 0
11192.5 0
11193.5 0
11194.5 0
11195.5 0
11196.5 0
11197.5 0
11198.5 0
11199.5 0
11200.5 0
11201.5 0
11202.5 0
11203.5 0
11204.5 0
11205.5 0
11206.5 0
11207.5 0
11208.5 0
11209.5 0
11210.5 0
11211.5 0
11212.5 0
11213.5 0
11214.5 0
11215.5 0
11216.5 0
11217.5 0
11218.5 0
11219.5 0
11220.5 0
11221.5 0
11222.5 0
11223.5 0
11224.5 0
11225.5 0
11226.5 0
11227.5 0
11228.5 0
11229.5 0
11230.5 0
11231.5 0
11232.5 0
11233.5 0
11234.5 0
11235.5 0
11236.5 0
11237.5 0
11238.5 0
11239.5 0
11240.5 0
11241.5 0
11242.5 0
11243.5 0
11244.5 0
11245.5 0
11246.5 0
11247.5 0
11248.5 0
11249.5 0
11250.5 0
11251.5 0
11252.5 0
11253.5 0
11254.5 0
11255.5 0
11256.5 0
11257.5 0
11258.5 0
11259.5 0
11260.5 0
11261.5 0
11262.5 0
11263.5 0
11264.5 0
11265.5 0
11266.5 0
11267.5 0
11268.5 0
11269.5 0
11270.5 0
11271.5 0
11272.5 0
11273.5 0
11274.5 0
11275.5 0
11276.5 0
11277.5 0
11278.5 0
11279.5 0
11280.5 0
11281.5 0
11282.5 0
11283.5 0
11284.5 0
11285.5 0
11286.5 0
11287.5 0
11288.5 0
11289.5 0
11290.5 0
11291.5 0
11292.5 0
11293.5 0
11294.5 0
11295.5 0
11296.5 0
11297.5 0
11298.5 0
11299.5 0
11300.5 0
11301.5 0
11302.5 0
11303.5 0
11304.5 0
11305.5 0
11306.5 0
11307.5 0
11308.5 0
11309.5 0
11310.5 0
11311.5 0
11312.5 0
11313.5 0
11314.5 0
11315.5 0
11316.5 0
11317.5 0
11318.5 0
11319.5 0
11320.5 0
11321.5 0
11322.5 0
11323.5 0
11324.5 0
11325.5 0
11326.5 0
11327.5 0
11328.5 0
11329.5 0
11330.5 0
11331.5 0
11332.5 0
11333.5 0
11334.5 0
11335.5 0
11336.5 0
11337.5 0
11338.5 0
11339.5 0
11340.5 0
11341.5 0
11342.5 0
11343.5 0
11344.5 0
11345.5 0
11346.5 0
11347.5 0
11348.5 0
11349.5 0
11350.5 0
11351.5 0
11352.5 0
11353.5 0
11354.5 0
11355.5 0
11356.5 0
11357.5 0
11358.5 0
11359.5 0
11360.5 0
11361.5 0
11362.5 0
11363.5 0
11364.5 0
11365.5 0
11366.5 0
11367.5 0
11368.5 0
11369.5 0
11370.5 0
11371.5 0
11372.5 0
11373.5 0
11374.5 0
11375.5 0
11376.5 0
11377.5 0
11378.5 0
11379.5 0
11380.5 0
11381.5 0
11382.5 0
11383.5 0
11384.5 0
11385.5 0
11386.5 0
11387.5 0
11388.5 0
11389.5 -0.857143
11390.5 0
11391.5 0
11392.5 0
11393.5 0
11394.5 0
11395.5 0
11396.5 0
11397.5 0
11398.5 0
11399.5 0
11400.5 0
11401.5 0
11402.5 0
11403.5 0
11404.5 0
11405.5 0
11406.5 0
11407.5 0
11408.5 0
11409.5 0
11410.5 0
11411.5 0
11412.5 0
11413.5 0
11414.5 0
11415.5 0
11416.5 0
11417.5 0
11418.5 0
11419.5 0
11420.5 0
11421.5 0
11422.5 0
11423.5 0
11424.5 0
11425.5 0
11426.5 0
11427.5 0
11428.5 0
11429.5 0
11430.5 0
11431.5 0
11432.5 0
11433.5 0
11434.5 0
11435.5 0
11436.5 0
11437.5 0
11438.5 0
11439.5 0
11440.5 0
11441.5 0
11442.5 0
11443.5 0
11444.5 0
11445.5 0
11446.5 0
11447.5 0
11448.5 0
11449.5 0
11450.5 0
11451.5 0
11452.5 0
11453.5 0
11454.5 0
11455.5 0
11456.5 0
11457.5 0
11458.5 0
11459.5 0
11460.5 0
11461.5 0
11462.5 0
11463.5 0
11464.5 0
11465.5 0
11466.5 0
11467.5 0
11468.5 0
11469.5 0
11470.5 0
11471.5 0
11472.5 0
11473.5 0
11474.5 0
11475.5 0
11476.5 0
11477.5 0
11478.5 0
11479.5 0
11480.5 0
11481.5 0
11482.5 0
11483.5 0
11484.5 0
11485.5 0
11486.5 0
11487.5 0
11488.5 0
11489.5 0
11490.5 0
11491.5 0
11492.5 0
11493.5 0
11494.5 0
11495.5 0
11496.5 0
11497.5 0
11498.5 0
11499.5 0
11500.5 0
11501.5 0
11502.5 0
11503.5 0
11504.5 0
11505.5 0
11506.5 0
11507.5 0
11508.5 0
11509.5 0
11510.5 0
11511.5 0
11512.5 0
11513.5 0
11514.5 0
11515.5 0
11516.5 0
11517.5 0
11518.5 0
11519.5 0
11520.5 0
11521.5 0
11522.5 0
11523.5 0
11524.5 0
11525.5 0
11526.5 0
11527.5 0
11528.5 0
11529.5 0
11530.5 0
11531.5 0
11532.5 0
11533.5 0
11534.5 0
11535.5 0
11536.5 0
11537.5 0
11538.5 0
11539.5 0
11540.5 0
11541.5 0
11542.5 0
11543.5 0
11544.5 0
11545.5 0
11546.5 0
11547.5 0
11548.5 0
11549.5 0
11550.5 0
11551.5 0
11552.5 0
11553.5 0
11554.5 0
11555.5 0
11556.5 0
11557.5 -0.857143
11558.5 0
11559.5 0
11560.5 0
11561.5 0
11562.5 0
11563.5 0
11564.5 0
11565.5 0
11566.5 0
11567.5 0
11568.5 0
11569.5 0
11570.5 0
11571.5 0
11572.5 0
11573.5 0
11574.5 0
11575.5 0
11576.5 0
11577.5 0
11578.5 0
11579.5 0
11580.5 0
11581.5 0
11582.5 0
11583.5 0
11584.5 0
11585.5 0
11586.5 0
11587.5 0
11588.5 0
11589.5 0
11590.5 1
11591.5 0
11592.5 0
11593.5 0
11594.5 0
11595.5 0
11596.5 0
11597.5 0
11598.5 0
11599.5 0
11600.5 0
11601.5 0
11602.5 0
11603.5 0
11604.5 0
11605.5 0
11606.5 0
11607.5 0
11608.5 0
11609.5 0
11610.5 0
11611.5 0
11612.5 0
11613.5 0
11614.5 0
11615.5 0
11616.5 0
11617.5 0
11618.5 0
11619.5 0
11620.5 0
11621.5 0
11622.5 0
11623.5 0
11624.5 0
11625.5 0
11626.5 0
11627.5 0
11628.5 0
11629.5 0
11630.5 0
11631.5 0
11632.5 0
11633.5 0
11634.5 0
11635.5 0
11636.5 0
11637.5 0
11638.5 0
11639.5 0
11640.5 0
11641.5 0
11642.5 0
11643.5 0
11644.5 0
11645.5 0
11646.5 0
11647.5 0
11648.5 0
11649.5 0
11650.5 0
11651.5 0
11652.5 0
11653.5 0
11654.5 0
11655.5 0
11656.5 0
11657.5 0
11658.5 0
11659.5 0
11660.5 0
11661.5 0
11662.5 0
11663.5 0
11664.5 0
11665.5 0
11666.5 0
11667.5 0
11668.5 0
11669.5 0
11670.5 0
11671.5 0
11672.5 0
11673.5 0
11674.5 0
11675.5 0
11676.5 0
11677.5 0
11678.5 0
11679.5 0
11680.5 0
11681.5 0
11682.5 0
11683.5 0
11684.5 1
11685.5 0
11686.5 0
11687.5 0
11688.5 0
11689.5 0
11690.5 0
11691.5 0
11692.5 0
11693.5 0
11694.5 0
11695.5 0
11696.5 0
11697.5 0
11698.5 0
11699.5 0
11700.5 0
11701.5 0
11702.5 0
11703.5 0
11704.5 0
11705.5 0
11706.5 0
11707.5 0
11708.5 0
11709.5 0
11710.5 0
11711.5 0
11712.5 0
11713.5 0
11714.5 0
11715.5 0
11716.5 0
11717.5 -0.857143
11718.5 0
11719.5 0
11720.5 0
11721.5 0
11722.5 0
11723.5 0
11724.5 0
11725.5 0
11726.5 0
11727.5 0
11728.5 0
11729.5 0
11730.5 0
11731.5 0
11732.5 -0.857143
11733.5 0
11734.5 0
11735.5 0
11736.5 0
11737.5 0
11738.5 0
11739.5 0
11740.5 0
11741.5 0
11742.5 0
11743.5 0
11744.5 0
11745.5 0
11746.5 0
11747.5 0
11748.5 0
11749.5 0
11750.5 0
11751.5 0
11752.5 0
11753.5 0
11754.5 0
11755.5 0
11756.5 0
11757.5 0
11758.5 0
11759.5 0
11760.5 0
11761.5 0
11762.5 0
11763.5 0
11764.5 0
11765.5 0
11766.5 0
11767.5 0
11768.5 0
11769.5 0
11770.5 0
11771.5 0
11772.5 0
11773.5 0
11774.5 0
11775.5 0
11776.5 0
11777.5 0
11778.5 0
11779.5 0
11780.5 0
11781.5 0
11782.5 0
11783.5 0
11784.5 0
11785.5 0
11786.5 0
11787.5 0
11788.5 0
11789.5 0
11790.5 0
11791.5 0
11792.5 0
11793.5 0
11794.5 0
11795.5 0
11796.5 0
11797.5 0
11798.5 0
11799.5 0
11800.5 0
11801.5 0
11802.5 0
11803.5 0
11804.5 0
11805.5 0
11806.5 0
11807.5 0
11808.5 0
11809.5 0
11810.5 0
11811.5 0
11812.5 0
11813.5 0
11814.5 0
11815.5 0
11816.5 0
11817.5 0
11818.5 0
11819.5 0
11820.5 0
11821.5 0
11822.5 0
11823.5 0
11824.5 0
11825.5 0
11826.5 0
11827.5 0
11828.5 0
11829.5 0
11830.5 0
11831.5 0
11832.5 0
11833.5 0
11834.5 0
11835.5 0
11836.5 0
11837.5 0
11838.5 0
11839.5 0
11840.5 0
11841.5 0
11842.5 0
11843.5 0
11844.5 0
11845.5 0
11846.5 0
11847.5 0
11848.5 0
11849.5 0
11850.5 0
11851.5 0
11852.5 0
11853.5 0
11854.5 0
11855.5 0
11856.5 0
11857.5 0
11858.5 0
11859.5 0
11860.5 0
11861.5 0
11862.5 0
11863.5 0
11864.5 0
11865.5 0
11866.5 0
11867.5 0
11868.5 0
11869.5 0
11870.5 0
11871.5 0
11872.5 0
11873.5 0
11874.5 0
11875.5 0
11876.5 0
11877.5 0
11878.5 0
11879.5 0
11880.5 0
11881.5 0
11882.5 0
11883.5 0
11884.5 0
11885.5 0
11886.5 0
11887.5 0
11888.5 0
11889.5 0
11890.5 0
11891.5 0
11892.5 0
11893.5 0
11894.5 0
11895.5 0
11896.5 0
11897.5 0
11898.5 0
11899.5 0
11900.5 0
11901.5 0
11902.5 0
11903.5 0
11904.5 0
11905.5 0
11906.5 0
11907.5 0
11908.5 0
11909.5 0
11910.5 0
11911.5 0
11912.5 0
11913.5 0
11914.5 0
11915.5 0
11916.5 0
11917.5 0
11918.5 0
11919.5 0
11920.5 0
11921.5 0
11922.5 0
11923.5 0
11924.5 0
11925.5 0
11926.5 0
11927.5 0
11928.5 0
11929.5 0
11930.5 0
11931.5 0
11932.5 0
11933.5 0
11934.5 0
11935.5 0
11936.5 0
11937.5 0
11938.5 0
11939.5 0
11940.5 0
11941.5 0
11942.5 0
11943.5 0
11944.5 0
11945.5 0
11946.5 0
11947.5 0
11948.5 0
11949.5 0
11950.5 0
11951.5 0
11952.5 0
11953.5 0
11954.5 0
11955.5 0
11956.5 0
11957.5 0
11958.5 0
11959.5 0
11960.5 0
11961.5 0
11962.5 0
11963.5 0
11964.5 0
11965.5 0
11966.5 0
11967.5 0
11968.5 0
11969.5 0
11970.5 0
11971.5 0
11972.5 0
11973.5 0
11974.5 0
11975.5 0
11976.5 0
11977.5 0
11978.5 0
11979.5 0
11980.5 0
11981.5 0
11982.5 0
11983.5 0
11984.5 0
11985.5 0
11986.5 0
11987.5 0
11988.5 0
11989.5 0
11990.5 0
11991.5 0
11992.5 0
11993.5 0
11994.5 0
11995.5 0
11996.5 0
11997.5 0
11998.5 0
11999.5 0
