# EGG_ProjY_E3564.0(5.0)_B3551.0(2.0)_B3572.5(1.5)
# X axis : Energy (keV) [Y axis]
# Y axis : Counts/1 keV
# N Bins : 12000
# X Min : 0
# X Max : 12000
# X value at the center of the bins
0.5 0
1.5 0
2.5 0
3.5 0
4.5 0
5.5 -6.71429
6.5 1.42857
7.5 -9.57143
8.5 16.1429
9.5 10.5714
10.5 10.5714
11.5 -23.5714
12.5 9.85714
13.5 -7.57143
14.5 -18.5714
15.5 44.1429
16.5 -4.57144
17.5 35.4286
18.5 35.8571
19.5 7.14284
20.5 -23.7143
21.5 31
22.5 61
23.5 113.143
24.5 101.857
25.5 79.7143
26.5 69.2857
27.5 137.429
28.5 147.143
29.5 272.286
30.5 255.714
31.5 345.571
32.5 109.429
33.5 169.429
34.5 137.286
35.5 191.571
36.5 89
37.5 108.571
38.5 270.286
39.5 71.7142
40.5 260.714
41.5 223.286
42.5 252.714
43.5 153.857
44.5 198.571
45.5 167.286
46.5 250.714
47.5 322.286
48.5 288.429
49.5 166.857
50.5 302.429
51.5 276
52.5 50.1428
53.5 182
54.5 287.714
55.5 289.714
56.5 257.143
57.5 403
58.5 284.571
59.5 305.429
60.5 264.286
61.5 322.714
62.5 175.714
63.5 136.571
64.5 208.143
65.5 168.857
66.5 238.714
67.5 258.571
68.5 286.286
69.5 393.143
70.5 314.286
71.5 329.571
72.5 456.571
73.5 329
74.5 374.428
75.5 367.571
76.5 600.571
77.5 767.143
78.5 528
79.5 196
80.5 273.143
81.5 360.143
82.5 345.857
83.5 277.429
84.5 348.857
85.5 323.143
86.5 321
87.5 453.428
88.5 245.143
89.5 358.857
90.5 365.714
91.5 297.857
92.5 213.143
93.5 164.286
94.5 289.143
95.5 377.857
96.5 192.857
97.5 253.429
98.5 177.857
99.5 400.571
100.5 87.1428
101.5 214.286
102.5 307.286
103.5 325.857
104.5 116.571
105.5 212.571
106.5 169.857
107.5 200.143
108.5 417.571
109.5 193.714
110.5 156.714
111.5 242.429
112.5 360.286
113.5 369.143
114.5 378.143
115.5 275.429
116.5 232.428
117.5 377.857
118.5 343.714
119.5 306.857
120.5 367.714
121.5 98.2856
122.5 277.428
123.5 194.428
124.5 167
125.5 402.143
126.5 416.714
127.5 325.714
128.5 360
129.5 282.286
130.5 338.143
131.5 260.428
132.5 395.857
133.5 295.428
134.5 209.857
135.5 510.571
136.5 401.714
137.5 442.428
138.5 454.286
139.5 260.428
140.5 307.571
141.5 447
142.5 275
143.5 311.143
144.5 302.857
145.5 433.286
146.5 177
147.5 439.714
148.5 329.857
149.5 261
150.5 272
151.5 292.286
152.5 357
153.5 361.714
154.5 245.714
155.5 202.714
156.5 429.571
157.5 436
158.5 271.857
159.5 275.428
160.5 552.714
161.5 527
162.5 264.714
163.5 298.428
164.5 416
165.5 538.714
166.5 189
167.5 400.143
168.5 184.714
169.5 329
170.5 227.571
171.5 126.714
172.5 223
173.5 41.7141
174.5 -279.714
175.5 71.857
176.5 261.857
177.5 237.428
178.5 351
179.5 428.143
180.5 289.286
181.5 734.428
182.5 700.286
183.5 626.714
184.5 660.286
185.5 573.571
186.5 588.428
187.5 537.143
188.5 507.428
189.5 479.143
190.5 328.714
191.5 363.857
192.5 426.286
193.5 198.286
194.5 160
195.5 265.571
196.5 337.428
197.5 326.428
198.5 240
199.5 171.857
200.5 169
201.5 346.428
202.5 291.571
203.5 438.714
204.5 454.286
205.5 369.286
206.5 216.428
207.5 515.714
208.5 467.571
209.5 486
210.5 644.428
211.5 614.428
212.5 298
213.5 356.286
214.5 373.428
215.5 489.428
216.5 296.428
217.5 416.428
218.5 535.286
219.5 514.428
220.5 550
221.5 415
222.5 345.428
223.5 504.714
224.5 301.714
225.5 311.714
226.5 549
227.5 677.286
228.5 503.143
229.5 555.857
230.5 243.571
231.5 552.286
232.5 286.571
233.5 185.143
234.5 462.428
235.5 272.286
236.5 271.714
237.5 468.143
238.5 424
239.5 395.571
240.5 506.571
241.5 695.571
242.5 559.428
243.5 588.571
244.5 608.857
245.5 572.286
246.5 612.286
247.5 448.571
248.5 481.857
249.5 499.857
250.5 343.571
251.5 294.143
252.5 567.143
253.5 245.571
254.5 177.714
255.5 382.714
256.5 85.4285
257.5 402.714
258.5 341
259.5 282.429
260.5 417.429
261.5 469
262.5 486.571
263.5 299.714
264.5 472.571
265.5 473.143
266.5 425.143
267.5 455.143
268.5 381.714
269.5 479.714
270.5 216.286
271.5 130.429
272.5 354.571
273.5 209.714
274.5 275.571
275.5 290.714
276.5 397.714
277.5 338.143
278.5 425.714
279.5 479
280.5 494.571
281.5 278.857
282.5 472.143
283.5 368.571
284.5 333.714
285.5 293.857
286.5 317.286
287.5 249.714
288.5 265.571
289.5 363.429
290.5 309
291.5 277.571
292.5 471.143
293.5 445.286
294.5 402.429
295.5 304.286
296.5 339.571
297.5 325.286
298.5 286.286
299.5 420.571
300.5 543.857
301.5 577.429
302.5 560.714
303.5 462.857
304.5 345.286
305.5 275
306.5 426
307.5 324.857
308.5 505.286
309.5 412.429
310.5 436.286
311.5 380.429
312.5 343.143
313.5 308.143
314.5 390.143
315.5 324.571
316.5 134.571
317.5 289.857
318.5 181.143
319.5 182.571
320.5 150.143
321.5 254.286
322.5 207.143
323.5 117.714
324.5 316.429
325.5 130.429
326.5 193.429
327.5 232.286
328.5 155.571
329.5 200.286
330.5 275.571
331.5 109.857
332.5 273
333.5 300
334.5 349.429
335.5 459.429
336.5 452.714
337.5 494.571
338.5 408.714
339.5 410.714
340.5 316.714
341.5 462.143
342.5 369.714
343.5 546.571
344.5 362.429
345.5 279.571
346.5 262.571
347.5 248.429
348.5 179.286
349.5 17.7142
350.5 143.286
351.5 152.857
352.5 176.286
353.5 195.857
354.5 132.429
355.5 363.714
356.5 370.286
357.5 249.429
358.5 253.714
359.5 450.429
360.5 389.714
361.5 301.143
362.5 463.571
363.5 380.857
364.5 291.857
365.5 175.143
366.5 211.143
367.5 219.571
368.5 273.143
369.5 177.429
370.5 229.714
371.5 142.571
372.5 236.857
373.5 90.1428
374.5 40.5714
375.5 226
376.5 280
377.5 267.143
378.5 339
379.5 302.143
380.5 389.571
381.5 298.286
382.5 235.143
383.5 335.429
384.5 338.857
385.5 198
386.5 296.714
387.5 230
388.5 320.857
389.5 224.143
390.5 335.286
391.5 159.857
392.5 266.143
393.5 325.857
394.5 262.143
395.5 180.429
396.5 169.429
397.5 57.2857
398.5 66.4285
399.5 177.143
400.5 83.8571
401.5 289.857
402.5 109.143
403.5 396.143
404.5 476.428
405.5 395.857
406.5 514.286
407.5 649.571
408.5 469
409.5 429.857
410.5 611.571
411.5 398.429
412.5 517.857
413.5 305.714
414.5 335.714
415.5 253.143
416.5 217.714
417.5 70.1428
418.5 33.4285
419.5 -68.7143
420.5 -62.7143
421.5 -0.714328
422.5 -89.4286
423.5 120
424.5 87.2857
425.5 194.286
426.5 212.857
427.5 175.429
428.5 211.286
429.5 315.857
430.5 415.143
431.5 382.714
432.5 289
433.5 222.857
434.5 362.857
435.5 260.857
436.5 257.143
437.5 154.714
438.5 262.571
439.5 201.286
440.5 199.143
441.5 221
442.5 199.571
443.5 174.857
444.5 269.857
445.5 192
446.5 238.429
447.5 279.429
448.5 208.143
449.5 178.286
450.5 224
451.5 72.2857
452.5 209.714
453.5 245
454.5 125.857
455.5 246
456.5 274.857
457.5 232.143
458.5 252.714
459.5 178.571
460.5 201.429
461.5 302.286
462.5 232.857
463.5 282.571
464.5 394.857
465.5 258
466.5 312.857
467.5 293.429
468.5 334.857
469.5 258.429
470.5 287.857
471.5 299.857
472.5 275.714
473.5 233.571
474.5 288.714
475.5 262.714
476.5 227.429
477.5 131
478.5 198.857
479.5 71.1428
480.5 193
481.5 233.429
482.5 117.143
483.5 177
484.5 175.429
485.5 210.429
486.5 210.143
487.5 236.857
488.5 182.714
489.5 271.286
490.5 259.714
491.5 169.857
492.5 214
493.5 330.286
494.5 240
495.5 151
496.5 73.8571
497.5 173.857
498.5 152.143
499.5 164.857
500.5 24.4285
501.5 324.429
502.5 99.2857
503.5 191
504.5 180.857
505.5 224.714
506.5 244.286
507.5 202.286
508.5 277.286
509.5 567
510.5 982.285
511.5 1379.14
512.5 841.714
513.5 465.428
514.5 131.429
515.5 212.714
516.5 301.571
517.5 296.286
518.5 146.857
519.5 267.143
520.5 329.857
521.5 93.4285
522.5 126.429
523.5 193.143
524.5 144.857
525.5 321.857
526.5 196
527.5 210.714
528.5 227.143
529.5 202.714
530.5 262.714
531.5 196.857
532.5 206.857
533.5 282.143
534.5 217.857
535.5 179.429
536.5 240.143
537.5 155.286
538.5 233.571
539.5 200.429
540.5 219.143
541.5 216.857
542.5 240
543.5 222.143
544.5 142
545.5 226.714
546.5 281.571
547.5 229.857
548.5 238
549.5 248.571
550.5 263.857
551.5 186.286
552.5 273.571
553.5 184.286
554.5 152.571
555.5 232.571
556.5 208.714
557.5 141.571
558.5 250.286
559.5 193.714
560.5 239.571
561.5 176.714
562.5 183.714
563.5 247.286
564.5 155.429
565.5 206
566.5 230.286
567.5 149.714
568.5 221.429
569.5 130.857
570.5 125.714
571.5 245.571
572.5 174.286
573.5 92.1428
574.5 156.571
575.5 159
576.5 152.286
577.5 30.2857
578.5 207.571
579.5 184.571
580.5 214
581.5 142.571
582.5 192.571
583.5 191
584.5 135.143
585.5 237
586.5 223.429
587.5 207.571
588.5 252
589.5 223.143
590.5 222.429
591.5 156.143
592.5 156
593.5 160.286
594.5 136.143
595.5 256.714
596.5 64.5714
597.5 210.143
598.5 184
599.5 165.286
600.5 246.429
601.5 186.857
602.5 338
603.5 190.143
604.5 291.429
605.5 197.857
606.5 306.714
607.5 98
608.5 249.286
609.5 203.286
610.5 229.714
611.5 186.429
612.5 131.714
613.5 138.571
614.5 246
615.5 166.286
616.5 88
617.5 71.8571
618.5 176.571
619.5 171.429
620.5 195.429
621.5 199.714
622.5 187.714
623.5 137.714
624.5 152.857
625.5 222.857
626.5 134.286
627.5 431.857
628.5 458.286
629.5 475.143
630.5 198.143
631.5 94
632.5 209.286
633.5 144.857
634.5 141.429
635.5 194
636.5 313.857
637.5 374.429
638.5 349.857
639.5 277
640.5 247
641.5 238.429
642.5 321.143
643.5 303.429
644.5 285.143
645.5 366
646.5 338.857
647.5 253.286
648.5 254.571
649.5 298.143
650.5 330.429
651.5 303
652.5 234.571
653.5 238.286
654.5 240.143
655.5 270.571
656.5 183.571
657.5 155.571
658.5 160.286
659.5 110.286
660.5 174.857
661.5 64
662.5 203.571
663.5 323
664.5 119.143
665.5 152.143
666.5 112
667.5 51.8571
668.5 221.143
669.5 187
670.5 241.143
671.5 152.571
672.5 190.714
673.5 149
674.5 172.143
675.5 156.429
676.5 232.571
677.5 250.857
678.5 246.571
679.5 118.571
680.5 157.714
681.5 216.714
682.5 204.143
683.5 88.1428
684.5 195.286
685.5 181.143
686.5 205.286
687.5 180.571
688.5 216.714
689.5 195.429
690.5 138.714
691.5 215.571
692.5 181.857
693.5 208.286
694.5 179.714
695.5 166
696.5 242
697.5 211
698.5 233.857
699.5 260.429
700.5 183.857
701.5 259.286
702.5 214.429
703.5 175.429
704.5 206.143
705.5 153.857
706.5 207.571
707.5 163.571
708.5 186
709.5 97
710.5 258.857
711.5 228.143
712.5 160.857
713.5 123.857
714.5 188.429
715.5 250.286
716.5 277
717.5 214.286
718.5 229.143
719.5 158
720.5 206.143
721.5 180.714
722.5 136.429
723.5 209.714
724.5 178.571
725.5 237.143
726.5 207.429
727.5 189.857
728.5 229.714
729.5 237.286
730.5 187
731.5 178.857
732.5 210
733.5 161
734.5 189.714
735.5 174.857
736.5 147.714
737.5 164.143
738.5 195.857
739.5 252.286
740.5 294.857
741.5 266.286
742.5 157.429
743.5 206.429
744.5 132.714
745.5 243.286
746.5 159.143
747.5 204.857
748.5 126.571
749.5 271.429
750.5 192.857
751.5 289.286
752.5 229.857
753.5 163.429
754.5 222.714
755.5 205.286
756.5 226.429
757.5 224.429
758.5 201.286
759.5 266.143
760.5 325.286
761.5 222.286
762.5 297.429
763.5 225
764.5 218.571
765.5 80.4286
766.5 131
767.5 111.143
768.5 207.857
769.5 65.8571
770.5 141.571
771.5 254.286
772.5 192.857
773.5 145.143
774.5 220.857
775.5 187.714
776.5 178.143
777.5 231
778.5 199.429
779.5 219.857
780.5 161.286
781.5 187
782.5 240.857
783.5 188.429
784.5 230.286
785.5 309.429
786.5 330.429
787.5 339.571
788.5 247.714
789.5 201.571
790.5 223.714
791.5 136.857
792.5 169.143
793.5 269.714
794.5 183.857
795.5 173.714
796.5 225.571
797.5 226.286
798.5 154.714
799.5 149.857
800.5 254.571
801.5 140.571
802.5 208
803.5 165.143
804.5 216.857
805.5 271.571
806.5 183.857
807.5 241.714
808.5 252
809.5 227.857
810.5 160.714
811.5 337.143
812.5 310.714
813.5 237.857
814.5 282.429
815.5 246.857
816.5 247.429
817.5 232.571
818.5 274.857
819.5 296.714
820.5 384.571
821.5 365.857
822.5 232.286
823.5 256.714
824.5 198
825.5 181.286
826.5 227.857
827.5 238.571
828.5 203.857
829.5 254.571
830.5 219.714
831.5 222.857
832.5 193.429
833.5 175.286
834.5 280
835.5 199
836.5 261.571
837.5 263.429
838.5 208.286
839.5 331.286
840.5 226.857
841.5 270
842.5 246.429
843.5 187.143
844.5 229.571
845.5 258.714
846.5 173.714
847.5 231.714
848.5 269.143
849.5 230.143
850.5 290
851.5 190.714
852.5 221.857
853.5 198.714
854.5 257.143
855.5 282.714
856.5 240.857
857.5 198.857
858.5 256.571
859.5 269.857
860.5 274.571
861.5 238
862.5 258.429
863.5 249.429
864.5 295.857
865.5 193.571
866.5 259.857
867.5 282.714
868.5 403.143
869.5 473.143
870.5 403.571
871.5 225.143
872.5 295.143
873.5 275.286
874.5 221.857
875.5 230.429
876.5 388.143
877.5 311.571
878.5 311.857
879.5 251
880.5 206.571
881.5 81.4285
882.5 220.429
883.5 204.571
884.5 207.143
885.5 316
886.5 318.857
887.5 259.286
888.5 218
889.5 266.714
890.5 278.143
891.5 276
892.5 304.571
893.5 281.857
894.5 350.857
895.5 350.286
896.5 342.714
897.5 258.286
898.5 332.857
899.5 266.429
900.5 406.286
901.5 311.571
902.5 373.429
903.5 220.714
904.5 259.143
905.5 280.143
906.5 257.714
907.5 234.429
908.5 254.714
909.5 327
910.5 296.143
911.5 334.429
912.5 259.714
913.5 169.143
914.5 320.857
915.5 352.857
916.5 382.143
917.5 292.857
918.5 324.857
919.5 315.429
920.5 213.429
921.5 159.571
922.5 347.714
923.5 249.857
924.5 185.286
925.5 178.714
926.5 282.857
927.5 163.143
928.5 344.857
929.5 384.714
930.5 228
931.5 266.143
932.5 283.286
933.5 343.286
934.5 254.286
935.5 246.714
936.5 305.286
937.5 294.857
938.5 283.571
939.5 305.714
940.5 324.429
941.5 288.714
942.5 290.429
943.5 227.571
944.5 259.429
945.5 220
946.5 331.857
947.5 265.429
948.5 211.286
949.5 78.7143
950.5 121.143
951.5 208.143
952.5 150.143
953.5 253
954.5 158
955.5 228
956.5 166.143
957.5 251.857
958.5 244.714
959.5 93.5714
960.5 222.857
961.5 208.429
962.5 250.286
963.5 280.429
964.5 193.857
965.5 249.857
966.5 219.714
967.5 166.571
968.5 113
969.5 201.286
970.5 206
971.5 193.143
972.5 217
973.5 190.714
974.5 189.143
975.5 249.714
976.5 175.143
977.5 122.286
978.5 138.143
979.5 224.714
980.5 167.571
981.5 141
982.5 190.857
983.5 159.286
984.5 167.143
985.5 110.429
986.5 161.286
987.5 232.143
988.5 262.429
989.5 166.286
990.5 242
991.5 152
992.5 157.429
993.5 219.714
994.5 258.286
995.5 281.857
996.5 339.143
997.5 227
998.5 235.429
999.5 269
1000.5 340.571
1001.5 478
1002.5 487.857
1003.5 371.857
1004.5 192
1005.5 162.429
1006.5 141
1007.5 157.429
1008.5 241.286
1009.5 97
1010.5 111.714
1011.5 166.286
1012.5 73.2857
1013.5 100.143
1014.5 201.429
1015.5 109.571
1016.5 149.857
1017.5 106
1018.5 108.857
1019.5 151
1020.5 128.714
1021.5 158.714
1022.5 71.1428
1023.5 231.857
1024.5 382.429
1025.5 182.429
1026.5 168
1027.5 127
1028.5 134.429
1029.5 153.714
1030.5 144.143
1031.5 113
1032.5 90
1033.5 158
1034.5 146.571
1035.5 174.714
1036.5 148
1037.5 173.714
1038.5 119.286
1039.5 60.5714
1040.5 157.571
1041.5 58.4286
1042.5 124.286
1043.5 99.2857
1044.5 119.429
1045.5 139.857
1046.5 132.714
1047.5 108.286
1048.5 105.857
1049.5 117.429
1050.5 168.286
1051.5 148.857
1052.5 136.857
1053.5 144.571
1054.5 90.2857
1055.5 98
1056.5 151.857
1057.5 110
1058.5 112.571
1059.5 116.857
1060.5 145.571
1061.5 100
1062.5 106.857
1063.5 43.2857
1064.5 71.8571
1065.5 95.8571
1066.5 50.1428
1067.5 28.7143
1068.5 134.857
1069.5 73.1428
1070.5 167.714
1071.5 295.857
1072.5 1089.71
1073.5 2501.71
1074.5 3164.71
1075.5 1651
1076.5 413.286
1077.5 83.1428
1078.5 76.2857
1079.5 124.571
1080.5 87.4286
1081.5 104.429
1082.5 178.286
1083.5 143
1084.5 79
1085.5 118.857
1086.5 95.8571
1087.5 125.714
1088.5 104.286
1089.5 50.2857
1090.5 103.714
1091.5 115.571
1092.5 56
1093.5 36.2857
1094.5 71.8571
1095.5 102.571
1096.5 91.4286
1097.5 72.2857
1098.5 45.7143
1099.5 18.1428
1100.5 33.4286
1101.5 53.1428
1102.5 61.5714
1103.5 106.714
1104.5 46
1105.5 108.429
1106.5 3.42856
1107.5 106.143
1108.5 58.1428
1109.5 158
1110.5 96.1428
1111.5 130.429
1112.5 76
1113.5 85.7143
1114.5 73.4286
1115.5 79
1116.5 44.5714
1117.5 88.2857
1118.5 107.286
1119.5 127
1120.5 105.143
1121.5 119.714
1122.5 239
1123.5 1016.57
1124.5 3440.71
1125.5 8110.71
1126.5 9147.29
1127.5 4066.29
1128.5 981.571
1129.5 218.286
1130.5 108.143
1131.5 60
1132.5 90.5714
1133.5 52.1428
1134.5 44.1428
1135.5 75.5714
1136.5 81.5714
1137.5 23.8571
1138.5 58.7143
1139.5 102.286
1140.5 138.571
1141.5 86.8571
1142.5 87.8571
1143.5 47.4286
1144.5 29.7143
1145.5 77.7143
1146.5 82.8571
1147.5 104.286
1148.5 112.571
1149.5 28.7143
1150.5 57.2857
1151.5 128
1152.5 88.4286
1153.5 532.714
1154.5 1548.14
1155.5 4835
1156.5 10831.6
1157.5 10881.4
1158.5 4572.71
1159.5 990.286
1160.5 272.571
1161.5 191.429
1162.5 75.2857
1163.5 82.8571
1164.5 103.286
1165.5 209.286
1166.5 80
1167.5 106.714
1168.5 31.1428
1169.5 26.1428
1170.5 90.4286
1171.5 62.5714
1172.5 27
1173.5 79
1174.5 50
1175.5 -0.85715
1176.5 90.7143
1177.5 58.1429
1178.5 18.1428
1179.5 -36
1180.5 67.5714
1181.5 77.2857
1182.5 89
1183.5 105.714
1184.5 1.2857
1185.5 49
1186.5 67
1187.5 12.8571
1188.5 -15.2857
1189.5 0.285706
1190.5 75
1191.5 32
1192.5 77.1429
1193.5 78.4286
1194.5 7.42856
1195.5 31.2857
1196.5 44.2857
1197.5 44.8571
1198.5 90.1429
1199.5 80.7143
1200.5 19.5714
1201.5 21
1202.5 -6.71429
1203.5 36.5714
1204.5 41.5714
1205.5 42.2857
1206.5 40.7143
1207.5 61.5714
1208.5 90.5714
1209.5 92.4286
1210.5 74.7143
1211.5 46.7143
1212.5 3.28571
1213.5 67.4286
1214.5 61
1215.5 12.2857
1216.5 -18.5714
1217.5 29.8571
1218.5 44
1219.5 22.2857
1220.5 80.5714
1221.5 23.5714
1222.5 30.1428
1223.5 8.42856
1224.5 28.8571
1225.5 76.7143
1226.5 45
1227.5 57.4286
1228.5 29.7143
1229.5 41.5714
1230.5 43.1429
1231.5 24.4286
1232.5 30.4286
1233.5 2.42857
1234.5 10.7143
1235.5 55.2857
1236.5 56
1237.5 4.28571
1238.5 86.5714
1239.5 43.8571
1240.5 91.8571
1241.5 14
1242.5 30
1243.5 46.5714
1244.5 109.857
1245.5 224.571
1246.5 304.429
1247.5 240.286
1248.5 215.143
1249.5 109.857
1250.5 57.2857
1251.5 51.8571
1252.5 36.8571
1253.5 -14.2857
1254.5 21.4286
1255.5 38.4286
1256.5 54.2857
1257.5 91
1258.5 76.8571
1259.5 109.286
1260.5 153.143
1261.5 109.429
1262.5 84.1428
1263.5 97.1428
1264.5 82.7143
1265.5 66.2857
1266.5 11.1428
1267.5 -17.7143
1268.5 61.7143
1269.5 -13.2857
1270.5 -2.00001
1271.5 67.2857
1272.5 41
1273.5 42.7143
1274.5 63.2857
1275.5 56.7143
1276.5 81.5714
1277.5 58.7143
1278.5 25.8571
1279.5 29.1429
1280.5 69.2857
1281.5 12.2857
1282.5 50.2857
1283.5 41.2857
1284.5 -2.28572
1285.5 -35
1286.5 46.1429
1287.5 52.1429
1288.5 61.4286
1289.5 -23
1290.5 11
1291.5 7.71428
1292.5 46.5714
1293.5 19.8571
1294.5 47.7143
1295.5 -11.5714
1296.5 53.2857
1297.5 6.71428
1298.5 8.28571
1299.5 43.1429
1300.5 52.1429
1301.5 34.8571
1302.5 41.2857
1303.5 37.4286
1304.5 27.5714
1305.5 -16.7143
1306.5 29.2857
1307.5 7.85713
1308.5 32.7143
1309.5 68.2857
1310.5 -7.57144
1311.5 36.4286
1312.5 89.2857
1313.5 21
1314.5 -38.4286
1315.5 49.7143
1316.5 62.7143
1317.5 26.4286
1318.5 33.2857
1319.5 22.8571
1320.5 22.1429
1321.5 6.57142
1322.5 29.8571
1323.5 95.1429
1324.5 71.5714
1325.5 51
1326.5 67.4286
1327.5 53.4286
1328.5 66.2857
1329.5 25.7143
1330.5 60.2857
1331.5 63
1332.5 -20.7143
1333.5 -2.42858
1334.5 0.714279
1335.5 44.5714
1336.5 19.1429
1337.5 32.5714
1338.5 0.142851
1339.5 22.1429
1340.5 32
1341.5 26.5714
1342.5 82.1429
1343.5 54.1429
1344.5 35
1345.5 -6.85715
1346.5 64.5714
1347.5 6.42857
1348.5 31.2857
1349.5 29.8571
1350.5 47.8571
1351.5 73.5714
1352.5 -9.42858
1353.5 35
1354.5 29.1429
1355.5 12.8571
1356.5 50
1357.5 44.2857
1358.5 28.8571
1359.5 56.2857
1360.5 57.1429
1361.5 44.2857
1362.5 53
1363.5 2.42857
1364.5 30.7143
1365.5 30.5714
1366.5 66.5714
1367.5 43.1429
1368.5 34.8571
1369.5 56.4286
1370.5 30.2857
1371.5 61.1428
1372.5 4.14285
1373.5 25.2857
1374.5 92.2857
1375.5 37
1376.5 78.4286
1377.5 75.5714
1378.5 56.5714
1379.5 51.7143
1380.5 40
1381.5 57
1382.5 21.2857
1383.5 19.5714
1384.5 42.7143
1385.5 13.8571
1386.5 63.5714
1387.5 0.428562
1388.5 19.5714
1389.5 24.8571
1390.5 49.5714
1391.5 52
1392.5 62.1429
1393.5 43
1394.5 38.1429
1395.5 72.4286
1396.5 15.2857
1397.5 21.5714
1398.5 49.2857
1399.5 31.7143
1400.5 35
1401.5 2.85714
1402.5 11.1429
1403.5 7.57142
1404.5 -4.14286
1405.5 47.2857
1406.5 18.2857
1407.5 -13.1429
1408.5 1.71428
1409.5 -6.57143
1410.5 9.71428
1411.5 61.4286
1412.5 5.28571
1413.5 20.5714
1414.5 54.1429
1415.5 91.7143
1416.5 54.1429
1417.5 24.5714
1418.5 35
1419.5 54.8571
1420.5 93.4286
1421.5 59.2857
1422.5 14.2857
1423.5 -14.5714
1424.5 63.7143
1425.5 54.2857
1426.5 -37.1429
1427.5 35
1428.5 79
1429.5 28
1430.5 17.7143
1431.5 50.4286
1432.5 77.1429
1433.5 38.1429
1434.5 103
1435.5 41.8571
1436.5 15.5714
1437.5 -2.57143
1438.5 38.2857
1439.5 24
1440.5 48.1429
1441.5 59
1442.5 42.2857
1443.5 36
1444.5 28.1429
1445.5 13.8571
1446.5 23.4286
1447.5 32.4286
1448.5 14.8571
1449.5 21.8571
1450.5 33
1451.5 -5.71429
1452.5 8.57142
1453.5 25.1429
1454.5 47.8571
1455.5 49.1429
1456.5 12.2857
1457.5 53.4286
1458.5 -2.57143
1459.5 -27.2857
1460.5 33.2857
1461.5 -15.4286
1462.5 18.8571
1463.5 43.7143
1464.5 -1.42858
1465.5 4.14285
1466.5 11.2857
1467.5 25.8571
1468.5 -6.28572
1469.5 43.8571
1470.5 62.4286
1471.5 37.5714
1472.5 101
1473.5 56.4286
1474.5 51.1429
1475.5 73.2857
1476.5 47.7143
1477.5 56.2857
1478.5 42.4286
1479.5 26.2857
1480.5 42
1481.5 66.7143
1482.5 51.4286
1483.5 44.2857
1484.5 71.2857
1485.5 39.7143
1486.5 24.4286
1487.5 12.7143
1488.5 26.2857
1489.5 36.1429
1490.5 65.7143
1491.5 58.1429
1492.5 -23.2857
1493.5 43
1494.5 71.1429
1495.5 54.5714
1496.5 88.8571
1497.5 215.429
1498.5 553.857
1499.5 685.143
1500.5 451.571
1501.5 177.571
1502.5 61.7143
1503.5 7.28571
1504.5 -9.71429
1505.5 35.5714
1506.5 24.7143
1507.5 16.4286
1508.5 21.8571
1509.5 45.4286
1510.5 1.57142
1511.5 92.4286
1512.5 2.42857
1513.5 34.8571
1514.5 4.28571
1515.5 68
1516.5 23.1429
1517.5 14.2857
1518.5 96.5714
1519.5 29
1520.5 30.7143
1521.5 11.2857
1522.5 26.8571
1523.5 -3.42858
1524.5 -23.2857
1525.5 -4.28572
1526.5 36.4286
1527.5 38.1429
1528.5 63.4286
1529.5 48.8571
1530.5 31.5714
1531.5 34.1429
1532.5 37.4286
1533.5 65.4286
1534.5 57.8571
1535.5 62.2857
1536.5 25.4286
1537.5 27.1429
1538.5 13.4286
1539.5 77.1428
1540.5 33.4286
1541.5 44.2857
1542.5 35.7143
1543.5 58
1544.5 34.7143
1545.5 -23.1429
1546.5 -16.8571
1547.5 7.71428
1548.5 31.5714
1549.5 26.1429
1550.5 11.7143
1551.5 54.4286
1552.5 52.2857
1553.5 40.2857
1554.5 -54.7143
1555.5 56
1556.5 11.2857
1557.5 1.85714
1558.5 110.143
1559.5 69
1560.5 22.7143
1561.5 61.7143
1562.5 8.28571
1563.5 25.2857
1564.5 22
1565.5 44.7143
1566.5 68
1567.5 22.4286
1568.5 54
1569.5 54
1570.5 46.2857
1571.5 43.4286
1572.5 51.5714
1573.5 66.4286
1574.5 76.4286
1575.5 54.4286
1576.5 20.7143
1577.5 75.5714
1578.5 -0.428577
1579.5 18.7143
1580.5 37.8571
1581.5 27.2857
1582.5 23.5714
1583.5 30.5714
1584.5 27
1585.5 -14.4286
1586.5 3.14285
1587.5 -2.57144
1588.5 -30.7143
1589.5 49.4286
1590.5 24.7143
1591.5 20.1429
1592.5 71.5714
1593.5 32.4286
1594.5 63.1429
1595.5 20.1429
1596.5 62.4286
1597.5 50.2857
1598.5 -3.85715
1599.5 22.4286
1600.5 9.42856
1601.5 -4.28572
1602.5 44
1603.5 5.28571
1604.5 56
1605.5 17.1429
1606.5 26
1607.5 4.85714
1608.5 35.5714
1609.5 5.28571
1610.5 -6.28572
1611.5 39
1612.5 2.42857
1613.5 4.14285
1614.5 46.7143
1615.5 19.2857
1616.5 72.1429
1617.5 39.1429
1618.5 35.2857
1619.5 26.5714
1620.5 68.1429
1621.5 26
1622.5 44.2857
1623.5 16
1624.5 4.57142
1625.5 57.1429
1626.5 25.7143
1627.5 38.5714
1628.5 42.1429
1629.5 81
1630.5 86.5714
1631.5 166.714
1632.5 147.286
1633.5 69.7143
1634.5 48.2857
1635.5 40.8571
1636.5 9.99999
1637.5 62.4286
1638.5 73.7143
1639.5 34
1640.5 50.8571
1641.5 74.2857
1642.5 37.1429
1643.5 -36.5714
1644.5 58.2857
1645.5 13
1646.5 48.8571
1647.5 33.7143
1648.5 55.5714
1649.5 -8.14287
1650.5 44.4286
1651.5 -10.5714
1652.5 53
1653.5 38.7143
1654.5 36.5714
1655.5 54.4286
1656.5 6.14285
1657.5 22.5714
1658.5 7.42856
1659.5 41.4286
1660.5 39.5714
1661.5 4.85714
1662.5 53.1429
1663.5 17
1664.5 60.1429
1665.5 0.999995
1666.5 -2.42858
1667.5 -1.00001
1668.5 -13.1429
1669.5 21.4286
1670.5 44
1671.5 37
1672.5 72.2857
1673.5 50.1429
1674.5 63.5714
1675.5 8.57142
1676.5 51
1677.5 3.14285
1678.5 14.5714
1679.5 2.42857
1680.5 14.8571
1681.5 43.2857
1682.5 20.8571
1683.5 -12.5714
1684.5 40.5714
1685.5 27.2857
1686.5 0.714281
1687.5 44.2857
1688.5 6.85714
1689.5 42
1690.5 13
1691.5 55.5714
1692.5 71.5714
1693.5 15.4286
1694.5 13.1429
1695.5 26.7143
1696.5 -0.857148
1697.5 23.7143
1698.5 37.4286
1699.5 20.7143
1700.5 84.7143
1701.5 54.1429
1702.5 35.4286
1703.5 3.85714
1704.5 -14.2857
1705.5 30.4286
1706.5 31.2857
1707.5 -0.571434
1708.5 44.8571
1709.5 17.2857
1710.5 27
1711.5 29.2857
1712.5 47.7143
1713.5 47.5714
1714.5 5.14285
1715.5 -9.71429
1716.5 43.8571
1717.5 3.57142
1718.5 21.8571
1719.5 60.5714
1720.5 67.8571
1721.5 51
1722.5 12.5714
1723.5 -13.8571
1724.5 23.8571
1725.5 36.2857
1726.5 -0.571439
1727.5 -11.7143
1728.5 -21
1729.5 24.2857
1730.5 50
1731.5 0.142852
1732.5 6.85714
1733.5 34.4286
1734.5 7
1735.5 31
1736.5 58.4286
1737.5 62.5714
1738.5 45.8571
1739.5 28
1740.5 44.5714
1741.5 50.8571
1742.5 32.5714
1743.5 15.1429
1744.5 53.1429
1745.5 42.7143
1746.5 29.8571
1747.5 54.7143
1748.5 35.4286
1749.5 1.28571
1750.5 26.2857
1751.5 -6.71429
1752.5 29.7143
1753.5 13.2857
1754.5 2.57142
1755.5 35.4286
1756.5 34
1757.5 27.8571
1758.5 20.2857
1759.5 61.8571
1760.5 3.71428
1761.5 43.1429
1762.5 18
1763.5 53.1429
1764.5 43.2857
1765.5 6.28571
1766.5 60.5714
1767.5 51.5714
1768.5 71
1769.5 31.2857
1770.5 22.7143
1771.5 1.85714
1772.5 56.1429
1773.5 62.8571
1774.5 26
1775.5 45.5714
1776.5 15.2857
1777.5 51.2857
1778.5 33
1779.5 44
1780.5 39.5714
1781.5 30.1429
1782.5 18
1783.5 58.5714
1784.5 18.8571
1785.5 28.4286
1786.5 -8.14286
1787.5 34.2857
1788.5 32
1789.5 78.8571
1790.5 62.2857
1791.5 6
1792.5 36.8571
1793.5 -9.71429
1794.5 66.4286
1795.5 26.4286
1796.5 32
1797.5 16.5714
1798.5 -30.5714
1799.5 18
1800.5 33.1429
1801.5 -21.5714
1802.5 7.71428
1803.5 23.4286
1804.5 37.2857
1805.5 23.4286
1806.5 17.8571
1807.5 41.7143
1808.5 34.8571
1809.5 63.7143
1810.5 8.71428
1811.5 -3.85715
1812.5 -6.57143
1813.5 74.7143
1814.5 33.1429
1815.5 23.8571
1816.5 3
1817.5 54
1818.5 46.7143
1819.5 38.1429
1820.5 16.4286
1821.5 42.4286
1822.5 65.5714
1823.5 40.5714
1824.5 48.1429
1825.5 12
1826.5 18.4286
1827.5 18.8571
1828.5 24.1429
1829.5 56.7143
1830.5 62.5714
1831.5 54.2857
1832.5 75.8571
1833.5 73
1834.5 62.8571
1835.5 13.1429
1836.5 22.5714
1837.5 27
1838.5 47.2857
1839.5 37
1840.5 26.7143
1841.5 18.2857
1842.5 27.1429
1843.5 26.4286
1844.5 49.1429
1845.5 37.8571
1846.5 -20.2857
1847.5 60.4286
1848.5 14.8571
1849.5 36.8571
1850.5 50.7143
1851.5 33.7143
1852.5 68.2857
1853.5 30.2857
1854.5 14
1855.5 76.4286
1856.5 59.1429
1857.5 1.57142
1858.5 15.4286
1859.5 56.7143
1860.5 33.7143
1861.5 49
1862.5 25
1863.5 48
1864.5 56.5714
1865.5 13.7143
1866.5 40.7143
1867.5 38.1429
1868.5 11.4286
1869.5 48.5714
1870.5 15.7143
1871.5 107
1872.5 13.4286
1873.5 27.5714
1874.5 17.2857
1875.5 20.1429
1876.5 28.5714
1877.5 17
1878.5 4
1879.5 12.5714
1880.5 18.4286
1881.5 29.5714
1882.5 59.8571
1883.5 1.71428
1884.5 10.7143
1885.5 0.571406
1886.5 1.71425
1887.5 -20.1429
1888.5 93.5714
1889.5 4.85713
1890.5 -3.00001
1891.5 0.714281
1892.5 15.1429
1893.5 -0.285719
1894.5 14.7143
1895.5 18.8571
1896.5 36.1429
1897.5 17.1429
1898.5 39.4286
1899.5 6.85714
1900.5 25.2857
1901.5 31.8571
1902.5 51
1903.5 59.5714
1904.5 21.7143
1905.5 18.5714
1906.5 15.4286
1907.5 29
1908.5 67.4286
1909.5 52.2857
1910.5 73.8571
1911.5 54
1912.5 57.5714
1913.5 68.7143
1914.5 -5.71429
1915.5 22.4286
1916.5 30.2857
1917.5 37.1429
1918.5 25.8571
1919.5 27.1429
1920.5 47.4286
1921.5 41.7143
1922.5 29.2857
1923.5 4.42857
1924.5 8.85714
1925.5 24.4286
1926.5 38
1927.5 8.28571
1928.5 67.5714
1929.5 1.14285
1930.5 59.8571
1931.5 80
1932.5 43
1933.5 13.4286
1934.5 12.5714
1935.5 9.42857
1936.5 -55.8571
1937.5 -52.8571
1938.5 14.7143
1939.5 -10.8571
1940.5 1.71428
1941.5 75.1428
1942.5 20.4286
1943.5 78.1428
1944.5 29.1429
1945.5 64.8571
1946.5 46.7143
1947.5 -2.57143
1948.5 60.1429
1949.5 120.143
1950.5 190.714
1951.5 138
1952.5 97.4286
1953.5 81.7143
1954.5 61.7143
1955.5 22.8571
1956.5 15.8571
1957.5 72
1958.5 71
1959.5 104.429
1960.5 98.1429
1961.5 18.2857
1962.5 -23.7143
1963.5 24.8571
1964.5 25.1429
1965.5 -9.28572
1966.5 -12.1429
1967.5 67.4286
1968.5 46
1969.5 32.5714
1970.5 27.5714
1971.5 48.2857
1972.5 24
1973.5 26.4286
1974.5 -20.4286
1975.5 34.8571
1976.5 13.8571
1977.5 -6.71429
1978.5 9
1979.5 32.7143
1980.5 16.5714
1981.5 6.71428
1982.5 19.7143
1983.5 79
1984.5 45
1985.5 35.7143
1986.5 32.1429
1987.5 51.1429
1988.5 -7.85715
1989.5 69.8571
1990.5 15.5714
1991.5 71.5714
1992.5 26.7143
1993.5 51.5714
1994.5 29
1995.5 46.7143
1996.5 32.7143
1997.5 28.4286
1998.5 -42.4286
1999.5 24.7143
2000.5 21.8571
2001.5 -11.8571
2002.5 15.1429
2003.5 31.8571
2004.5 20.2857
2005.5 5.71428
2006.5 -13
2007.5 34.1429
2008.5 14.5714
2009.5 27.2857
2010.5 7.71428
2011.5 19.2857
2012.5 22.2857
2013.5 3.14285
2014.5 20.2857
2015.5 13.7143
2016.5 44.5714
2017.5 16.5714
2018.5 17.5714
2019.5 49.4286
2020.5 -3.42858
2021.5 40.5714
2022.5 18.8571
2023.5 34.1429
2024.5 23.2857
2025.5 -1.14286
2026.5 26.8571
2027.5 34.7143
2028.5 47.7143
2029.5 49.4286
2030.5 63
2031.5 10.5714
2032.5 8.28571
2033.5 11.7143
2034.5 38.7143
2035.5 -11.2857
2036.5 57.2857
2037.5 29.1429
2038.5 11
2039.5 24.7143
2040.5 20.8571
2041.5 23.1429
2042.5 53.8571
2043.5 44.7143
2044.5 29.5714
2045.5 45.4286
2046.5 64.5714
2047.5 62.2857
2048.5 29.2857
2049.5 49.1429
2050.5 29.2857
2051.5 43.4286
2052.5 27
2053.5 15.8571
2054.5 9.14285
2055.5 27.7143
2056.5 8
2057.5 6.71428
2058.5 6
2059.5 10.2857
2060.5 54
2061.5 19.4286
2062.5 24.1429
2063.5 5.42857
2064.5 34.7143
2065.5 22.1429
2066.5 28
2067.5 21.8571
2068.5 28.8571
2069.5 30.8571
2070.5 59.8571
2071.5 18.7143
2072.5 22.4286
2073.5 71.1429
2074.5 31.7143
2075.5 20.7143
2076.5 28.1429
2077.5 57.2857
2078.5 14
2079.5 15.7143
2080.5 33
2081.5 17.1429
2082.5 18.1429
2083.5 30.7143
2084.5 7.71428
2085.5 10.7143
2086.5 50
2087.5 28
2088.5 32.7143
2089.5 37
2090.5 24.8571
2091.5 19.4286
2092.5 32.2857
2093.5 47.7143
2094.5 23
2095.5 2.14285
2096.5 28.7143
2097.5 -3.42858
2098.5 18.5714
2099.5 20.7143
2100.5 34.7143
2101.5 8.42857
2102.5 37
2103.5 75.2857
2104.5 126.429
2105.5 152.429
2106.5 84
2107.5 76.5714
2108.5 44.8571
2109.5 20.2857
2110.5 22.1429
2111.5 18.1429
2112.5 18.1429
2113.5 36.2857
2114.5 22.1429
2115.5 47
2116.5 28.7143
2117.5 52.7143
2118.5 53.2857
2119.5 6
2120.5 48.1429
2121.5 -13
2122.5 25.2857
2123.5 40.8571
2124.5 16.2857
2125.5 2.85714
2126.5 3.85714
2127.5 43
2128.5 44.2857
2129.5 17.8571
2130.5 13.1429
2131.5 15
2132.5 17
2133.5 31.4286
2134.5 28.4286
2135.5 16.5714
2136.5 11.2857
2137.5 25.7143
2138.5 13.4286
2139.5 -0.571433
2140.5 -4.85715
2141.5 36.7143
2142.5 44.2857
2143.5 109.429
2144.5 100.429
2145.5 50.5714
2146.5 14.7143
2147.5 -16.5714
2148.5 126.429
2149.5 125.429
2150.5 180.714
2151.5 171.714
2152.5 84.8571
2153.5 35.4286
2154.5 23.1429
2155.5 65
2156.5 38.5714
2157.5 50.1429
2158.5 32.4286
2159.5 23.5714
2160.5 5.14285
2161.5 12.1429
2162.5 34.8571
2163.5 16.5714
2164.5 -13.7143
2165.5 8.14285
2166.5 4
2167.5 -31.4286
2168.5 -20.4286
2169.5 6.14285
2170.5 11.1429
2171.5 40.8571
2172.5 15.4286
2173.5 59.7143
2174.5 -5.14286
2175.5 39.7143
2176.5 47
2177.5 8
2178.5 38.2857
2179.5 19
2180.5 29
2181.5 8
2182.5 16.8571
2183.5 -1.71429
2184.5 29.7143
2185.5 55.5714
2186.5 15.1429
2187.5 34
2188.5 59.2857
2189.5 5.57142
2190.5 73.4286
2191.5 74.2857
2192.5 59.2857
2193.5 18.5714
2194.5 11
2195.5 32.2857
2196.5 45.2857
2197.5 102.286
2198.5 186.571
2199.5 349.143
2200.5 266.857
2201.5 150.571
2202.5 72
2203.5 36.2857
2204.5 16
2205.5 17.2857
2206.5 14.5714
2207.5 2.42857
2208.5 44.1429
2209.5 50.2857
2210.5 2
2211.5 41.8571
2212.5 32.2857
2213.5 7.28571
2214.5 11.2857
2215.5 -14.5714
2216.5 7.85714
2217.5 -8.28572
2218.5 11.7143
2219.5 39
2220.5 19
2221.5 34.5714
2222.5 87.5714
2223.5 92.1429
2224.5 51.7143
2225.5 90.2857
2226.5 67.8571
2227.5 28.2857
2228.5 67
2229.5 84.1429
2230.5 41.8571
2231.5 47.1429
2232.5 6.71428
2233.5 22.1429
2234.5 44.7143
2235.5 45.5714
2236.5 2
2237.5 26.1429
2238.5 9.85714
2239.5 8.57143
2240.5 14.5714
2241.5 0.714282
2242.5 0.428568
2243.5 1.71428
2244.5 41.4286
2245.5 32.4286
2246.5 29.1429
2247.5 44.7143
2248.5 -12.7143
2249.5 14.8571
2250.5 46.7143
2251.5 27.4286
2252.5 36.5714
2253.5 41
2254.5 67
2255.5 16
2256.5 25
2257.5 -5
2258.5 4.42857
2259.5 -1.28572
2260.5 14.8571
2261.5 27.1429
2262.5 10
2263.5 1.85714
2264.5 -1.14286
2265.5 -7.57143
2266.5 39.4286
2267.5 15.7143
2268.5 35.2857
2269.5 6
2270.5 2.42857
2271.5 29.2857
2272.5 58.5714
2273.5 10.7143
2274.5 9.57142
2275.5 65.1429
2276.5 110.857
2277.5 92.1429
2278.5 95.2857
2279.5 22.5714
2280.5 44
2281.5 38.5714
2282.5 42.7143
2283.5 45.2857
2284.5 5.71428
2285.5 16.2857
2286.5 13.7143
2287.5 25.4286
2288.5 -7.14286
2289.5 13.4286
2290.5 9
2291.5 13.1429
2292.5 27.4286
2293.5 1.42857
2294.5 16.7143
2295.5 8.42857
2296.5 78.7143
2297.5 43.4286
2298.5 53.4286
2299.5 15.4286
2300.5 45.2857
2301.5 21.5714
2302.5 2.42857
2303.5 19.8571
2304.5 41
2305.5 5.85714
2306.5 -5.57143
2307.5 40.2857
2308.5 34.4286
2309.5 2.28571
2310.5 14.1429
2311.5 39
2312.5 36.1429
2313.5 -17.1429
2314.5 -8.14286
2315.5 33.2857
2316.5 12.2857
2317.5 12
2318.5 11.4286
2319.5 -5.57143
2320.5 25.7143
2321.5 16.2857
2322.5 1.57143
2323.5 47.2857
2324.5 22.1429
2325.5 58.4286
2326.5 29
2327.5 15.8571
2328.5 33.8571
2329.5 8.71428
2330.5 30.1429
2331.5 8.71428
2332.5 23.8571
2333.5 59.8571
2334.5 67.7143
2335.5 89.5714
2336.5 43.1429
2337.5 72.2857
2338.5 27.5714
2339.5 15.8571
2340.5 13.2857
2341.5 -1.14286
2342.5 54.5714
2343.5 -13.1429
2344.5 25.2857
2345.5 30
2346.5 27.7143
2347.5 -9.85715
2348.5 23.4286
2349.5 -41.2857
2350.5 -17
2351.5 -16.5714
2352.5 32.8571
2353.5 -0.714289
2354.5 -21.8571
2355.5 36.5714
2356.5 0.714282
2357.5 -14.5714
2358.5 24.2857
2359.5 50.1429
2360.5 30.1429
2361.5 19
2362.5 25.8571
2363.5 3
2364.5 23.7143
2365.5 45.5714
2366.5 29
2367.5 19.4286
2368.5 11
2369.5 25.8571
2370.5 34.8571
2371.5 15.5714
2372.5 19
2373.5 25.4286
2374.5 4.57142
2375.5 28.5714
2376.5 40.5714
2377.5 27.4286
2378.5 4.85714
2379.5 7.42857
2380.5 11
2381.5 46.7143
2382.5 -12.7143
2383.5 -34.5714
2384.5 19.8571
2385.5 13.4286
2386.5 22.2857
2387.5 -2.42857
2388.5 13
2389.5 11.8571
2390.5 18.7143
2391.5 -1.28572
2392.5 31.2857
2393.5 53
2394.5 24.5714
2395.5 20.1429
2396.5 28.2857
2397.5 33.2857
2398.5 -5.85715
2399.5 23.1429
2400.5 -19.1429
2401.5 -27.8571
2402.5 -8.85715
2403.5 -64.4286
2404.5 -3.14286
2405.5 -11.1429
2406.5 -1.85715
2407.5 8.71428
2408.5 13.1429
2409.5 20.7143
2410.5 25.7143
2411.5 25.2857
2412.5 57.2857
2413.5 126.857
2414.5 202.857
2415.5 154
2416.5 105.714
2417.5 49.4286
2418.5 25.4286
2419.5 11.1429
2420.5 13.5714
2421.5 12.1429
2422.5 11.4286
2423.5 15.5714
2424.5 5.14285
2425.5 42.4286
2426.5 24.4286
2427.5 3.57143
2428.5 -8.85715
2429.5 10.2857
2430.5 16.1429
2431.5 -26.5714
2432.5 58.1429
2433.5 27.2857
2434.5 2.28571
2435.5 51.7143
2436.5 51.7143
2437.5 28.8571
2438.5 29
2439.5 30.7143
2440.5 11.2857
2441.5 30.1429
2442.5 21
2443.5 13.1429
2444.5 -23.4286
2445.5 4.71428
2446.5 12.4286
2447.5 18.5714
2448.5 26.5714
2449.5 22.8571
2450.5 33
2451.5 27.8571
2452.5 6
2453.5 39.4286
2454.5 -19.7143
2455.5 31.5714
2456.5 13.8571
2457.5 2.28571
2458.5 16.7143
2459.5 35.4286
2460.5 -19.7143
2461.5 -30.8571
2462.5 20.8571
2463.5 21.5714
2464.5 35.8571
2465.5 45.7143
2466.5 44.4286
2467.5 18.1429
2468.5 67.8571
2469.5 21.4286
2470.5 77.5714
2471.5 69.7143
2472.5 8.57143
2473.5 38.7143
2474.5 38.5714
2475.5 59.7143
2476.5 68.5714
2477.5 28
2478.5 -9.14286
2479.5 49.5714
2480.5 2.71428
2481.5 7.71428
2482.5 24
2483.5 -23.4286
2484.5 15.7143
2485.5 -0.714288
2486.5 -2.71429
2487.5 2.28571
2488.5 18.5714
2489.5 -0.857146
2490.5 25.4286
2491.5 8.85714
2492.5 0.714283
2493.5 30
2494.5 22.5714
2495.5 40.7143
2496.5 18
2497.5 9.14285
2498.5 13.2857
2499.5 -4.28572
2500.5 4
2501.5 22.8571
2502.5 45
2503.5 42.4286
2504.5 15.2857
2505.5 9.71428
2506.5 48.5714
2507.5 11.5714
2508.5 -0.428575
2509.5 9.71428
2510.5 41.1429
2511.5 -8.42857
2512.5 -15.1429
2513.5 28.1429
2514.5 -29.4286
2515.5 13.1429
2516.5 37.7143
2517.5 45.2857
2518.5 7.57142
2519.5 17.7143
2520.5 -8.85715
2521.5 51.2857
2522.5 36
2523.5 10.1429
2524.5 51.1429
2525.5 42.1429
2526.5 47
2527.5 39.2857
2528.5 29.1429
2529.5 39.7143
2530.5 14
2531.5 33.5714
2532.5 40.5714
2533.5 -5.57143
2534.5 5.14285
2535.5 14.4286
2536.5 13.5714
2537.5 -10
2538.5 9.57143
2539.5 29.2857
2540.5 8.14285
2541.5 9
2542.5 -4.14286
2543.5 8.14285
2544.5 30.1429
2545.5 -8.57143
2546.5 50.2857
2547.5 38
2548.5 21.1429
2549.5 49.8571
2550.5 25.8571
2551.5 32.4286
2552.5 54.4286
2553.5 11
2554.5 33.5714
2555.5 28.5714
2556.5 20.7143
2557.5 31.7143
2558.5 24.7143
2559.5 9.57143
2560.5 17
2561.5 30.4286
2562.5 9.28571
2563.5 30
2564.5 2.57143
2565.5 22.7143
2566.5 39.2857
2567.5 25.2857
2568.5 10.4286
2569.5 -19.7143
2570.5 42
2571.5 6.85714
2572.5 16
2573.5 18
2574.5 82
2575.5 67.1429
2576.5 61.7143
2577.5 16
2578.5 27
2579.5 30.4286
2580.5 -3.71429
2581.5 40.1429
2582.5 20.2857
2583.5 -6.28572
2584.5 18.4286
2585.5 27.2857
2586.5 10.8571
2587.5 -1.57143
2588.5 2.71428
2589.5 -20.4286
2590.5 21.7143
2591.5 24.8571
2592.5 18.5714
2593.5 -2
2594.5 -0.428574
2595.5 11
2596.5 15.1429
2597.5 -0.142859
2598.5 36.1429
2599.5 20.5714
2600.5 -7.42857
2601.5 14.2857
2602.5 23.1429
2603.5 18.8571
2604.5 33
2605.5 -8.57143
2606.5 29.4286
2607.5 -6.57143
2608.5 -22.5714
2609.5 50.7143
2610.5 45.8571
2611.5 10.1429
2612.5 -1.28572
2613.5 19.7143
2614.5 55.5714
2615.5 20.5714
2616.5 14
2617.5 40.4286
2618.5 69.1429
2619.5 50.2857
2620.5 11.8571
2621.5 0.999996
2622.5 0.285712
2623.5 31.1429
2624.5 9.71428
2625.5 7.42857
2626.5 4.85714
2627.5 13.7143
2628.5 48.2857
2629.5 10.8571
2630.5 35.4286
2631.5 8.71428
2632.5 -11.8571
2633.5 16
2634.5 26.4286
2635.5 -8.28572
2636.5 3
2637.5 1.71428
2638.5 46.8571
2639.5 2.42857
2640.5 -1.28572
2641.5 1.42857
2642.5 38.2857
2643.5 18.2857
2644.5 51.4286
2645.5 7.71428
2646.5 -7
2647.5 18.5714
2648.5 16.5714
2649.5 -3.57143
2650.5 55.5714
2651.5 20.7143
2652.5 -0.285718
2653.5 44
2654.5 70.2857
2655.5 60.5714
2656.5 50.2857
2657.5 56.2857
2658.5 37.7143
2659.5 34.1429
2660.5 29.5714
2661.5 6.57143
2662.5 1.42857
2663.5 23.2857
2664.5 21.2857
2665.5 1.28571
2666.5 -49.2857
2667.5 -53.7143
2668.5 -56.1429
2669.5 -13.7143
2670.5 16.5714
2671.5 29.4286
2672.5 -17.7143
2673.5 8.14285
2674.5 -8.85715
2675.5 -22.7143
2676.5 -20.1429
2677.5 -28.1429
2678.5 50.5714
2679.5 7.57143
2680.5 -9.42857
2681.5 11.8571
2682.5 -15.7143
2683.5 8.85714
2684.5 15
2685.5 30.8571
2686.5 32
2687.5 28.8571
2688.5 29
2689.5 28.1429
2690.5 17.2857
2691.5 39.7143
2692.5 15.2857
2693.5 20.8571
2694.5 40.5714
2695.5 18.7143
2696.5 20.2857
2697.5 0.999998
2698.5 45.5714
2699.5 11.5714
2700.5 0.857141
2701.5 24.5714
2702.5 -6.57143
2703.5 32.2857
2704.5 17.7143
2705.5 26.4286
2706.5 30.2857
2707.5 20.8571
2708.5 13.1429
2709.5 22.2857
2710.5 7.85714
2711.5 -10.2857
2712.5 -3.85715
2713.5 20.7143
2714.5 18.5714
2715.5 -22.1429
2716.5 12
2717.5 18.1429
2718.5 7.85714
2719.5 56
2720.5 32.8571
2721.5 62.5714
2722.5 11.8571
2723.5 7.42857
2724.5 -6.14286
2725.5 31.4286
2726.5 -4.85715
2727.5 6.85714
2728.5 21.4286
2729.5 9.71428
2730.5 19
2731.5 7.14285
2732.5 44.4286
2733.5 42.4286
2734.5 21.5714
2735.5 53.1429
2736.5 10.4286
2737.5 38.4286
2738.5 52
2739.5 29
2740.5 46
2741.5 37.7143
2742.5 -2.14286
2743.5 8.57143
2744.5 22.1429
2745.5 31.1429
2746.5 17.8571
2747.5 56.1429
2748.5 2.85714
2749.5 5.14285
2750.5 35.1429
2751.5 35.5714
2752.5 25.2857
2753.5 31.8571
2754.5 -10.4286
2755.5 26.7143
2756.5 36
2757.5 40
2758.5 31.2857
2759.5 52.5714
2760.5 41.7143
2761.5 -36.1429
2762.5 28.8571
2763.5 17.2857
2764.5 15.2857
2765.5 15.1429
2766.5 27.1429
2767.5 25.7143
2768.5 9.42857
2769.5 -12.5714
2770.5 23.4286
2771.5 3.71428
2772.5 4.14285
2773.5 14.8571
2774.5 26
2775.5 28.2857
2776.5 -13.5714
2777.5 13.7143
2778.5 11.4286
2779.5 7.85714
2780.5 23.8571
2781.5 9.57143
2782.5 28.7143
2783.5 10.1429
2784.5 10.8571
2785.5 13
2786.5 28.7143
2787.5 33.2857
2788.5 29
2789.5 -0.285717
2790.5 22.4286
2791.5 22.2857
2792.5 32.5714
2793.5 55.4286
2794.5 4.85714
2795.5 14
2796.5 25
2797.5 13.7143
2798.5 10.5714
2799.5 9.57143
2800.5 19.2857
2801.5 13
2802.5 25.2857
2803.5 6.71428
2804.5 28.7143
2805.5 13.7143
2806.5 -2.71429
2807.5 13.4286
2808.5 21
2809.5 44
2810.5 19.5714
2811.5 -2.14286
2812.5 -3.28572
2813.5 -10.1429
2814.5 -9.85715
2815.5 20.2857
2816.5 16.8571
2817.5 31.8571
2818.5 2.71428
2819.5 -9.14286
2820.5 0.285712
2821.5 -6.57143
2822.5 38.1429
2823.5 -8.28572
2824.5 43.1429
2825.5 25.2857
2826.5 19.8571
2827.5 15.7143
2828.5 14
2829.5 18.2857
2830.5 21.2857
2831.5 33.7143
2832.5 -9.57143
2833.5 27.8571
2834.5 3
2835.5 22
2836.5 10.7143
2837.5 -11.7143
2838.5 7.42857
2839.5 23.1429
2840.5 3.57143
2841.5 -6.57143
2842.5 2.71428
2843.5 24.5714
2844.5 21
2845.5 19.7143
2846.5 43.1429
2847.5 -11.4286
2848.5 24.5714
2849.5 26
2850.5 51.2857
2851.5 -2.38419e-06
2852.5 12.4286
2853.5 40.8571
2854.5 38.4286
2855.5 28.1429
2856.5 58
2857.5 29
2858.5 26.7143
2859.5 -2.28572
2860.5 32.1429
2861.5 26.1429
2862.5 4.42857
2863.5 71.5714
2864.5 44.8571
2865.5 -5.28572
2866.5 19.7143
2867.5 40
2868.5 -0.857145
2869.5 4
2870.5 4.71428
2871.5 5.71428
2872.5 1.28571
2873.5 -10.7143
2874.5 4.57143
2875.5 0.428569
2876.5 -13.5714
2877.5 29.4286
2878.5 35.5714
2879.5 8
2880.5 20
2881.5 21.8571
2882.5 37.5714
2883.5 29.1429
2884.5 26.5714
2885.5 57.4286
2886.5 60
2887.5 30
2888.5 35.7143
2889.5 43.8571
2890.5 5.28571
2891.5 6.28571
2892.5 25.7143
2893.5 11.7143
2894.5 31
2895.5 28.1429
2896.5 -3.57143
2897.5 24
2898.5 5.14286
2899.5 8.28571
2900.5 15.4286
2901.5 31.7143
2902.5 23.8571
2903.5 17.4286
2904.5 35
2905.5 18.2857
2906.5 11.8571
2907.5 12.2857
2908.5 13.8571
2909.5 14.1429
2910.5 8.42857
2911.5 7.14285
2912.5 19.4286
2913.5 13.1429
2914.5 18.1429
2915.5 12.4286
2916.5 0.285712
2917.5 25.8571
2918.5 25.1429
2919.5 4.71428
2920.5 4.42857
2921.5 32
2922.5 11
2923.5 25.4286
2924.5 3.71428
2925.5 20.7143
2926.5 12
2927.5 -8.57143
2928.5 12.5714
2929.5 -19.1429
2930.5 -22.8571
2931.5 13.8571
2932.5 34
2933.5 8.42857
2934.5 24.8571
2935.5 37.5714
2936.5 36.1429
2937.5 4.14285
2938.5 9.42857
2939.5 31.7143
2940.5 12.2857
2941.5 24.8571
2942.5 30
2943.5 49.2857
2944.5 4.57142
2945.5 60.8571
2946.5 -3.71429
2947.5 62.5714
2948.5 34.7143
2949.5 57.7143
2950.5 29.2857
2951.5 11.4286
2952.5 0.142854
2953.5 21.5714
2954.5 34
2955.5 6.71428
2956.5 20.4286
2957.5 23.8571
2958.5 17.1429
2959.5 -13.2857
2960.5 14.5714
2961.5 -3.71429
2962.5 14.1429
2963.5 10
2964.5 27.4286
2965.5 50.2857
2966.5 28
2967.5 24
2968.5 32.4286
2969.5 28.7143
2970.5 5
2971.5 -24.8571
2972.5 30.1429
2973.5 24.7143
2974.5 1.71428
2975.5 46.1429
2976.5 19.2857
2977.5 21.8571
2978.5 21.5714
2979.5 29.8571
2980.5 32
2981.5 56.4286
2982.5 36
2983.5 53.4286
2984.5 27.5714
2985.5 40.2857
2986.5 11.5714
2987.5 11.5714
2988.5 23.7143
2989.5 13.8571
2990.5 50.7143
2991.5 24.1429
2992.5 -14.7143
2993.5 -1.57143
2994.5 40.8571
2995.5 -7.85715
2996.5 20
2997.5 32.2857
2998.5 13.2857
2999.5 32
3000.5 -6.28572
3001.5 12.7143
3002.5 34.7143
3003.5 24.8571
3004.5 33
3005.5 55.4286
3006.5 67.5714
3007.5 18.1429
3008.5 17.1429
3009.5 -18.5714
3010.5 27
3011.5 -10
3012.5 3.28571
3013.5 -10.2857
3014.5 5.42857
3015.5 51.5714
3016.5 12.5714
3017.5 18.5714
3018.5 22.5714
3019.5 11
3020.5 0.714284
3021.5 2.28571
3022.5 10.8571
3023.5 7.57143
3024.5 -0.428573
3025.5 23.4286
3026.5 -2.71429
3027.5 -27.5714
3028.5 19
3029.5 33.2857
3030.5 6
3031.5 2.85714
3032.5 63.7143
3033.5 17
3034.5 21.4286
3035.5 22.2857
3036.5 44
3037.5 58.1429
3038.5 118.571
3039.5 69.5714
3040.5 72
3041.5 38.1429
3042.5 24.5714
3043.5 33
3044.5 26.8571
3045.5 40
3046.5 44.4286
3047.5 -1.90735e-06
3048.5 17.7143
3049.5 50.5714
3050.5 24.7143
3051.5 25.4286
3052.5 22.8571
3053.5 34.8571
3054.5 10
3055.5 28
3056.5 40.7143
3057.5 36.1429
3058.5 31.2857
3059.5 70.7143
3060.5 78.2857
3061.5 122.571
3062.5 103.714
3063.5 103.143
3064.5 40.8571
3065.5 27.8571
3066.5 -2.28572
3067.5 45.5714
3068.5 19.5714
3069.5 8.28571
3070.5 7.14286
3071.5 22
3072.5 5.71428
3073.5 12.5714
3074.5 37.5714
3075.5 -10.4286
3076.5 34.7143
3077.5 3.71428
3078.5 33
3079.5 3.14286
3080.5 0.285712
3081.5 33.7143
3082.5 21.7143
3083.5 46.4286
3084.5 2.14286
3085.5 22.5714
3086.5 20.1429
3087.5 30.2857
3088.5 13.1429
3089.5 29.8571
3090.5 16.7143
3091.5 24.4286
3092.5 43.7143
3093.5 13.4286
3094.5 -14.1429
3095.5 19.5714
3096.5 11.8571
3097.5 36.2857
3098.5 -9.28572
3099.5 17.1429
3100.5 -5.14286
3101.5 22.8571
3102.5 -8.57143
3103.5 4.42857
3104.5 -1.57143
3105.5 38.5714
3106.5 31.8571
3107.5 22.5714
3108.5 25.5714
3109.5 36.2857
3110.5 13.7143
3111.5 -16.5714
3112.5 11
3113.5 -3.57143
3114.5 17.4286
3115.5 15.2857
3116.5 15
3117.5 4.57143
3118.5 31.8571
3119.5 16.8571
3120.5 17.1429
3121.5 -1.71429
3122.5 22.1429
3123.5 6.14286
3124.5 18
3125.5 16.8571
3126.5 11.7143
3127.5 16.1429
3128.5 28.2857
3129.5 16.8571
3130.5 -5.42857
3131.5 15.4286
3132.5 25.4286
3133.5 12.1429
3134.5 14.7143
3135.5 27.1429
3136.5 16.1429
3137.5 50.5714
3138.5 30.4286
3139.5 42.5714
3140.5 39.4286
3141.5 24
3142.5 5.57143
3143.5 32.8571
3144.5 25.7143
3145.5 0.999997
3146.5 22.5714
3147.5 46.4286
3148.5 3.42857
3149.5 5.42857
3150.5 12.2857
3151.5 4.28571
3152.5 -5.57143
3153.5 24
3154.5 25.1429
3155.5 18
3156.5 6.42857
3157.5 0.428569
3158.5 16.2857
3159.5 11.2857
3160.5 -0.714288
3161.5 3.85714
3162.5 18.5714
3163.5 19.7143
3164.5 -26.7143
3165.5 -11.2857
3166.5 20.8571
3167.5 26
3168.5 46.1429
3169.5 17
3170.5 -4
3171.5 38.8571
3172.5 0.714284
3173.5 18.2857
3174.5 38
3175.5 31.2857
3176.5 83.2857
3177.5 25
3178.5 44
3179.5 9
3180.5 15.5714
3181.5 27.4286
3182.5 12.5714
3183.5 14.2857
3184.5 45.8571
3185.5 66.1429
3186.5 59.8571
3187.5 50.5714
3188.5 84
3189.5 24
3190.5 0.571426
3191.5 -7.71429
3192.5 38.8571
3193.5 41.5714
3194.5 6
3195.5 8.42857
3196.5 15.7143
3197.5 8
3198.5 39.2857
3199.5 28.7143
3200.5 24.2857
3201.5 65.8571
3202.5 53.8571
3203.5 57
3204.5 58.7143
3205.5 77.2857
3206.5 51
3207.5 38.4286
3208.5 23.2857
3209.5 34.2857
3210.5 13
3211.5 2
3212.5 19
3213.5 16.1429
3214.5 -14
3215.5 20
3216.5 2.42857
3217.5 5.57143
3218.5 36.1429
3219.5 -15.7143
3220.5 -8.71429
3221.5 -7.57143
3222.5 -5.28572
3223.5 -10.1429
3224.5 0.285712
3225.5 -13.2857
3226.5 12.7143
3227.5 7.85714
3228.5 20.5714
3229.5 35.4286
3230.5 25.8571
3231.5 26.4286
3232.5 51.1429
3233.5 54.8571
3234.5 24.5714
3235.5 37.1429
3236.5 8.14285
3237.5 28.4286
3238.5 19.1429
3239.5 29.1429
3240.5 14
3241.5 41.2857
3242.5 42.1429
3243.5 21.8571
3244.5 18.4286
3245.5 38.5714
3246.5 13.5714
3247.5 12
3248.5 18.5714
3249.5 33.4286
3250.5 -0.142859
3251.5 6.85714
3252.5 30
3253.5 10.1429
3254.5 23.1429
3255.5 8.57143
3256.5 0.857141
3257.5 5
3258.5 15.1429
3259.5 10.1429
3260.5 -6.57143
3261.5 27.7143
3262.5 3.85714
3263.5 2.71428
3264.5 -6
3265.5 9.14285
3266.5 17
3267.5 -6.14286
3268.5 20.4286
3269.5 38.4286
3270.5 8.71428
3271.5 12.5714
3272.5 16.2857
3273.5 4
3274.5 46.2857
3275.5 27.4286
3276.5 41.4286
3277.5 48
3278.5 56.2857
3279.5 23.5714
3280.5 27
3281.5 17.7143
3282.5 46.4286
3283.5 -25.1429
3284.5 8.28571
3285.5 29.2857
3286.5 25.4286
3287.5 16.8571
3288.5 20.8571
3289.5 10
3290.5 10.1429
3291.5 28.1429
3292.5 6
3293.5 8.42857
3294.5 22.8571
3295.5 18
3296.5 33.7143
3297.5 24.8571
3298.5 42.2857
3299.5 20.7143
3300.5 -4.28572
3301.5 51
3302.5 34.8571
3303.5 25.8571
3304.5 15.5714
3305.5 25.5714
3306.5 29.5714
3307.5 39.5714
3308.5 19.1429
3309.5 0.714284
3310.5 14.8571
3311.5 14.1429
3312.5 49.2857
3313.5 38.1429
3314.5 23.5714
3315.5 9.28571
3316.5 15.8571
3317.5 12.5714
3318.5 9.71428
3319.5 28.8571
3320.5 10.4286
3321.5 54.5714
3322.5 48.7143
3323.5 65.4286
3324.5 13.5714
3325.5 28.7143
3326.5 22.7143
3327.5 5.42857
3328.5 41.1429
3329.5 19.5714
3330.5 12.8571
3331.5 -21.8571
3332.5 23.1429
3333.5 -15
3334.5 22.1429
3335.5 7.14286
3336.5 -3.57143
3337.5 32
3338.5 22.7143
3339.5 17.1429
3340.5 40.5714
3341.5 29
3342.5 31.5714
3343.5 2.28571
3344.5 -3.42857
3345.5 -10.7143
3346.5 18.1429
3347.5 -6.14286
3348.5 13
3349.5 10.2857
3350.5 10.7143
3351.5 19
3352.5 15.7143
3353.5 11.7143
3354.5 2.85714
3355.5 4
3356.5 27.2857
3357.5 7.85714
3358.5 9.28571
3359.5 23.7143
3360.5 -3.71429
3361.5 19.7143
3362.5 32.4286
3363.5 34
3364.5 40.5714
3365.5 84.7143
3366.5 104.714
3367.5 131.143
3368.5 102.429
3369.5 63.2857
3370.5 53.1429
3371.5 -4.85714
3372.5 9.85714
3373.5 38.5714
3374.5 32.5714
3375.5 37.4286
3376.5 10.1429
3377.5 15.5714
3378.5 21.4286
3379.5 7.85714
3380.5 -4.71429
3381.5 -3
3382.5 21.7143
3383.5 18.4286
3384.5 6.28571
3385.5 12.8571
3386.5 -9
3387.5 13.4286
3388.5 -18.7143
3389.5 -16
3390.5 9.28571
3391.5 22.8571
3392.5 7.71428
3393.5 2.28571
3394.5 35.5714
3395.5 31.5714
3396.5 9
3397.5 14.4286
3398.5 33.7143
3399.5 23.8571
3400.5 29.4286
3401.5 7.85714
3402.5 11.1429
3403.5 15.7143
3404.5 6.28571
3405.5 15.5714
3406.5 7.28571
3407.5 20.2857
3408.5 20.5714
3409.5 12.8571
3410.5 5.71428
3411.5 17.7143
3412.5 7.42857
3413.5 27
3414.5 10.8571
3415.5 12.5714
3416.5 35.8571
3417.5 22.5714
3418.5 23.8571
3419.5 4
3420.5 18.1429
3421.5 13.8571
3422.5 22.1429
3423.5 16.5714
3424.5 41.4286
3425.5 -19.2857
3426.5 2.85714
3427.5 18.7143
3428.5 19.7143
3429.5 16.8571
3430.5 -32.7143
3431.5 10.1429
3432.5 8.42857
3433.5 37
3434.5 11.5714
3435.5 16.5714
3436.5 8
3437.5 6.42857
3438.5 -1.85714
3439.5 25.8571
3440.5 15.8571
3441.5 38
3442.5 25.2857
3443.5 16.1429
3444.5 34.5714
3445.5 -7.42857
3446.5 20.7143
3447.5 25.8571
3448.5 38.7143
3449.5 -5
3450.5 15.2857
3451.5 49
3452.5 29.7143
3453.5 43.8571
3454.5 19.2857
3455.5 38.5714
3456.5 6.42857
3457.5 14.1429
3458.5 0.571427
3459.5 36.1429
3460.5 31.5714
3461.5 17.7143
3462.5 5.57143
3463.5 5.14285
3464.5 10.2857
3465.5 -7.85715
3466.5 17.1429
3467.5 27
3468.5 28.5714
3469.5 24.7143
3470.5 16.2857
3471.5 15
3472.5 12.2857
3473.5 25.4286
3474.5 24
3475.5 39.7143
3476.5 31.4286
3477.5 -4.57143
3478.5 11.2857
3479.5 9.57143
3480.5 22
3481.5 2.57143
3482.5 30.7143
3483.5 34.8571
3484.5 18.1429
3485.5 15.1429
3486.5 39.5714
3487.5 33
3488.5 2.28571
3489.5 12.2857
3490.5 7.57143
3491.5 -6.57143
3492.5 10.7143
3493.5 -4.71429
3494.5 24.5714
3495.5 10.7143
3496.5 10
3497.5 7.42857
3498.5 33.4286
3499.5 22.5714
3500.5 19
3501.5 32.8571
3502.5 2.28571
3503.5 23.8571
3504.5 4.57143
3505.5 28
3506.5 21.5714
3507.5 13.2857
3508.5 -27
3509.5 -10.5714
3510.5 18.2857
3511.5 -14
3512.5 -17.1429
3513.5 -7
3514.5 -0.285716
3515.5 -1.66893e-06
3516.5 25.4286
3517.5 19.7143
3518.5 28
3519.5 5.71428
3520.5 23.1429
3521.5 13.7143
3522.5 14
3523.5 22.4286
3524.5 49.8571
3525.5 32.1429
3526.5 27.2857
3527.5 13.5714
3528.5 11.1429
3529.5 36.2857
3530.5 51.2857
3531.5 17.5714
3532.5 35.1429
3533.5 33.1429
3534.5 -4.14286
3535.5 1.42857
3536.5 12.8571
3537.5 20
3538.5 3.71428
3539.5 13.4286
3540.5 15.1429
3541.5 16
3542.5 -3.42857
3543.5 -1.71429
3544.5 7.28571
3545.5 17.7143
3546.5 12.5714
3547.5 0.999998
3548.5 12.1429
3549.5 43.1429
3550.5 3.42857
3551.5 16.2857
3552.5 33.1429
3553.5 11.7143
3554.5 14.5714
3555.5 1.14286
3556.5 12.2857
3557.5 22.8571
3558.5 -4.42857
3559.5 -5.71429
3560.5 -14.1429
3561.5 7.85714
3562.5 9.57143
3563.5 -4.57143
3564.5 -5.42857
3565.5 1.71428
3566.5 19.1429
3567.5 12
3568.5 14.7143
3569.5 28.2857
3570.5 42.8571
3571.5 20.1429
3572.5 14.7143
3573.5 21.7143
3574.5 8.28571
3575.5 0.571427
3576.5 19.7143
3577.5 12.7143
3578.5 -1.43051e-06
3579.5 19
3580.5 37.7143
3581.5 12.4286
3582.5 5
3583.5 1.85714
3584.5 17.5714
3585.5 20.1429
3586.5 -8.14286
3587.5 20.8571
3588.5 19.8571
3589.5 28.1429
3590.5 38.4286
3591.5 7.71428
3592.5 22.2857
3593.5 15.7143
3594.5 25.1429
3595.5 17.1429
3596.5 13
3597.5 -21
3598.5 24.1429
3599.5 21
3600.5 13.4286
3601.5 20.5714
3602.5 7.57143
3603.5 31.8571
3604.5 22.7143
3605.5 30.5714
3606.5 17.5714
3607.5 30.4286
3608.5 13.5714
3609.5 23
3610.5 4.57143
3611.5 11.2857
3612.5 10.7143
3613.5 9
3614.5 11.8571
3615.5 25.5714
3616.5 14.2857
3617.5 44
3618.5 14
3619.5 42
3620.5 44.5714
3621.5 42.1429
3622.5 45
3623.5 6.14285
3624.5 9.28571
3625.5 4.28571
3626.5 11.4286
3627.5 12.1429
3628.5 27.2857
3629.5 9.14286
3630.5 2.71428
3631.5 10.2857
3632.5 14.5714
3633.5 5.28571
3634.5 30.7143
3635.5 8.85714
3636.5 0.857141
3637.5 21.5714
3638.5 19.4286
3639.5 20
3640.5 19.7143
3641.5 3
3642.5 0.42857
3643.5 42.1429
3644.5 38.7143
3645.5 54.5714
3646.5 64.7143
3647.5 74.5714
3648.5 129.429
3649.5 158.286
3650.5 141
3651.5 121.429
3652.5 105.571
3653.5 62.1429
3654.5 46
3655.5 25
3656.5 24.2857
3657.5 8.71428
3658.5 22.4286
3659.5 16.5714
3660.5 19.5714
3661.5 21.5714
3662.5 6.42857
3663.5 6.71428
3664.5 10.4286
3665.5 -6.57143
3666.5 22.5714
3667.5 -1
3668.5 23.4286
3669.5 6.71428
3670.5 37.1429
3671.5 30.5714
3672.5 4.42857
3673.5 -18.4286
3674.5 4.71428
3675.5 5.14286
3676.5 19.4286
3677.5 4
3678.5 7.28571
3679.5 8.85714
3680.5 19
3681.5 18.8571
3682.5 9.85714
3683.5 -8.28572
3684.5 8.57143
3685.5 21.7143
3686.5 23.8571
3687.5 14.8571
3688.5 26.4286
3689.5 28
3690.5 35.7143
3691.5 31.8571
3692.5 21.2857
3693.5 55.1429
3694.5 78.2857
3695.5 91.8571
3696.5 99.7143
3697.5 133.571
3698.5 154.143
3699.5 127
3700.5 70.8571
3701.5 37.4286
3702.5 35.8571
3703.5 17.2857
3704.5 14.8571
3705.5 28.1429
3706.5 8.85714
3707.5 13.7143
3708.5 4.28571
3709.5 3
3710.5 13.4286
3711.5 18.2857
3712.5 -7.14286
3713.5 24.7143
3714.5 30.1429
3715.5 7.42857
3716.5 15.7143
3717.5 -1.14286
3718.5 12.1429
3719.5 -4.57143
3720.5 16.8571
3721.5 18.5714
3722.5 17.1429
3723.5 6.71428
3724.5 3.28571
3725.5 20.7143
3726.5 25.7143
3727.5 18.1429
3728.5 15.2857
3729.5 -2
3730.5 5.71428
3731.5 25.2857
3732.5 23.4286
3733.5 4.71428
3734.5 27.8571
3735.5 18.2857
3736.5 1.42857
3737.5 25.2857
3738.5 28
3739.5 36.7143
3740.5 -2.14286
3741.5 19.1429
3742.5 13
3743.5 24.5714
3744.5 7
3745.5 20.7143
3746.5 14.7143
3747.5 20.5714
3748.5 26.1429
3749.5 43.1429
3750.5 30.1429
3751.5 5.57143
3752.5 50.5714
3753.5 64.1429
3754.5 56.5714
3755.5 38.4286
3756.5 4.85714
3757.5 50
3758.5 -8.14286
3759.5 26.2857
3760.5 8
3761.5 15.5714
3762.5 7.57143
3763.5 50.8571
3764.5 14.2857
3765.5 13.7143
3766.5 9.57143
3767.5 23.5714
3768.5 38.8571
3769.5 20.8571
3770.5 22.8571
3771.5 23.7143
3772.5 27.5714
3773.5 5.85714
3774.5 25
3775.5 24.7143
3776.5 26.5714
3777.5 34.2857
3778.5 19.1429
3779.5 7.14286
3780.5 16.1429
3781.5 35.2857
3782.5 -2.28572
3783.5 6
3784.5 15.5714
3785.5 6.28571
3786.5 29.4286
3787.5 24.2857
3788.5 1.85714
3789.5 20.8571
3790.5 31.1429
3791.5 11.1429
3792.5 25.4286
3793.5 25.1429
3794.5 27.4286
3795.5 18.7143
3796.5 -1.14286
3797.5 7.57143
3798.5 20.1429
3799.5 9.57143
3800.5 35.5714
3801.5 50.4286
3802.5 19.8571
3803.5 1.85714
3804.5 22.2857
3805.5 1.42857
3806.5 22
3807.5 29
3808.5 -4.71429
3809.5 17.4286
3810.5 9.71428
3811.5 5.71428
3812.5 16.1429
3813.5 29.1429
3814.5 7.14286
3815.5 10
3816.5 17
3817.5 35.5714
3818.5 23.1429
3819.5 11.5714
3820.5 16.5714
3821.5 -7.85714
3822.5 1.28571
3823.5 20.2857
3824.5 18
3825.5 14.5714
3826.5 47.2857
3827.5 15.5714
3828.5 17.1429
3829.5 16
3830.5 4.71428
3831.5 10
3832.5 15
3833.5 23.1429
3834.5 20.5714
3835.5 3.28571
3836.5 19.8571
3837.5 24.5714
3838.5 31.8571
3839.5 -1.19209e-06
3840.5 24
3841.5 8
3842.5 9.14286
3843.5 35.1429
3844.5 1.14286
3845.5 7.85714
3846.5 12.5714
3847.5 31.4286
3848.5 34.7143
3849.5 14
3850.5 54.2857
3851.5 28.1429
3852.5 30.1429
3853.5 30.5714
3854.5 23.2857
3855.5 14.1429
3856.5 24.1429
3857.5 25.1429
3858.5 6.85714
3859.5 -7.14286
3860.5 4
3861.5 5.14286
3862.5 1.14285
3863.5 -5.57143
3864.5 5.14286
3865.5 -10.7143
3866.5 -4.57143
3867.5 -9
3868.5 -8.28572
3869.5 -12.4286
3870.5 25.2857
3871.5 34
3872.5 18.4286
3873.5 19.8571
3874.5 25.5714
3875.5 -18.5714
3876.5 30.4286
3877.5 -4.85714
3878.5 11.2857
3879.5 -1.42857
3880.5 18
3881.5 30.5714
3882.5 30.7143
3883.5 44.1429
3884.5 39.2857
3885.5 12.5714
3886.5 34.7143
3887.5 15.4286
3888.5 38.2857
3889.5 28.7143
3890.5 41
3891.5 22.7143
3892.5 12.1429
3893.5 19.7143
3894.5 26.5714
3895.5 17.5714
3896.5 26.5714
3897.5 -5.85714
3898.5 15.5714
3899.5 14.4286
3900.5 7.85714
3901.5 6.71428
3902.5 20.1429
3903.5 5.85714
3904.5 36.5714
3905.5 20.2857
3906.5 11.8571
3907.5 23.2857
3908.5 17.2857
3909.5 33.2857
3910.5 14.8571
3911.5 29.4286
3912.5 17.8571
3913.5 27.5714
3914.5 29
3915.5 10.2857
3916.5 25.7143
3917.5 17
3918.5 19.4286
3919.5 18.4286
3920.5 13.7143
3921.5 18.2857
3922.5 35.4286
3923.5 41.2857
3924.5 31.4286
3925.5 10
3926.5 25.4286
3927.5 12.5714
3928.5 19.1429
3929.5 18.1429
3930.5 15.2857
3931.5 24.1429
3932.5 30.4286
3933.5 24.7143
3934.5 11.8571
3935.5 16.2857
3936.5 -3.42857
3937.5 11.7143
3938.5 10.1429
3939.5 17.8571
3940.5 -1
3941.5 11.7143
3942.5 15
3943.5 9.71428
3944.5 23
3945.5 28.1429
3946.5 9.14286
3947.5 26
3948.5 54
3949.5 13.2857
3950.5 40
3951.5 13
3952.5 13.1429
3953.5 25.2857
3954.5 29
3955.5 28.2857
3956.5 13.8571
3957.5 40.1429
3958.5 29.2857
3959.5 32.1429
3960.5 11
3961.5 20.1429
3962.5 13.5714
3963.5 34.1429
3964.5 36.1429
3965.5 21.7143
3966.5 21.4286
3967.5 6.57143
3968.5 19
3969.5 21.1429
3970.5 76
3971.5 32.8571
3972.5 46.1429
3973.5 32.8571
3974.5 2.57143
3975.5 18.5714
3976.5 21.4286
3977.5 9.85714
3978.5 7.28571
3979.5 16.8571
3980.5 2.71428
3981.5 25.5714
3982.5 19.7143
3983.5 29.4286
3984.5 17
3985.5 27.5714
3986.5 18.2857
3987.5 -0.142858
3988.5 12.8571
3989.5 21.4286
3990.5 26.7143
3991.5 20.5714
3992.5 32.7143
3993.5 20.7143
3994.5 35.5714
3995.5 31.1429
3996.5 22.8571
3997.5 46.1429
3998.5 23.4286
3999.5 15
4000.5 25.5714
4001.5 17.2857
4002.5 20.1429
4003.5 17.8571
4004.5 10.2857
4005.5 21.1429
4006.5 2
4007.5 38.2857
4008.5 44.1429
4009.5 27.2857
4010.5 38.5714
4011.5 11.5714
4012.5 19
4013.5 13.7143
4014.5 19.7143
4015.5 19.7143
4016.5 -10.1429
4017.5 7.85714
4018.5 13.8571
4019.5 -11.4286
4020.5 5.71428
4021.5 31.8571
4022.5 10.4286
4023.5 31.7143
4024.5 11.4286
4025.5 5.14286
4026.5 10.1429
4027.5 2.28571
4028.5 29.8571
4029.5 19.8571
4030.5 30.2857
4031.5 35.4286
4032.5 80.5714
4033.5 88.7143
4034.5 88.4286
4035.5 63.5714
4036.5 76.4286
4037.5 48.5714
4038.5 47.4286
4039.5 11
4040.5 13.2857
4041.5 23
4042.5 10.5714
4043.5 14.7143
4044.5 14.8571
4045.5 11.7143
4046.5 15.8571
4047.5 3.71428
4048.5 -4.42857
4049.5 20.2857
4050.5 23.7143
4051.5 19.5714
4052.5 23.4286
4053.5 22.8571
4054.5 24.8571
4055.5 0.142856
4056.5 23
4057.5 -2.14286
4058.5 21.8571
4059.5 33.1429
4060.5 13.2857
4061.5 18.7143
4062.5 -1.28572
4063.5 4.42857
4064.5 20.5714
4065.5 5.14286
4066.5 3.28571
4067.5 21.4286
4068.5 22.8571
4069.5 2.57143
4070.5 23.4286
4071.5 19.1429
4072.5 7.57143
4073.5 15.4286
4074.5 30.4286
4075.5 5.28571
4076.5 18.7143
4077.5 3.57143
4078.5 8.14286
4079.5 14.7143
4080.5 21.4286
4081.5 -5.42857
4082.5 15.5714
4083.5 1.71428
4084.5 9.28571
4085.5 25.1429
4086.5 12.8571
4087.5 24
4088.5 13.4286
4089.5 13
4090.5 11
4091.5 8.71428
4092.5 5.71428
4093.5 2.57143
4094.5 6
4095.5 0.714285
4096.5 9.71429
4097.5 8
4098.5 31.8571
4099.5 13.1429
4100.5 13.4286
4101.5 18.2857
4102.5 -4.71429
4103.5 -1.57143
4104.5 -1.57143
4105.5 11.4286
4106.5 -0.57143
4107.5 12.1429
4108.5 2.71428
4109.5 15.2857
4110.5 15.8571
4111.5 21
4112.5 11.8571
4113.5 16.4286
4114.5 12
4115.5 27.4286
4116.5 -1.28572
4117.5 23.5714
4118.5 18
4119.5 23.4286
4120.5 14.7143
4121.5 11.4286
4122.5 39
4123.5 -3.85714
4124.5 12
4125.5 0.285713
4126.5 16.2857
4127.5 -1.28572
4128.5 49.5714
4129.5 27.1429
4130.5 21.1429
4131.5 47.4286
4132.5 40.8571
4133.5 44.4286
4134.5 63.4286
4135.5 57.1429
4136.5 18.2857
4137.5 25.8571
4138.5 22
4139.5 8.42857
4140.5 10.8571
4141.5 15.2857
4142.5 24.1429
4143.5 9.14286
4144.5 22.1429
4145.5 -6.85714
4146.5 14.7143
4147.5 6.28571
4148.5 31.1429
4149.5 29.5714
4150.5 20
4151.5 19.5714
4152.5 9.28571
4153.5 12.2857
4154.5 11.2857
4155.5 28.4286
4156.5 6.85714
4157.5 -3.28572
4158.5 16.4286
4159.5 5.57143
4160.5 7.42857
4161.5 0.571428
4162.5 11.8571
4163.5 0.714285
4164.5 2.14286
4165.5 6.57143
4166.5 9.71428
4167.5 28.4286
4168.5 16.2857
4169.5 26.5714
4170.5 -9.71429
4171.5 5.28571
4172.5 5.28571
4173.5 9.57143
4174.5 1.14286
4175.5 19.5714
4176.5 0.714285
4177.5 -3.28572
4178.5 17.8571
4179.5 26.8571
4180.5 -3.42857
4181.5 4.14286
4182.5 -0.285715
4183.5 13.8571
4184.5 30.2857
4185.5 26.8571
4186.5 14.2857
4187.5 8.71428
4188.5 6.85714
4189.5 4.14286
4190.5 5.14286
4191.5 24.1429
4192.5 6.28571
4193.5 20.5714
4194.5 17.7143
4195.5 8.28571
4196.5 19
4197.5 7
4198.5 20.2857
4199.5 -5
4200.5 1.85714
4201.5 10.7143
4202.5 11.8571
4203.5 38.1429
4204.5 102.429
4205.5 165.857
4206.5 247.714
4207.5 451.571
4208.5 606.143
4209.5 663.571
4210.5 546.286
4211.5 290.571
4212.5 138.143
4213.5 22.8571
4214.5 28.1429
4215.5 26.7143
4216.5 36.8571
4217.5 7.71428
4218.5 18.5714
4219.5 26.8571
4220.5 18.5714
4221.5 8
4222.5 16.7143
4223.5 10
4224.5 7.85714
4225.5 4
4226.5 0.999999
4227.5 18.1429
4228.5 6.28571
4229.5 10.8571
4230.5 12.4286
4231.5 7
4232.5 11.2857
4233.5 29.5714
4234.5 8.71429
4235.5 10
4236.5 4.42857
4237.5 11
4238.5 -2.57143
4239.5 22
4240.5 15.5714
4241.5 0.999999
4242.5 14.8571
4243.5 -1.57143
4244.5 -3.28572
4245.5 -2.71429
4246.5 -21
4247.5 4.85714
4248.5 0.999999
4249.5 16.1429
4250.5 -7.28572
4251.5 2.28571
4252.5 13.4286
4253.5 8.57143
4254.5 25.1429
4255.5 19.1429
4256.5 22.1429
4257.5 26.7143
4258.5 40.7143
4259.5 44.7143
4260.5 48
4261.5 41
4262.5 61.2857
4263.5 70.2857
4264.5 109
4265.5 92
4266.5 58
4267.5 32.2857
4268.5 10.8571
4269.5 3.14286
4270.5 10.8571
4271.5 5.71428
4272.5 2.71429
4273.5 16.2857
4274.5 -10
4275.5 18
4276.5 -0.714287
4277.5 13.8571
4278.5 14.2857
4279.5 11.7143
4280.5 17.8571
4281.5 -1
4282.5 15.5714
4283.5 12.1429
4284.5 17.4286
4285.5 9.42857
4286.5 22.1429
4287.5 25.5714
4288.5 17.1429
4289.5 7.57143
4290.5 14.8571
4291.5 24.2857
4292.5 15.4286
4293.5 8.71428
4294.5 5.85714
4295.5 12.7143
4296.5 13
4297.5 -3.71429
4298.5 8.71428
4299.5 12.7143
4300.5 -2.42857
4301.5 -8.85714
4302.5 25.4286
4303.5 -0.714287
4304.5 6.85714
4305.5 -3.71429
4306.5 -21.2857
4307.5 14.4286
4308.5 6.42857
4309.5 19.7143
4310.5 3.85714
4311.5 10.8571
4312.5 -1.57143
4313.5 7.14286
4314.5 10.8571
4315.5 -2.42857
4316.5 20.1429
4317.5 -2.71429
4318.5 8.85714
4319.5 6.85714
4320.5 9.57143
4321.5 3.57143
4322.5 17.8571
4323.5 2.42857
4324.5 -5.42857
4325.5 23
4326.5 10
4327.5 -6.85714
4328.5 -1.57143
4329.5 -2.14286
4330.5 2.14286
4331.5 4.71428
4332.5 5.57143
4333.5 0.857142
4334.5 -8
4335.5 1.71429
4336.5 7
4337.5 -3.42857
4338.5 -6.42857
4339.5 -7.42857
4340.5 11.8571
4341.5 9
4342.5 7.71428
4343.5 2.85714
4344.5 5.71428
4345.5 12.7143
4346.5 -2.42857
4347.5 5.71429
4348.5 13.7143
4349.5 7.71429
4350.5 10.5714
4351.5 12.7143
4352.5 9.14286
4353.5 7.28571
4354.5 13.2857
4355.5 18.1429
4356.5 12.2857
4357.5 19.2857
4358.5 12.8571
4359.5 13
4360.5 19.1429
4361.5 19
4362.5 8.28571
4363.5 -2
4364.5 7.14286
4365.5 2.71429
4366.5 17.4286
4367.5 6.42857
4368.5 4.14286
4369.5 3.57143
4370.5 7
4371.5 12.4286
4372.5 7.85714
4373.5 2.57143
4374.5 13.4286
4375.5 -12.2857
4376.5 13.5714
4377.5 15.1429
4378.5 6
4379.5 5.14286
4380.5 -6
4381.5 -6.42857
4382.5 -4.71429
4383.5 16.5714
4384.5 -3.71429
4385.5 26.5714
4386.5 11.7143
4387.5 10.1429
4388.5 27.5714
4389.5 20.5714
4390.5 41.4286
4391.5 21
4392.5 59.2857
4393.5 52.5714
4394.5 35.8571
4395.5 37.8571
4396.5 50.2857
4397.5 27.7143
4398.5 42.4286
4399.5 28.2857
4400.5 3.42857
4401.5 -5.71429
4402.5 18
4403.5 3.28571
4404.5 9.85714
4405.5 6.42857
4406.5 16
4407.5 7.71428
4408.5 -2.71429
4409.5 1.85714
4410.5 6.42857
4411.5 6.14286
4412.5 -13.8571
4413.5 0.857142
4414.5 8.14286
4415.5 10.5714
4416.5 4.42857
4417.5 18
4418.5 14.1429
4419.5 2.28571
4420.5 -6.85714
4421.5 -2.28571
4422.5 15.2857
4423.5 1.28571
4424.5 18.7143
4425.5 11.1429
4426.5 12.7143
4427.5 10.7143
4428.5 7.85714
4429.5 9.42857
4430.5 11.1429
4431.5 16.2857
4432.5 0.999999
4433.5 3.85714
4434.5 -14.7143
4435.5 19.1429
4436.5 5.57143
4437.5 17.4286
4438.5 10
4439.5 15.8571
4440.5 -0.714287
4441.5 12.5714
4442.5 16.2857
4443.5 17
4444.5 -0.571429
4445.5 -6.28571
4446.5 13.7143
4447.5 -11.1429
4448.5 4.85714
4449.5 5
4450.5 21.4286
4451.5 -4.42857
4452.5 -0.857144
4453.5 14.2857
4454.5 -3
4455.5 24.2857
4456.5 39.2857
4457.5 10.4286
4458.5 25
4459.5 12.8571
4460.5 35.5714
4461.5 35.5714
4462.5 20.7143
4463.5 26.5714
4464.5 24
4465.5 -2.28572
4466.5 3.85714
4467.5 12.1429
4468.5 -8.42857
4469.5 17
4470.5 23.1429
4471.5 13.2857
4472.5 0.142856
4473.5 5.71428
4474.5 9.28571
4475.5 1.42857
4476.5 9.85714
4477.5 6.14286
4478.5 17
4479.5 16.2857
4480.5 18.2857
4481.5 6.57143
4482.5 20.7143
4483.5 13.5714
4484.5 2
4485.5 5.57143
4486.5 18.4286
4487.5 1.71429
4488.5 21.8571
4489.5 10.5714
4490.5 11.8571
4491.5 13.4286
4492.5 -4.28572
4493.5 6.85714
4494.5 8
4495.5 1.28571
4496.5 14.5714
4497.5 9.28571
4498.5 11.7143
4499.5 5.14286
4500.5 9.71428
4501.5 9.85714
4502.5 30.4286
4503.5 11.8571
4504.5 19.4286
4505.5 39.1429
4506.5 30.5714
4507.5 22.7143
4508.5 10.2857
4509.5 3.71429
4510.5 17.2857
4511.5 10.1429
4512.5 -1.57143
4513.5 8.14286
4514.5 14.5714
4515.5 10.2857
4516.5 -0.571429
4517.5 15.5714
4518.5 23.5714
4519.5 19.7143
4520.5 21.8571
4521.5 23
4522.5 38.4286
4523.5 24.7143
4524.5 18
4525.5 4.42857
4526.5 7.85714
4527.5 16.5714
4528.5 10.2857
4529.5 -14.1429
4530.5 -3.85714
4531.5 -14.4286
4532.5 -29.7143
4533.5 -4
4534.5 18.4286
4535.5 6.57143
4536.5 -0.714286
4537.5 11.8571
4538.5 8
4539.5 2.85714
4540.5 12
4541.5 2.14286
4542.5 14.7143
4543.5 14.2857
4544.5 -2.28571
4545.5 15.2857
4546.5 1.57143
4547.5 4.42857
4548.5 10.8571
4549.5 12.7143
4550.5 2.42857
4551.5 24.1429
4552.5 26
4553.5 7.57143
4554.5 4.28571
4555.5 16.8571
4556.5 6.85714
4557.5 2.71428
4558.5 12.5714
4559.5 17.8571
4560.5 16.1429
4561.5 8.71429
4562.5 19.7143
4563.5 14.7143
4564.5 5.28571
4565.5 22
4566.5 14.5714
4567.5 -9.85714
4568.5 6.71428
4569.5 3.28571
4570.5 22.8571
4571.5 3.71428
4572.5 12.4286
4573.5 13.7143
4574.5 -7.14286
4575.5 24.4286
4576.5 10.7143
4577.5 15.8571
4578.5 23.4286
4579.5 14.8571
4580.5 26
4581.5 6.85714
4582.5 5.57143
4583.5 13.2857
4584.5 10.4286
4585.5 13.7143
4586.5 0.714285
4587.5 7.14286
4588.5 7.57143
4589.5 3.14286
4590.5 20.8571
4591.5 5.57143
4592.5 6.85714
4593.5 15.5714
4594.5 5.57143
4595.5 8.71428
4596.5 12.1429
4597.5 2.42857
4598.5 -4.57143
4599.5 15.1429
4600.5 4.85714
4601.5 21.7143
4602.5 -7.15256e-07
4603.5 5.57143
4604.5 22.8571
4605.5 18.8571
4606.5 18
4607.5 7.14286
4608.5 5.42857
4609.5 18.7143
4610.5 2.57143
4611.5 3.71429
4612.5 0.571428
4613.5 2.42857
4614.5 19.5714
4615.5 16.5714
4616.5 9
4617.5 14
4618.5 26.5714
4619.5 6
4620.5 3.42857
4621.5 13.8571
4622.5 11.1429
4623.5 17.7143
4624.5 22.1429
4625.5 16.2857
4626.5 31.1429
4627.5 9.57143
4628.5 17.2857
4629.5 9.85714
4630.5 14.1429
4631.5 33.4286
4632.5 15.8571
4633.5 1.42857
4634.5 11.7143
4635.5 13.1429
4636.5 -12.5714
4637.5 5.42857
4638.5 12.4286
4639.5 18.2857
4640.5 15.4286
4641.5 -1.57143
4642.5 -9.71429
4643.5 15.8571
4644.5 2
4645.5 7.71429
4646.5 5.14286
4647.5 6.42857
4648.5 24.5714
4649.5 15.8571
4650.5 14.1429
4651.5 -7
4652.5 14.7143
4653.5 19.8571
4654.5 5.28571
4655.5 -6.14286
4656.5 5.85714
4657.5 7
4658.5 12.5714
4659.5 13.1429
4660.5 14.8571
4661.5 0.857142
4662.5 4.14286
4663.5 0.428571
4664.5 1.14286
4665.5 10.7143
4666.5 2
4667.5 1.42857
4668.5 4.85714
4669.5 -0.714286
4670.5 19.7143
4671.5 13
4672.5 3.71429
4673.5 7.42857
4674.5 13
4675.5 -5.57143
4676.5 16.1429
4677.5 -6.71429
4678.5 -6
4679.5 3.42857
4680.5 20.2857
4681.5 2.14286
4682.5 -4.28572
4683.5 -2
4684.5 7
4685.5 17.1429
4686.5 9.28571
4687.5 21
4688.5 12.8571
4689.5 -6.28571
4690.5 11.5714
4691.5 7.85714
4692.5 11.4286
4693.5 21.1429
4694.5 -1.57143
4695.5 16.7143
4696.5 13
4697.5 -1.42857
4698.5 26.7143
4699.5 -3.71429
4700.5 1
4701.5 8.85714
4702.5 14.4286
4703.5 12.2857
4704.5 -4.71429
4705.5 4.14286
4706.5 2.28571
4707.5 -1.71429
4708.5 12.2857
4709.5 16.1429
4710.5 1.57143
4711.5 9.28571
4712.5 1.57143
4713.5 4.71429
4714.5 5.57143
4715.5 5.42857
4716.5 4.57143
4717.5 2.14286
4718.5 7.71429
4719.5 19
4720.5 0.142857
4721.5 7.85714
4722.5 9.14286
4723.5 -10
4724.5 17
4725.5 9.57143
4726.5 -1.85714
4727.5 -6
4728.5 22.2857
4729.5 4.14286
4730.5 14
4731.5 19.2857
4732.5 7.71429
4733.5 -0.428572
4734.5 11.4286
4735.5 7.14286
4736.5 4.42857
4737.5 11.5714
4738.5 9.57143
4739.5 13.5714
4740.5 6
4741.5 2.71429
4742.5 12.1429
4743.5 16.2857
4744.5 3.57143
4745.5 12
4746.5 20
4747.5 10.1429
4748.5 11.4286
4749.5 -0.285715
4750.5 14.5714
4751.5 2.57143
4752.5 3.28571
4753.5 9
4754.5 2.42857
4755.5 12.4286
4756.5 5.71429
4757.5 16.4286
4758.5 15.4286
4759.5 0.428571
4760.5 -3.57143
4761.5 22.1429
4762.5 15.5714
4763.5 27.5714
4764.5 20.4286
4765.5 33.8571
4766.5 45.7143
4767.5 42.4286
4768.5 85.8571
4769.5 117.429
4770.5 129.143
4771.5 119.714
4772.5 80.8571
4773.5 55.5714
4774.5 56.1429
4775.5 26.5714
4776.5 11.4286
4777.5 14
4778.5 15.2857
4779.5 8.71429
4780.5 7.42857
4781.5 25.1429
4782.5 9.42857
4783.5 -7.15256e-07
4784.5 -0.714286
4785.5 2.85714
4786.5 -4.71429
4787.5 -5.14286
4788.5 -1.71429
4789.5 -8.14286
4790.5 15.2857
4791.5 -1.57143
4792.5 -6.71429
4793.5 3
4794.5 -1
4795.5 18.5714
4796.5 12.4286
4797.5 11.1429
4798.5 3
4799.5 1.57143
4800.5 14.5714
4801.5 -2.57143
4802.5 9.42857
4803.5 5.57143
4804.5 -4.28572
4805.5 14.2857
4806.5 -6.57143
4807.5 10.4286
4808.5 6.42857
4809.5 19
4810.5 17.2857
4811.5 -4.71429
4812.5 14.1429
4813.5 -5.57143
4814.5 -3.85714
4815.5 0.857142
4816.5 8
4817.5 8.57143
4818.5 3.85714
4819.5 -2.14286
4820.5 -4.71429
4821.5 7.42857
4822.5 14.7143
4823.5 -5
4824.5 -10
4825.5 12.7143
4826.5 5.57143
4827.5 9
4828.5 8.85714
4829.5 14
4830.5 14.4286
4831.5 1.85714
4832.5 3.57143
4833.5 15
4834.5 9.71429
4835.5 4.85714
4836.5 15.1429
4837.5 4.71429
4838.5 19.7143
4839.5 -0.571429
4840.5 8.14286
4841.5 11
4842.5 24.4286
4843.5 5.71429
4844.5 7.57143
4845.5 23.5714
4846.5 8.28571
4847.5 13.8571
4848.5 13.5714
4849.5 9.71429
4850.5 8.71429
4851.5 5.14286
4852.5 4.42857
4853.5 2.57143
4854.5 5.71429
4855.5 9.57143
4856.5 1.28571
4857.5 -1.28571
4858.5 4.14286
4859.5 1.42857
4860.5 -3.42857
4861.5 14.4286
4862.5 13.7143
4863.5 5.57143
4864.5 5.42857
4865.5 20.2857
4866.5 16.1429
4867.5 -1.14286
4868.5 16.1429
4869.5 9.85714
4870.5 10.2857
4871.5 17.4286
4872.5 14.5714
4873.5 24
4874.5 13.4286
4875.5 16.7143
4876.5 18.8571
4877.5 5.71429
4878.5 15.4286
4879.5 -11.2857
4880.5 -7.57143
4881.5 2.28571
4882.5 -1.28572
4883.5 15.4286
4884.5 21.5714
4885.5 -2
4886.5 1.85714
4887.5 10.5714
4888.5 -15
4889.5 17.8571
4890.5 2.28571
4891.5 -7.57143
4892.5 3.42857
4893.5 7.14286
4894.5 14.8571
4895.5 3.28571
4896.5 4.14286
4897.5 18
4898.5 27.1429
4899.5 5.71429
4900.5 21.2857
4901.5 56.1429
4902.5 48.5714
4903.5 89.2857
4904.5 132.714
4905.5 127.429
4906.5 112.143
4907.5 62.2857
4908.5 37.4286
4909.5 16.7143
4910.5 7.71429
4911.5 2.28571
4912.5 8.71429
4913.5 11.5714
4914.5 12.5714
4915.5 16.4286
4916.5 -3.85714
4917.5 4.85714
4918.5 12
4919.5 -2
4920.5 12.8571
4921.5 11.7143
4922.5 5.85714
4923.5 6.85714
4924.5 5.14286
4925.5 8
4926.5 17
4927.5 9.85714
4928.5 2.85714
4929.5 17.8571
4930.5 0.857142
4931.5 8
4932.5 -3.42857
4933.5 1.85714
4934.5 -1
4935.5 14.5714
4936.5 11.2857
4937.5 9.28571
4938.5 3.57143
4939.5 8.14286
4940.5 5.14286
4941.5 11.2857
4942.5 8.42857
4943.5 11.5714
4944.5 13.1429
4945.5 -6.57143
4946.5 9.85714
4947.5 10.2857
4948.5 12.1429
4949.5 10.1429
4950.5 1.28571
4951.5 9.28571
4952.5 9.57143
4953.5 6.57143
4954.5 7.14286
4955.5 2.71429
4956.5 20.1429
4957.5 -4.42857
4958.5 10.1429
4959.5 8.42857
4960.5 23.4286
4961.5 8.14286
4962.5 -3.42857
4963.5 -7.15256e-07
4964.5 13.1429
4965.5 -2.71429
4966.5 14.4286
4967.5 13.1429
4968.5 17.1429
4969.5 15.5714
4970.5 5.71429
4971.5 9.71429
4972.5 20.4286
4973.5 9
4974.5 2.42857
4975.5 10.2857
4976.5 -6.14286
4977.5 11.2857
4978.5 -5.71429
4979.5 -6
4980.5 -3.28572
4981.5 16.7143
4982.5 7.28571
4983.5 14.8571
4984.5 -5
4985.5 -0.857145
4986.5 8.42857
4987.5 7
4988.5 -12.2857
4989.5 12.4286
4990.5 9.42857
4991.5 -4.42857
4992.5 11.8571
4993.5 -11.4286
4994.5 2.14286
4995.5 4.42857
4996.5 7.14286
4997.5 5.28571
4998.5 -10.1429
4999.5 4.42857
5000.5 4.28571
5001.5 8.57143
5002.5 23.8571
5003.5 10.1429
5004.5 6.28571
5005.5 5.71429
5006.5 18.8571
5007.5 -1.71429
5008.5 1.71429
5009.5 18.4286
5010.5 10.8571
5011.5 5.42857
5012.5 9
5013.5 23
5014.5 36.1429
5015.5 57.7143
5016.5 92.2857
5017.5 88.4286
5018.5 97.8571
5019.5 81.7143
5020.5 35
5021.5 33.2857
5022.5 27.7143
5023.5 1.71429
5024.5 19.1429
5025.5 6.71429
5026.5 22
5027.5 2.57143
5028.5 4.28571
5029.5 -15.7143
5030.5 5.42857
5031.5 9.85714
5032.5 7.85714
5033.5 11
5034.5 18.4286
5035.5 20.7143
5036.5 4.71429
5037.5 -3.57143
5038.5 12.8571
5039.5 12.5714
5040.5 14.4286
5041.5 25.7143
5042.5 -3
5043.5 5.57143
5044.5 9.42857
5045.5 4.28571
5046.5 1.42857
5047.5 7.71429
5048.5 6.71429
5049.5 11
5050.5 5.57143
5051.5 -3.85714
5052.5 -0.142858
5053.5 13
5054.5 7
5055.5 7.28571
5056.5 3.71429
5057.5 7.14286
5058.5 14.5714
5059.5 -1.14286
5060.5 -6.28571
5061.5 7.28571
5062.5 7
5063.5 -1.42857
5064.5 14.7143
5065.5 -1.85714
5066.5 3.42857
5067.5 8.85714
5068.5 -7.15256e-07
5069.5 0.999999
5070.5 -3.57143
5071.5 10.2857
5072.5 8
5073.5 -2.57143
5074.5 1.42857
5075.5 15.2857
5076.5 6.14286
5077.5 -2.28571
5078.5 7.42857
5079.5 8.57143
5080.5 8.85714
5081.5 6.28571
5082.5 -0.571429
5083.5 18.2857
5084.5 6.14286
5085.5 0.571428
5086.5 12.2857
5087.5 7.57143
5088.5 -2.14286
5089.5 19
5090.5 18
5091.5 3.28571
5092.5 -3.28572
5093.5 -10.5714
5094.5 16.4286
5095.5 10.5714
5096.5 -0.142858
5097.5 9.71429
5098.5 6.57143
5099.5 6.57143
5100.5 18
5101.5 18.1429
5102.5 9
5103.5 -4.42857
5104.5 -0.285715
5105.5 15.7143
5106.5 11.1429
5107.5 -10.8571
5108.5 5.14286
5109.5 7.28571
5110.5 -2
5111.5 14.1429
5112.5 6.71429
5113.5 -5.71429
5114.5 5
5115.5 20.1429
5116.5 13.5714
5117.5 -0.714286
5118.5 -10.4286
5119.5 10.7143
5120.5 11.7143
5121.5 9.28571
5122.5 7
5123.5 13
5124.5 2.42857
5125.5 16
5126.5 6.28571
5127.5 -11.7143
5128.5 4.57143
5129.5 7.71429
5130.5 -0.142858
5131.5 3.71429
5132.5 -3
5133.5 -19.8571
5134.5 -1.42857
5135.5 7.85714
5136.5 -4.85714
5137.5 11.2857
5138.5 2.85714
5139.5 -1.14286
5140.5 6.71429
5141.5 8.28571
5142.5 9.85714
5143.5 6.71429
5144.5 9.71429
5145.5 -4.71429
5146.5 8.85714
5147.5 6.71429
5148.5 -3
5149.5 -3.85714
5150.5 -3
5151.5 12.4286
5152.5 12.1429
5153.5 1.57143
5154.5 0.285714
5155.5 -5.57143
5156.5 0.714285
5157.5 6.42857
5158.5 7.57143
5159.5 4.85714
5160.5 2.85714
5161.5 0.999999
5162.5 4.14286
5163.5 -12.5714
5164.5 -1
5165.5 5.57143
5166.5 19.1429
5167.5 17.5714
5168.5 3.42857
5169.5 1.71429
5170.5 12.1429
5171.5 -5.42857
5172.5 3.14286
5173.5 10.5714
5174.5 9.28571
5175.5 1.57143
5176.5 2
5177.5 -2.57143
5178.5 15.1429
5179.5 -10.1429
5180.5 4.71429
5181.5 8
5182.5 -7.28571
5183.5 13.5714
5184.5 1.14286
5185.5 -5.28571
5186.5 8
5187.5 5.42857
5188.5 6.85714
5189.5 9.28571
5190.5 13.8571
5191.5 -1.85714
5192.5 18.5714
5193.5 4.28571
5194.5 22.5714
5195.5 12.4286
5196.5 1.57143
5197.5 -0.428572
5198.5 11.7143
5199.5 -5.28571
5200.5 13.2857
5201.5 9.85714
5202.5 -3.57143
5203.5 4.28571
5204.5 -1.85714
5205.5 13.7143
5206.5 3.71429
5207.5 9.14286
5208.5 13
5209.5 6.85714
5210.5 14.5714
5211.5 -7
5212.5 5.14286
5213.5 -7.71429
5214.5 6.57143
5215.5 -1
5216.5 -1.14286
5217.5 0.142857
5218.5 -8.42857
5219.5 0.857142
5220.5 7
5221.5 8.42857
5222.5 11.8571
5223.5 18.4286
5224.5 2.57143
5225.5 5.42857
5226.5 9.14286
5227.5 -10.1429
5228.5 15.4286
5229.5 -3.71429
5230.5 -2.28571
5231.5 4.71429
5232.5 14.1429
5233.5 10.5714
5234.5 -2.57143
5235.5 -1.57143
5236.5 6.14286
5237.5 0.571428
5238.5 0.428571
5239.5 -2.14286
5240.5 4.14286
5241.5 -0.428572
5242.5 0.285714
5243.5 7.85714
5244.5 4.14286
5245.5 20.1429
5246.5 15.5714
5247.5 2.14286
5248.5 2.57143
5249.5 6
5250.5 5.42857
5251.5 10.5714
5252.5 4.57143
5253.5 3.42857
5254.5 -2.14286
5255.5 6.85714
5256.5 -6.85714
5257.5 -1.28571
5258.5 -3.85714
5259.5 -3
5260.5 2.14286
5261.5 15.5714
5262.5 -8
5263.5 0.142856
5264.5 -16.1429
5265.5 -11
5266.5 1
5267.5 -0.714286
5268.5 0.714285
5269.5 -1.85714
5270.5 6.42857
5271.5 14.2857
5272.5 9.57143
5273.5 2.42857
5274.5 16.7143
5275.5 25.2857
5276.5 43.4286
5277.5 72.4286
5278.5 117
5279.5 204.429
5280.5 237.286
5281.5 280.857
5282.5 304.286
5283.5 229.286
5284.5 139.143
5285.5 42.1429
5286.5 40.5714
5287.5 27.1429
5288.5 23.2857
5289.5 4.71429
5290.5 12.4286
5291.5 -9.71429
5292.5 9.57143
5293.5 0.571428
5294.5 0.714285
5295.5 -3.71429
5296.5 1.85714
5297.5 7
5298.5 -10
5299.5 -4.14286
5300.5 1.57143
5301.5 5.14286
5302.5 1.14286
5303.5 4.42857
5304.5 -6.28571
5305.5 -4.85714
5306.5 -4.71429
5307.5 4.71429
5308.5 1
5309.5 11
5310.5 2.42857
5311.5 -1.57143
5312.5 -0.428572
5313.5 10.5714
5314.5 -5.28571
5315.5 5.57143
5316.5 0.428571
5317.5 2.42857
5318.5 -6.42857
5319.5 4
5320.5 7.57143
5321.5 3.14286
5322.5 -1.71429
5323.5 -6.71429
5324.5 -2.28571
5325.5 -0.714286
5326.5 0.857142
5327.5 4.28571
5328.5 6
5329.5 -2
5330.5 7.14286
5331.5 -9.42857
5332.5 -8.71429
5333.5 14.2857
5334.5 7.71429
5335.5 1.42857
5336.5 6.57143
5337.5 12.2857
5338.5 -4.71429
5339.5 1.28571
5340.5 7.57143
5341.5 7.57143
5342.5 -5.57143
5343.5 5.28571
5344.5 8.85714
5345.5 -2.28571
5346.5 12
5347.5 5.42857
5348.5 11.7143
5349.5 6.71428
5350.5 11.4286
5351.5 -5.57143
5352.5 -10.1429
5353.5 9.14286
5354.5 -2
5355.5 17.4286
5356.5 18
5357.5 9.14286
5358.5 -2.28571
5359.5 -4.71429
5360.5 3
5361.5 4.85714
5362.5 9.28571
5363.5 -0.142858
5364.5 2.85714
5365.5 -4.71429
5366.5 6.14286
5367.5 2.14286
5368.5 5.14286
5369.5 -10
5370.5 -2
5371.5 3.14286
5372.5 -8.57143
5373.5 14.2857
5374.5 12.4286
5375.5 -1.57143
5376.5 1.14286
5377.5 -4.28571
5378.5 4.28571
5379.5 -1.85714
5380.5 5.42857
5381.5 3.71429
5382.5 6.42857
5383.5 19
5384.5 14.7143
5385.5 2.42857
5386.5 33
5387.5 26.8571
5388.5 14.2857
5389.5 6.42857
5390.5 -1.28572
5391.5 6
5392.5 -7.42857
5393.5 -15.1429
5394.5 11
5395.5 -30.8571
5396.5 -29.5714
5397.5 -14.4286
5398.5 -35.2857
5399.5 -7.71429
5400.5 -17.4286
5401.5 -5.28571
5402.5 -12.2857
5403.5 1.14286
5404.5 -7.42857
5405.5 -0.142858
5406.5 7.14286
5407.5 6.42857
5408.5 5.42857
5409.5 -5.85714
5410.5 -5.14286
5411.5 13.8571
5412.5 9
5413.5 10.2857
5414.5 7.85714
5415.5 18.7143
5416.5 1.85714
5417.5 -2.28571
5418.5 4
5419.5 2.14286
5420.5 6.57143
5421.5 4.28571
5422.5 -2.14286
5423.5 -2
5424.5 1.71429
5425.5 8.28571
5426.5 4.57143
5427.5 -6.57143
5428.5 -2.38419e-07
5429.5 -4.14286
5430.5 -0.428572
5431.5 -5.28571
5432.5 7.42857
5433.5 -2.38419e-07
5434.5 1.57143
5435.5 -2.38419e-07
5436.5 -8.85714
5437.5 4.42857
5438.5 2.57143
5439.5 -5.28571
5440.5 2.85714
5441.5 6.85714
5442.5 -2.42857
5443.5 8.28571
5444.5 -1.71429
5445.5 -4.85714
5446.5 5.57143
5447.5 3.14286
5448.5 5.57143
5449.5 2.28571
5450.5 -0.285715
5451.5 3.57143
5452.5 2
5453.5 -0.428572
5454.5 4
5455.5 2.14286
5456.5 -3.57143
5457.5 3
5458.5 -0.714286
5459.5 -0.571429
5460.5 -3.71429
5461.5 6.85714
5462.5 2.57143
5463.5 1.14286
5464.5 1
5465.5 6.85714
5466.5 3.57143
5467.5 0.857142
5468.5 -17.1429
5469.5 1.14286
5470.5 10.1429
5471.5 0.142857
5472.5 -0.714286
5473.5 8.28571
5474.5 -2
5475.5 -1.71429
5476.5 -3.14286
5477.5 8.42857
5478.5 -0.285715
5479.5 8.42857
5480.5 10.4286
5481.5 -15.2857
5482.5 -0.571429
5483.5 0.571428
5484.5 10.7143
5485.5 -0.428572
5486.5 -8.28572
5487.5 4.28571
5488.5 0.999999
5489.5 0.999999
5490.5 10.7143
5491.5 4
5492.5 -1.28572
5493.5 0.142857
5494.5 5
5495.5 -0.142858
5496.5 -0.714286
5497.5 0.571428
5498.5 5.28571
5499.5 -7.42857
5500.5 -0.428572
5501.5 12.2857
5502.5 -7.14286
5503.5 -1.14286
5504.5 0.571428
5505.5 5.28571
5506.5 9.71429
5507.5 -3.28571
5508.5 -4.14286
5509.5 -0.571429
5510.5 -3.14286
5511.5 -3.28571
5512.5 2.28571
5513.5 -3.57143
5514.5 -7.85714
5515.5 -3.42857
5516.5 14.4286
5517.5 -0.285715
5518.5 -1.71429
5519.5 -4.71429
5520.5 4.14286
5521.5 6
5522.5 6.14286
5523.5 -3.71429
5524.5 1.71429
5525.5 7.14286
5526.5 -7.42857
5527.5 -5.57143
5528.5 1.71429
5529.5 1.42857
5530.5 -0.142858
5531.5 -4.14286
5532.5 -5.28571
5533.5 9.71429
5534.5 8.42857
5535.5 -10.1429
5536.5 6.57143
5537.5 -16.1429
5538.5 12.2857
5539.5 3.85714
5540.5 4.71429
5541.5 8.14286
5542.5 11.8571
5543.5 7.14286
5544.5 5.71429
5545.5 5.57143
5546.5 -2.85714
5547.5 11.5714
5548.5 -7.42857
5549.5 -1.71429
5550.5 2.57143
5551.5 3.14286
5552.5 10.8571
5553.5 -1
5554.5 6.14286
5555.5 -1.57143
5556.5 3.14286
5557.5 -9.57143
5558.5 10.5714
5559.5 12.8571
5560.5 13.7143
5561.5 -5.71429
5562.5 16.8571
5563.5 -9.57143
5564.5 -5
5565.5 10.7143
5566.5 2.42857
5567.5 1.42857
5568.5 -1.85714
5569.5 5
5570.5 7.85714
5571.5 1.71429
5572.5 7
5573.5 0.857142
5574.5 4.14286
5575.5 -0.142858
5576.5 -2.71429
5577.5 4.28571
5578.5 8.71429
5579.5 18.7143
5580.5 1.42857
5581.5 -8.57143
5582.5 9
5583.5 -2.71429
5584.5 -11
5585.5 -2.57143
5586.5 -1.14286
5587.5 -2.85714
5588.5 7.28571
5589.5 7.28571
5590.5 -4.76837e-07
5591.5 -10.7143
5592.5 16.2857
5593.5 -4.42857
5594.5 -10.4286
5595.5 4.14286
5596.5 3.71429
5597.5 0.142857
5598.5 10.4286
5599.5 4.42857
5600.5 -0.142858
5601.5 -3.85714
5602.5 -10.2857
5603.5 2.42857
5604.5 -0.285715
5605.5 3.28571
5606.5 4
5607.5 -6.57143
5608.5 -0.142858
5609.5 5
5610.5 -0.857143
5611.5 -5.14286
5612.5 2.57143
5613.5 1
5614.5 8
5615.5 -1.28571
5616.5 -9.14286
5617.5 0.857142
5618.5 6.85714
5619.5 5.57143
5620.5 8.28571
5621.5 4.57143
5622.5 4
5623.5 4.85714
5624.5 -2.28571
5625.5 5.42857
5626.5 -2.71429
5627.5 7.14286
5628.5 -11.4286
5629.5 -4
5630.5 -1.71429
5631.5 10.7143
5632.5 -3.28571
5633.5 -10.2857
5634.5 5.85714
5635.5 6.28571
5636.5 -4.28571
5637.5 -10.8571
5638.5 12.7143
5639.5 -2.71429
5640.5 -2.28571
5641.5 -2.71429
5642.5 0.142857
5643.5 2.28571
5644.5 -9.71429
5645.5 2.42857
5646.5 1.57143
5647.5 -7.14286
5648.5 1
5649.5 2.85714
5650.5 -4.28571
5651.5 0.285714
5652.5 3
5653.5 -0.857143
5654.5 -4.42857
5655.5 4.42857
5656.5 8
5657.5 8.42857
5658.5 -5.85714
5659.5 5.28571
5660.5 4.57143
5661.5 0.714285
5662.5 2
5663.5 6.85714
5664.5 0.571428
5665.5 5.28571
5666.5 6.28571
5667.5 10.5714
5668.5 -4.28571
5669.5 -7.71429
5670.5 -2.71429
5671.5 -6.71429
5672.5 -12.2857
5673.5 1.71429
5674.5 2.85714
5675.5 -3.85714
5676.5 1
5677.5 -1.28571
5678.5 2.57143
5679.5 3.71429
5680.5 5.57143
5681.5 1.57143
5682.5 7.14286
5683.5 6.42857
5684.5 -1.85714
5685.5 4.14286
5686.5 8.28571
5687.5 1.14286
5688.5 4.71429
5689.5 -13.7143
5690.5 -1
5691.5 11.1429
5692.5 -5.85714
5693.5 0.571428
5694.5 0.428571
5695.5 -0.428572
5696.5 -3.57143
5697.5 6.85714
5698.5 4.42857
5699.5 8.14286
5700.5 0.857143
5701.5 8
5702.5 -6.85714
5703.5 0.571428
5704.5 8
5705.5 11.5714
5706.5 14
5707.5 -3.71429
5708.5 -5.71429
5709.5 -9.85714
5710.5 9
5711.5 -1
5712.5 6.42857
5713.5 7.28571
5714.5 10.1429
5715.5 2.71429
5716.5 4.71429
5717.5 10.5714
5718.5 -5.57143
5719.5 -1.14286
5720.5 5.71429
5721.5 3.42857
5722.5 3
5723.5 12.5714
5724.5 -1.42857
5725.5 -3.57143
5726.5 -2.71429
5727.5 7.28571
5728.5 4.28571
5729.5 2
5730.5 -3.42857
5731.5 3.42857
5732.5 8.42857
5733.5 -7.57143
5734.5 7.14286
5735.5 2.42857
5736.5 2.42857
5737.5 3.57143
5738.5 9.85714
5739.5 2.14286
5740.5 6.42857
5741.5 -8.28571
5742.5 -1.71429
5743.5 0.285714
5744.5 -4.42857
5745.5 16.1429
5746.5 -11
5747.5 2.14286
5748.5 -0.285715
5749.5 -1.71429
5750.5 -3.57143
5751.5 -3
5752.5 -7
5753.5 0.285713
5754.5 28.7143
5755.5 8.14286
5756.5 12
5757.5 6.57143
5758.5 7.14286
5759.5 -6.14286
5760.5 -7.85714
5761.5 10.8571
5762.5 -1.71429
5763.5 6.28571
5764.5 -2.85714
5765.5 2
5766.5 -4
5767.5 -1.57143
5768.5 0.142857
5769.5 -2
5770.5 -3.85714
5771.5 5.71429
5772.5 3
5773.5 1.42857
5774.5 6.42857
5775.5 -4.42857
5776.5 -1.28571
5777.5 -5.85714
5778.5 -0.857143
5779.5 3.85714
5780.5 1.28571
5781.5 -3.42857
5782.5 0.857143
5783.5 5.85714
5784.5 -3.57143
5785.5 -2.85714
5786.5 -0.285715
5787.5 2.85714
5788.5 9
5789.5 5.85714
5790.5 -4.71429
5791.5 9
5792.5 2.42857
5793.5 1.57143
5794.5 6.42857
5795.5 -1
5796.5 3.71429
5797.5 5.28571
5798.5 -1.57143
5799.5 -0.428572
5800.5 11.7143
5801.5 -6.28571
5802.5 6.28571
5803.5 -7.14286
5804.5 6.85714
5805.5 -2.38419e-07
5806.5 6.28571
5807.5 0.857143
5808.5 -1.14286
5809.5 -2
5810.5 1.85714
5811.5 5.42857
5812.5 -0.285715
5813.5 5.71429
5814.5 -1.71429
5815.5 -5.42857
5816.5 -5.28571
5817.5 9.14286
5818.5 7.42857
5819.5 -8.57143
5820.5 -3.71429
5821.5 -5.28571
5822.5 9.14286
5823.5 -3
5824.5 1
5825.5 2.57143
5826.5 -11.2857
5827.5 1.85714
5828.5 -9.28571
5829.5 -4.57143
5830.5 -0.714286
5831.5 -6.14286
5832.5 3.28571
5833.5 0.714285
5834.5 7.57143
5835.5 -4.71429
5836.5 2.57143
5837.5 2.57143
5838.5 -3.42857
5839.5 -2.57143
5840.5 4.85714
5841.5 1
5842.5 -4.76837e-07
5843.5 0.857142
5844.5 -3.14286
5845.5 7.42857
5846.5 2.85714
5847.5 4.42857
5848.5 7.14286
5849.5 3.42857
5850.5 -3.71429
5851.5 0.857143
5852.5 -1
5853.5 -1.42857
5854.5 0.428571
5855.5 5.85714
5856.5 8.71429
5857.5 2.42857
5858.5 -3.71429
5859.5 3
5860.5 -0.428572
5861.5 4
5862.5 -1.57143
5863.5 1.42857
5864.5 2.57143
5865.5 -2.14286
5866.5 2.42857
5867.5 8
5868.5 -4.42857
5869.5 4.71429
5870.5 -2.28571
5871.5 2.85714
5872.5 0.571428
5873.5 1.28571
5874.5 -3.42857
5875.5 1.28571
5876.5 -7.28571
5877.5 11.1429
5878.5 1.28571
5879.5 -5.71429
5880.5 2.28571
5881.5 4.28571
5882.5 -0.142857
5883.5 3.85714
5884.5 7.57143
5885.5 -1.85714
5886.5 3.85714
5887.5 -1
5888.5 5.71429
5889.5 6.28571
5890.5 17.2857
5891.5 3.57143
5892.5 13.4286
5893.5 9.85714
5894.5 30.7143
5895.5 37.8571
5896.5 57.7143
5897.5 66.5714
5898.5 85.4286
5899.5 45.7143
5900.5 34.8571
5901.5 31
5902.5 24.8571
5903.5 3.57143
5904.5 10.4286
5905.5 -0.571429
5906.5 6.14286
5907.5 -10.5714
5908.5 -10
5909.5 -16.7143
5910.5 -16.8571
5911.5 -8.85714
5912.5 -0.428572
5913.5 0.571428
5914.5 -0.571429
5915.5 8.71429
5916.5 -1.14286
5917.5 -1.57143
5918.5 3.42857
5919.5 -1.71429
5920.5 -8.85714
5921.5 -3.57143
5922.5 3.14286
5923.5 2.85714
5924.5 -2.71429
5925.5 2.85714
5926.5 3.28571
5927.5 2.85714
5928.5 6.71429
5929.5 -2.28571
5930.5 -3.42857
5931.5 4.85714
5932.5 -3.14286
5933.5 5.71429
5934.5 1.42857
5935.5 -0.714286
5936.5 -4.42857
5937.5 -4.42857
5938.5 2.71429
5939.5 0.285714
5940.5 -0.571429
5941.5 -4.14286
5942.5 4.28571
5943.5 -3.14286
5944.5 -2.71429
5945.5 1.85714
5946.5 1.71429
5947.5 2.71429
5948.5 1.28571
5949.5 3.71429
5950.5 -9.85714
5951.5 5.57143
5952.5 -0.714286
5953.5 5.14286
5954.5 -0.714286
5955.5 3.28571
5956.5 5.71429
5957.5 0.285714
5958.5 -7.85714
5959.5 -1
5960.5 -0.428572
5961.5 3
5962.5 -1.42857
5963.5 -2.42857
5964.5 -6.14286
5965.5 -9.57143
5966.5 4.85714
5967.5 6.71429
5968.5 6
5969.5 0.571428
5970.5 -0.142858
5971.5 -9.14286
5972.5 4.71429
5973.5 -4.28571
5974.5 3.85714
5975.5 8.71429
5976.5 -0.428572
5977.5 3.14286
5978.5 3.28571
5979.5 4
5980.5 0.714286
5981.5 3.71429
5982.5 4.28571
5983.5 5.28571
5984.5 1.28571
5985.5 3.28571
5986.5 -4.57143
5987.5 -1.71429
5988.5 -2.28571
5989.5 -0.285714
5990.5 -4.14286
5991.5 -2.85714
5992.5 -2.42857
5993.5 1.85714
5994.5 -8
5995.5 -0.857143
5996.5 -9
5997.5 -9.71429
5998.5 6.71428
5999.5 3.28571
6000.5 -16.8571
6001.5 14.8571
6002.5 26.4286
6003.5 -5
6004.5 15.5714
6005.5 13.1429
6006.5 -5.28571
6007.5 4.28571
6008.5 -3.42857
6009.5 3
6010.5 0.714286
6011.5 -0.857143
6012.5 -8.28571
6013.5 -0.571429
6014.5 -0.857143
6015.5 5
6016.5 1.28571
6017.5 -0.142857
6018.5 8.57143
6019.5 -3.57143
6020.5 -1.14286
6021.5 -0.142857
6022.5 4.14286
6023.5 2.71429
6024.5 4.57143
6025.5 1.85714
6026.5 2.14286
6027.5 2.14286
6028.5 -3.57143
6029.5 -5
6030.5 -1
6031.5 -0.571429
6032.5 -1
6033.5 2.85714
6034.5 5.14286
6035.5 1
6036.5 -0.571429
6037.5 4.57143
6038.5 2.71429
6039.5 7.57143
6040.5 2.14286
6041.5 5.85714
6042.5 -10.7143
6043.5 2.71429
6044.5 0.714286
6045.5 2.71429
6046.5 -4.57143
6047.5 0.714286
6048.5 -0.142857
6049.5 2.14286
6050.5 0.142857
6051.5 -1.28571
6052.5 -2.57143
6053.5 0.142857
6054.5 -1.28571
6055.5 -4.57143
6056.5 1
6057.5 4.28571
6058.5 -4.14286
6059.5 2.28571
6060.5 -0.142857
6061.5 0.857143
6062.5 -2.71429
6063.5 2.14286
6064.5 -1
6065.5 -1.57143
6066.5 0.857143
6067.5 -0.571429
6068.5 -0.571429
6069.5 8.57143
6070.5 9
6071.5 2.42857
6072.5 3.28571
6073.5 -1.14286
6074.5 -0.285714
6075.5 0.285714
6076.5 4.14286
6077.5 2.57143
6078.5 0.285714
6079.5 -1.71429
6080.5 0.857143
6081.5 2.71429
6082.5 -0.285714
6083.5 -0.714286
6084.5 -3
6085.5 -1.14286
6086.5 -6.14286
6087.5 -2.28571
6088.5 0.714286
6089.5 -4.57143
6090.5 6
6091.5 -3.14286
6092.5 0.142857
6093.5 3.14286
6094.5 1.28571
6095.5 -0.285714
6096.5 1.71429
6097.5 -5.85714
6098.5 3.28571
6099.5 6.42857
6100.5 3.71429
6101.5 1.85714
6102.5 -10.7143
6103.5 -3.71429
6104.5 6.57143
6105.5 -0.428572
6106.5 -19.1429
6107.5 2.28571
6108.5 -9.42857
6109.5 -5.85714
6110.5 -11.5714
6111.5 1.85714
6112.5 -1.42857
6113.5 1.28571
6114.5 -8.14286
6115.5 -2
6116.5 3.28571
6117.5 3.57143
6118.5 1.42857
6119.5 -6.14286
6120.5 -1.42857
6121.5 2.71429
6122.5 2
6123.5 -13.1429
6124.5 0.285713
6125.5 -7
6126.5 -2.14286
6127.5 0.857142
6128.5 -5.85714
6129.5 2
6130.5 0.142857
6131.5 0.285714
6132.5 -0.285714
6133.5 -1.71429
6134.5 4.71429
6135.5 -0.714286
6136.5 1.85714
6137.5 1.71429
6138.5 -4.57143
6139.5 -2.28571
6140.5 -3.42857
6141.5 9.57143
6142.5 -4
6143.5 -1.42857
6144.5 -10.5714
6145.5 2
6146.5 2
6147.5 1.71429
6148.5 6.71429
6149.5 -0.428572
6150.5 1.57143
6151.5 4.14286
6152.5 0.714286
6153.5 2.14286
6154.5 2.57143
6155.5 2.28571
6156.5 3.57143
6157.5 1.14286
6158.5 5
6159.5 -3.71429
6160.5 2.14286
6161.5 1.14286
6162.5 -1.57143
6163.5 -3
6164.5 -1.57143
6165.5 -5
6166.5 6.14286
6167.5 3.71429
6168.5 1
6169.5 1.71429
6170.5 -1.28571
6171.5 -0.285714
6172.5 -3.28571
6173.5 2
6174.5 2.57143
6175.5 2
6176.5 -1.42857
6177.5 -3.28571
6178.5 -2.71429
6179.5 1.14286
6180.5 -5.14286
6181.5 0.142857
6182.5 2.57143
6183.5 -5.57143
6184.5 3.71429
6185.5 -7.85714
6186.5 2.71429
6187.5 4.85714
6188.5 2.71429
6189.5 0.142857
6190.5 0.714286
6191.5 3.14286
6192.5 -2.71429
6193.5 -4.57143
6194.5 0.285714
6195.5 8.14286
6196.5 -5
6197.5 -4.14286
6198.5 8.14286
6199.5 -0.142857
6200.5 -2.28571
6201.5 2.57143
6202.5 -1.28571
6203.5 2.14286
6204.5 2
6205.5 -0.285714
6206.5 -2.28571
6207.5 -2.71429
6208.5 0.142857
6209.5 1.14286
6210.5 2.14286
6211.5 -0.714286
6212.5 -0.285714
6213.5 1.57143
6214.5 0.142857
6215.5 2.57143
6216.5 6.14286
6217.5 4.57143
6218.5 2
6219.5 2.28571
6220.5 -2.85714
6221.5 16.2857
6222.5 -7.14286
6223.5 7.57143
6224.5 -0.142858
6225.5 -23.8571
6226.5 2
6227.5 0.571428
6228.5 11.2857
6229.5 3.71429
6230.5 3
6231.5 5.14286
6232.5 -0.285714
6233.5 3.14286
6234.5 -5.14286
6235.5 0.571429
6236.5 1.57143
6237.5 1.57143
6238.5 -0.428571
6239.5 2.57143
6240.5 0.571429
6241.5 -0.285714
6242.5 -0.857143
6243.5 3.57143
6244.5 -1
6245.5 -1.71429
6246.5 0.142857
6247.5 -2.38419e-07
6248.5 1.57143
6249.5 1.71429
6250.5 -6.57143
6251.5 -0.857143
6252.5 -5
6253.5 0.142857
6254.5 -4.14286
6255.5 5.14286
6256.5 1.14286
6257.5 -0.285714
6258.5 -2.28571
6259.5 -1.71429
6260.5 3
6261.5 3.57143
6262.5 5
6263.5 3
6264.5 1.57143
6265.5 -0.285714
6266.5 -0.857143
6267.5 0.142857
6268.5 0.571429
6269.5 -2.71429
6270.5 -1.85714
6271.5 -4.14286
6272.5 -0.428571
6273.5 -0.857143
6274.5 -1.71429
6275.5 3
6276.5 -3.28571
6277.5 0.571429
6278.5 -2.28571
6279.5 0
6280.5 -0.428571
6281.5 -2.28571
6282.5 1.57143
6283.5 -1.42857
6284.5 0.714286
6285.5 -3.28571
6286.5 2.57143
6287.5 -0.857143
6288.5 0.571429
6289.5 0.142857
6290.5 3
6291.5 3
6292.5 -1.28571
6293.5 2.57143
6294.5 3.14286
6295.5 1.14286
6296.5 -0.285714
6297.5 0.142857
6298.5 -2.28571
6299.5 4.14286
6300.5 1.14286
6301.5 -5.14286
6302.5 -2.85714
6303.5 0.142857
6304.5 -0.857143
6305.5 -2.28571
6306.5 2
6307.5 1
6308.5 3
6309.5 -0.428571
6310.5 0.571429
6311.5 -3.28571
6312.5 -0.428571
6313.5 -0.428571
6314.5 0.142857
6315.5 -0.428571
6316.5 4.14286
6317.5 0.142857
6318.5 -3.71429
6319.5 4
6320.5 2.57143
6321.5 -2.28571
6322.5 -0.285714
6323.5 2.71429
6324.5 0.714286
6325.5 8.42857
6326.5 1.14286
6327.5 9.14286
6328.5 1.42857
6329.5 -3.14286
6330.5 2.42857
6331.5 0.714286
6332.5 -1.85714
6333.5 -2.14286
6334.5 4.57143
6335.5 -0.857143
6336.5 -1.85714
6337.5 0.571429
6338.5 -0.857143
6339.5 -0.857143
6340.5 3
6341.5 -3.28571
6342.5 1
6343.5 -0.714286
6344.5 3
6345.5 -7.14286
6346.5 -1.85714
6347.5 -0.857143
6348.5 -0.857143
6349.5 -4
6350.5 -1.57143
6351.5 -0.571429
6352.5 5
6353.5 -0.571429
6354.5 5.57143
6355.5 0
6356.5 3.57143
6357.5 1.14286
6358.5 0.571429
6359.5 0
6360.5 7
6361.5 -1.42857
6362.5 0.142857
6363.5 3
6364.5 -0.428571
6365.5 -1.42857
6366.5 -1.85714
6367.5 2.57143
6368.5 6
6369.5 0.571429
6370.5 2
6371.5 -1.85714
6372.5 1.14286
6373.5 -0.857143
6374.5 2.57143
6375.5 -0.428571
6376.5 -2.85714
6377.5 -0.428571
6378.5 1.57143
6379.5 1
6380.5 2
6381.5 2
6382.5 -0.857143
6383.5 3
6384.5 2.14286
6385.5 -3.28571
6386.5 0.571429
6387.5 0
6388.5 4
6389.5 -3.71429
6390.5 -1.42857
6391.5 -0.857143
6392.5 -1.28571
6393.5 -3.71429
6394.5 0.142857
6395.5 1
6396.5 1.14286
6397.5 0.571429
6398.5 -2.28571
6399.5 1.57143
6400.5 2
6401.5 0.571429
6402.5 5
6403.5 1.14286
6404.5 9
6405.5 9
6406.5 7
6407.5 12.5714
6408.5 19.5714
6409.5 13
6410.5 8.57143
6411.5 7
6412.5 3
6413.5 4.57143
6414.5 -0.857143
6415.5 1.57143
6416.5 -0.857143
6417.5 -4.71429
6418.5 1.57143
6419.5 1.14286
6420.5 6
6421.5 -0.714286
6422.5 1.14286
6423.5 -5.71429
6424.5 -3.71429
6425.5 -2.85714
6426.5 -1.28571
6427.5 -3.71429
6428.5 -6.14286
6429.5 -2.85714
6430.5 1
6431.5 -0.428571
6432.5 -4.28571
6433.5 2
6434.5 0.571429
6435.5 2
6436.5 1
6437.5 6.57143
6438.5 0
6439.5 -0.428571
6440.5 -0.428571
6441.5 1.57143
6442.5 6
6443.5 0.571429
6444.5 0.142857
6445.5 -6.14286
6446.5 2.57143
6447.5 0.142857
6448.5 1
6449.5 2
6450.5 -0.428571
6451.5 -6.14286
6452.5 1.57143
6453.5 -0.428571
6454.5 -0.428571
6455.5 -1.42857
6456.5 1
6457.5 0
6458.5 -1.42857
6459.5 1.14286
6460.5 1.57143
6461.5 0
6462.5 1
6463.5 -0.428571
6464.5 -2.85714
6465.5 3
6466.5 5
6467.5 -2.85714
6468.5 0.571429
6469.5 -1.85714
6470.5 1.57143
6471.5 4
6472.5 6.57143
6473.5 -3.28571
6474.5 0.285714
6475.5 3.85714
6476.5 5.14286
6477.5 -4.71429
6478.5 -1.71429
6479.5 6.57143
6480.5 -2.57143
6481.5 4.85714
6482.5 2
6483.5 -7.42857
6484.5 0.285714
6485.5 -0.428571
6486.5 3
6487.5 -1.42857
6488.5 -0.857143
6489.5 4
6490.5 2
6491.5 1
6492.5 -1.85714
6493.5 -0.428571
6494.5 -1.85714
6495.5 -3.28571
6496.5 1
6497.5 0
6498.5 -0.857143
6499.5 1
6500.5 -1.42857
6501.5 1
6502.5 2.57143
6503.5 0.571429
6504.5 -2.85714
6505.5 -0.428571
6506.5 0.571429
6507.5 -2.85714
6508.5 3.57143
6509.5 1
6510.5 0.571429
6511.5 -1.42857
6512.5 1
6513.5 -1.42857
6514.5 2
6515.5 1
6516.5 2
6517.5 2
6518.5 2
6519.5 2.57143
6520.5 1.57143
6521.5 0
6522.5 -3.28571
6523.5 -2.85714
6524.5 0
6525.5 0.571429
6526.5 -4.28571
6527.5 -0.428571
6528.5 -1.42857
6529.5 -0.857143
6530.5 0
6531.5 0
6532.5 0
6533.5 0
6534.5 -2.71429
6535.5 1
6536.5 1
6537.5 -1.28571
6538.5 1
6539.5 1
6540.5 2
6541.5 1
6542.5 0.714286
6543.5 2.71429
6544.5 0.142857
6545.5 1.57143
6546.5 -2.71429
6547.5 -4.14286
6548.5 -2.85714
6549.5 3.57143
6550.5 -1.28571
6551.5 1
6552.5 0.571429
6553.5 3
6554.5 2
6555.5 3
6556.5 -5.71429
6557.5 1
6558.5 0
6559.5 -1.85714
6560.5 0.571429
6561.5 0
6562.5 -1.85714
6563.5 0
6564.5 2
6565.5 -0.428571
6566.5 -0.428571
6567.5 2
6568.5 2
6569.5 1.57143
6570.5 1
6571.5 -1.42857
6572.5 -0.428571
6573.5 -1.42857
6574.5 0
6575.5 1
6576.5 -0.428571
6577.5 3
6578.5 0
6579.5 0
6580.5 -0.428571
6581.5 0
6582.5 0
6583.5 -0.428571
6584.5 1
6585.5 -1.42857
6586.5 1
6587.5 -0.428571
6588.5 0
6589.5 0.571429
6590.5 -0.428571
6591.5 1.57143
6592.5 -0.428571
6593.5 -0.428571
6594.5 3
6595.5 -0.285714
6596.5 0.571429
6597.5 -0.428571
6598.5 2
6599.5 1.57143
6600.5 3.57143
6601.5 -2.28571
6602.5 0.571429
6603.5 1.57143
6604.5 0
6605.5 2
6606.5 0
6607.5 0.142857
6608.5 -0.857143
6609.5 1
6610.5 2
6611.5 -0.428571
6612.5 1
6613.5 2
6614.5 -1.42857
6615.5 -0.428571
6616.5 0
6617.5 1
6618.5 -1.42857
6619.5 3
6620.5 -1.85714
6621.5 0.714286
6622.5 0.571429
6623.5 -1.42857
6624.5 -2.85714
6625.5 0
6626.5 3
6627.5 2.57143
6628.5 1
6629.5 0.571429
6630.5 0
6631.5 1
6632.5 0.571429
6633.5 -2.85714
6634.5 2
6635.5 -1.42857
6636.5 -1.85714
6637.5 -0.428571
6638.5 1
6639.5 -2.85714
6640.5 -1.42857
6641.5 -1.42857
6642.5 -0.428571
6643.5 1
6644.5 -4.28571
6645.5 -3.28571
6646.5 1
6647.5 0.571429
6648.5 0.571429
6649.5 1
6650.5 -4.28571
6651.5 1.14286
6652.5 -1.42857
6653.5 -1.42857
6654.5 -3.28571
6655.5 -1.85714
6656.5 2
6657.5 4
6658.5 1
6659.5 1
6660.5 1
6661.5 1
6662.5 2
6663.5 0
6664.5 0
6665.5 2
6666.5 -1.42857
6667.5 0
6668.5 -0.428571
6669.5 2
6670.5 -1.42857
6671.5 2
6672.5 0.571429
6673.5 -1.42857
6674.5 1
6675.5 -1.42857
6676.5 -1.42857
6677.5 0.571429
6678.5 0
6679.5 -1.85714
6680.5 -0.428571
6681.5 -0.428571
6682.5 -4.28571
6683.5 -0.428571
6684.5 1
6685.5 2
6686.5 0
6687.5 1
6688.5 3
6689.5 1
6690.5 1
6691.5 0.571429
6692.5 -0.857143
6693.5 1.57143
6694.5 0
6695.5 -1.42857
6696.5 2
6697.5 1
6698.5 0
6699.5 4
6700.5 0
6701.5 0.571429
6702.5 -0.428571
6703.5 0
6704.5 0
6705.5 1
6706.5 1
6707.5 -1.42857
6708.5 0.571429
6709.5 -0.428571
6710.5 2
6711.5 -0.428571
6712.5 -0.428571
6713.5 0
6714.5 1
6715.5 0
6716.5 -0.428571
6717.5 -2.85714
6718.5 2
6719.5 2
6720.5 1
6721.5 0
6722.5 0
6723.5 -2.85714
6724.5 2
6725.5 1
6726.5 0
6727.5 2
6728.5 2
6729.5 1
6730.5 0.571429
6731.5 -1.85714
6732.5 1.57143
6733.5 -0.428571
6734.5 -1.85714
6735.5 2
6736.5 2
6737.5 1
6738.5 2
6739.5 -1.42857
6740.5 1
6741.5 0.571429
6742.5 1
6743.5 0
6744.5 1
6745.5 -1.42857
6746.5 -0.428571
6747.5 -2.28571
6748.5 0
6749.5 1
6750.5 1
6751.5 -0.428571
6752.5 1
6753.5 -2.85714
6754.5 -1.42857
6755.5 0.571429
6756.5 -1.42857
6757.5 0.571429
6758.5 -0.428571
6759.5 -1.42857
6760.5 -1.85714
6761.5 0
6762.5 -1.42857
6763.5 1
6764.5 -0.428571
6765.5 -1.42857
6766.5 0.571429
6767.5 -1.42857
6768.5 0.142857
6769.5 -0.428571
6770.5 3
6771.5 2.57143
6772.5 4
6773.5 1
6774.5 -1.28571
6775.5 3
6776.5 0
6777.5 2
6778.5 -1.42857
6779.5 -5.71429
6780.5 -1.42857
6781.5 -2.85714
6782.5 -0.428571
6783.5 0
6784.5 4
6785.5 -1.42857
6786.5 -0.428571
6787.5 0
6788.5 0
6789.5 2
6790.5 2
6791.5 -2.85714
6792.5 -2.85714
6793.5 0
6794.5 1
6795.5 -0.428571
6796.5 -0.857143
6797.5 0
6798.5 0
6799.5 0
6800.5 -0.428571
6801.5 2
6802.5 0
6803.5 1
6804.5 -0.428571
6805.5 0
6806.5 -0.857143
6807.5 -3.28571
6808.5 -1.42857
6809.5 1
6810.5 0
6811.5 0
6812.5 1
6813.5 3
6814.5 0
6815.5 0
6816.5 2
6817.5 1
6818.5 0
6819.5 1
6820.5 -0.428571
6821.5 -1.42857
6822.5 -0.428571
6823.5 -1.42857
6824.5 2
6825.5 3
6826.5 -0.428571
6827.5 1
6828.5 0
6829.5 -0.428571
6830.5 0
6831.5 0
6832.5 1
6833.5 0
6834.5 -1.85714
6835.5 -1.42857
6836.5 1.57143
6837.5 -1.85714
6838.5 -1.42857
6839.5 2
6840.5 1
6841.5 1
6842.5 0
6843.5 -0.857143
6844.5 -3.28571
6845.5 -1.42857
6846.5 -1.42857
6847.5 -1.42857
6848.5 1
6849.5 2
6850.5 0
6851.5 0
6852.5 -1.42857
6853.5 1
6854.5 1
6855.5 2
6856.5 0
6857.5 -0.428571
6858.5 0
6859.5 0
6860.5 2
6861.5 0.571429
6862.5 1
6863.5 -1.42857
6864.5 0
6865.5 1
6866.5 1
6867.5 0
6868.5 -0.428571
6869.5 1
6870.5 0
6871.5 0.571429
6872.5 1
6873.5 -1.42857
6874.5 0
6875.5 0
6876.5 -0.428571
6877.5 -0.428571
6878.5 1
6879.5 2
6880.5 -0.428571
6881.5 1
6882.5 0
6883.5 0
6884.5 0
6885.5 1
6886.5 2
6887.5 -1.42857
6888.5 1
6889.5 0.571429
6890.5 1
6891.5 0
6892.5 2
6893.5 -0.428571
6894.5 3
6895.5 1
6896.5 0
6897.5 -1.42857
6898.5 -1.42857
6899.5 -1.42857
6900.5 -1.85714
6901.5 3
6902.5 2
6903.5 1
6904.5 -1.42857
6905.5 -0.857143
6906.5 2
6907.5 0
6908.5 2
6909.5 0.571429
6910.5 0
6911.5 -2.85714
6912.5 1
6913.5 -1.42857
6914.5 1.57143
6915.5 4
6916.5 0
6917.5 0
6918.5 -1.85714
6919.5 0.571429
6920.5 1
6921.5 1
6922.5 3
6923.5 -1.85714
6924.5 1
6925.5 -1.42857
6926.5 -1.85714
6927.5 1
6928.5 2
6929.5 -0.428571
6930.5 0
6931.5 1
6932.5 -1.42857
6933.5 -0.428571
6934.5 -2.85714
6935.5 1.57143
6936.5 0.142857
6937.5 0.571429
6938.5 1
6939.5 1
6940.5 0.571429
6941.5 1
6942.5 1
6943.5 2
6944.5 -1.42857
6945.5 -1.42857
6946.5 1
6947.5 1
6948.5 0
6949.5 3.57143
6950.5 0
6951.5 -3.28571
6952.5 -1.42857
6953.5 1
6954.5 -0.857143
6955.5 0.571429
6956.5 -1.42857
6957.5 1.57143
6958.5 2
6959.5 1.57143
6960.5 2
6961.5 0.571429
6962.5 -0.428571
6963.5 -0.428571
6964.5 0
6965.5 0.142857
6966.5 0
6967.5 1
6968.5 0
6969.5 1
6970.5 1
6971.5 -0.857143
6972.5 0
6973.5 -0.428571
6974.5 -1.85714
6975.5 0
6976.5 2
6977.5 -1.42857
6978.5 -0.428571
6979.5 2
6980.5 -1.42857
6981.5 2
6982.5 -0.428571
6983.5 0
6984.5 0
6985.5 1
6986.5 0
6987.5 1
6988.5 1
6989.5 -1.42857
6990.5 3
6991.5 -1.42857
6992.5 0
6993.5 2
6994.5 1
6995.5 0.571429
6996.5 0
6997.5 -0.857143
6998.5 -0.428571
6999.5 -1.85714
7000.5 2
7001.5 0
7002.5 0
7003.5 0
7004.5 -1.42857
7005.5 0
7006.5 1
7007.5 0
7008.5 0
7009.5 0.571429
7010.5 0
7011.5 0
7012.5 2
7013.5 0
7014.5 0
7015.5 -2.85714
7016.5 -0.428571
7017.5 1
7018.5 -1.42857
7019.5 -1.42857
7020.5 2
7021.5 2
7022.5 2
7023.5 0
7024.5 -1.42857
7025.5 0
7026.5 -0.428571
7027.5 -2.85714
7028.5 0
7029.5 0
7030.5 0
7031.5 0
7032.5 0
7033.5 0
7034.5 -0.428571
7035.5 0
7036.5 1
7037.5 1
7038.5 -0.428571
7039.5 1
7040.5 0
7041.5 -1.42857
7042.5 -1.42857
7043.5 0
7044.5 1
7045.5 -0.428571
7046.5 1
7047.5 1
7048.5 4
7049.5 0
7050.5 1
7051.5 1
7052.5 -3.28571
7053.5 2
7054.5 1
7055.5 1
7056.5 2.57143
7057.5 0
7058.5 -0.428571
7059.5 -4.71429
7060.5 -4.71429
7061.5 0
7062.5 -1.42857
7063.5 2
7064.5 -4.28571
7065.5 -3.28571
7066.5 -2.85714
7067.5 -1.42857
7068.5 0.571429
7069.5 -0.428571
7070.5 0
7071.5 0
7072.5 1
7073.5 0
7074.5 0
7075.5 -2.85714
7076.5 1
7077.5 -1.42857
7078.5 0
7079.5 0
7080.5 -0.428571
7081.5 2
7082.5 1
7083.5 -1.42857
7084.5 2
7085.5 0
7086.5 0
7087.5 0
7088.5 0
7089.5 -1.42857
7090.5 1
7091.5 -0.428571
7092.5 0
7093.5 0
7094.5 1.57143
7095.5 1
7096.5 2
7097.5 -2.85714
7098.5 -1.85714
7099.5 2
7100.5 -1.42857
7101.5 4
7102.5 -1.42857
7103.5 3
7104.5 1
7105.5 0
7106.5 0
7107.5 0
7108.5 2
7109.5 0
7110.5 1
7111.5 1
7112.5 -2.85714
7113.5 -0.428571
7114.5 -2.85714
7115.5 -1.42857
7116.5 -2.28571
7117.5 1
7118.5 0
7119.5 -0.428571
7120.5 0.571429
7121.5 -0.428571
7122.5 -1.42857
7123.5 0
7124.5 2
7125.5 1
7126.5 0
7127.5 0
7128.5 -0.428571
7129.5 0
7130.5 0
7131.5 -0.428571
7132.5 3
7133.5 0.571429
7134.5 -2.85714
7135.5 0
7136.5 -1.42857
7137.5 -2.85714
7138.5 -1.42857
7139.5 -1.42857
7140.5 1
7141.5 1
7142.5 0
7143.5 -0.428571
7144.5 1
7145.5 -1.42857
7146.5 1
7147.5 1
7148.5 0
7149.5 -0.428571
7150.5 1
7151.5 -1.42857
7152.5 -0.428571
7153.5 0
7154.5 1
7155.5 1
7156.5 -0.428571
7157.5 1
7158.5 0
7159.5 1
7160.5 -1.42857
7161.5 -0.428571
7162.5 -2.85714
7163.5 0
7164.5 0
7165.5 1
7166.5 -0.428571
7167.5 -1.42857
7168.5 0
7169.5 -1.42857
7170.5 0
7171.5 0
7172.5 -1.42857
7173.5 -1.42857
7174.5 -0.428571
7175.5 1
7176.5 1
7177.5 -0.428571
7178.5 1
7179.5 2
7180.5 0
7181.5 1
7182.5 -1.42857
7183.5 -1.42857
7184.5 -2.85714
7185.5 1
7186.5 1
7187.5 2
7188.5 1
7189.5 1
7190.5 0
7191.5 2
7192.5 -1.42857
7193.5 1
7194.5 -1.42857
7195.5 0
7196.5 0
7197.5 1
7198.5 1
7199.5 0
7200.5 1
7201.5 0
7202.5 0
7203.5 0
7204.5 1
7205.5 -2.85714
7206.5 -3.28571
7207.5 4
7208.5 -2.85714
7209.5 3
7210.5 0.571429
7211.5 -0.428571
7212.5 -2.85714
7213.5 0
7214.5 1
7215.5 0
7216.5 -1.42857
7217.5 -1.85714
7218.5 0
7219.5 0
7220.5 1
7221.5 1
7222.5 -0.428571
7223.5 0
7224.5 0
7225.5 -1.42857
7226.5 -1.42857
7227.5 1
7228.5 1
7229.5 0
7230.5 0
7231.5 0
7232.5 0
7233.5 -1.42857
7234.5 1
7235.5 -0.428571
7236.5 1
7237.5 -1.42857
7238.5 -1.42857
7239.5 0
7240.5 -1.85714
7241.5 -0.428571
7242.5 0.571429
7243.5 2
7244.5 0
7245.5 -0.857143
7246.5 -0.428571
7247.5 -0.428571
7248.5 -0.428571
7249.5 0.571429
7250.5 -1.42857
7251.5 2
7252.5 3
7253.5 -0.428571
7254.5 -1.42857
7255.5 1
7256.5 0
7257.5 0
7258.5 0
7259.5 2.14286
7260.5 5
7261.5 -1.42857
7262.5 1.71429
7263.5 2.57143
7264.5 1
7265.5 1
7266.5 1
7267.5 2
7268.5 -0.428571
7269.5 1
7270.5 2
7271.5 -0.428571
7272.5 0
7273.5 -0.428571
7274.5 1
7275.5 -0.428571
7276.5 0
7277.5 -1.42857
7278.5 0
7279.5 -0.428571
7280.5 -2.85714
7281.5 -1.42857
7282.5 2
7283.5 -1.85714
7284.5 0.571429
7285.5 0
7286.5 -0.428571
7287.5 0
7288.5 0
7289.5 1
7290.5 0
7291.5 3
7292.5 -1.42857
7293.5 -1.42857
7294.5 1
7295.5 0
7296.5 2
7297.5 -1.42857
7298.5 -1.85714
7299.5 -1.42857
7300.5 -0.428571
7301.5 0
7302.5 1
7303.5 0
7304.5 0
7305.5 -1.42857
7306.5 0
7307.5 0
7308.5 -0.428571
7309.5 -0.428571
7310.5 -0.428571
7311.5 -0.428571
7312.5 0
7313.5 0
7314.5 -1.42857
7315.5 -1.42857
7316.5 2
7317.5 1
7318.5 1
7319.5 2
7320.5 -1.42857
7321.5 0
7322.5 1
7323.5 2
7324.5 0
7325.5 1
7326.5 0
7327.5 -1.42857
7328.5 0
7329.5 -0.428571
7330.5 0
7331.5 1
7332.5 1
7333.5 1
7334.5 0
7335.5 0
7336.5 1
7337.5 -1.42857
7338.5 0
7339.5 0
7340.5 1
7341.5 1
7342.5 1
7343.5 -0.428571
7344.5 2
7345.5 0
7346.5 0
7347.5 -1.42857
7348.5 0
7349.5 0
7350.5 0
7351.5 -1.42857
7352.5 -1.85714
7353.5 -1.42857
7354.5 -1.42857
7355.5 -2.85714
7356.5 1
7357.5 0
7358.5 -0.428571
7359.5 0
7360.5 0
7361.5 1
7362.5 0
7363.5 1
7364.5 3
7365.5 0
7366.5 1
7367.5 -1.42857
7368.5 1
7369.5 0
7370.5 0
7371.5 0
7372.5 1
7373.5 0
7374.5 1
7375.5 -1.85714
7376.5 1
7377.5 -1.42857
7378.5 1
7379.5 -1.42857
7380.5 1
7381.5 -1.42857
7382.5 -1.42857
7383.5 -1.42857
7384.5 1
7385.5 0
7386.5 0
7387.5 0
7388.5 0
7389.5 0
7390.5 0
7391.5 -1.42857
7392.5 0
7393.5 2
7394.5 1
7395.5 0
7396.5 -0.428571
7397.5 0
7398.5 0
7399.5 1
7400.5 0
7401.5 0
7402.5 1
7403.5 1
7404.5 -2.85714
7405.5 -1.42857
7406.5 1
7407.5 -0.428571
7408.5 0
7409.5 -0.428571
7410.5 2
7411.5 0
7412.5 1
7413.5 -1.85714
7414.5 0
7415.5 -3.28571
7416.5 -1.28571
7417.5 0
7418.5 2
7419.5 -0.428571
7420.5 0
7421.5 -0.428571
7422.5 -0.428571
7423.5 2
7424.5 1
7425.5 0
7426.5 1
7427.5 2
7428.5 1
7429.5 0
7430.5 -1.42857
7431.5 0
7432.5 0
7433.5 1
7434.5 0
7435.5 0
7436.5 0
7437.5 0
7438.5 1
7439.5 1
7440.5 0
7441.5 1
7442.5 -1.42857
7443.5 0
7444.5 0.571429
7445.5 1
7446.5 1
7447.5 2
7448.5 0
7449.5 -0.428571
7450.5 2
7451.5 2
7452.5 -1.42857
7453.5 0
7454.5 -0.428571
7455.5 1
7456.5 0
7457.5 0
7458.5 -1.42857
7459.5 0
7460.5 0
7461.5 -1.42857
7462.5 0
7463.5 -0.428571
7464.5 0
7465.5 -0.428571
7466.5 -0.428571
7467.5 -1.42857
7468.5 -0.857143
7469.5 3
7470.5 -2.85714
7471.5 -3.28571
7472.5 0
7473.5 1
7474.5 -1.42857
7475.5 -1.42857
7476.5 0
7477.5 0
7478.5 0
7479.5 0
7480.5 -0.428571
7481.5 0
7482.5 0
7483.5 2
7484.5 0
7485.5 1
7486.5 0
7487.5 -1.42857
7488.5 -0.428571
7489.5 0
7490.5 0
7491.5 0
7492.5 -1.85714
7493.5 0
7494.5 -1.42857
7495.5 1
7496.5 0
7497.5 1
7498.5 0
7499.5 -1.42857
7500.5 0
7501.5 -2.85714
7502.5 0
7503.5 1
7504.5 3
7505.5 1
7506.5 1
7507.5 1
7508.5 0
7509.5 0
7510.5 -0.428571
7511.5 -1.42857
7512.5 -0.428571
7513.5 -1.42857
7514.5 0
7515.5 0.571429
7516.5 0
7517.5 -1.42857
7518.5 0
7519.5 0
7520.5 0
7521.5 0
7522.5 -0.428571
7523.5 1
7524.5 -0.428571
7525.5 0
7526.5 0
7527.5 0
7528.5 0
7529.5 0
7530.5 -1.42857
7531.5 -1.42857
7532.5 0
7533.5 1
7534.5 0
7535.5 -1.42857
7536.5 1
7537.5 0
7538.5 2
7539.5 -1.42857
7540.5 -1.42857
7541.5 1
7542.5 0
7543.5 0.571429
7544.5 0
7545.5 0
7546.5 0
7547.5 1
7548.5 0
7549.5 0
7550.5 1
7551.5 2
7552.5 2
7553.5 0
7554.5 1
7555.5 -0.428571
7556.5 1
7557.5 0
7558.5 1
7559.5 0.571429
7560.5 0
7561.5 0
7562.5 1
7563.5 -0.428571
7564.5 0
7565.5 0
7566.5 1
7567.5 -0.428571
7568.5 1
7569.5 -0.428571
7570.5 0
7571.5 1
7572.5 0
7573.5 1
7574.5 -1.42857
7575.5 -8.57143
7576.5 1
7577.5 -2.85714
7578.5 -8.57143
7579.5 -8.57143
7580.5 -4.28571
7581.5 -2.85714
7582.5 0
7583.5 0
7584.5 1
7585.5 -2.85714
7586.5 0
7587.5 0
7588.5 0
7589.5 0
7590.5 -1.42857
7591.5 1
7592.5 -1.42857
7593.5 -1.42857
7594.5 0
7595.5 -2.85714
7596.5 -1.42857
7597.5 0
7598.5 -1.42857
7599.5 0
7600.5 0
7601.5 0
7602.5 1
7603.5 -1.42857
7604.5 0
7605.5 1
7606.5 0
7607.5 1
7608.5 0
7609.5 0
7610.5 0
7611.5 0
7612.5 0
7613.5 -0.428571
7614.5 0
7615.5 -2.85714
7616.5 0
7617.5 0
7618.5 0
7619.5 0
7620.5 0
7621.5 0
7622.5 0
7623.5 0
7624.5 1
7625.5 1
7626.5 2
7627.5 -1.42857
7628.5 0
7629.5 0
7630.5 0
7631.5 1
7632.5 0
7633.5 2
7634.5 -0.428571
7635.5 1
7636.5 -1.42857
7637.5 1
7638.5 -2.85714
7639.5 1
7640.5 0
7641.5 -1.42857
7642.5 0
7643.5 0
7644.5 1
7645.5 1
7646.5 1
7647.5 0
7648.5 2
7649.5 -1.42857
7650.5 0
7651.5 0
7652.5 0
7653.5 0
7654.5 1
7655.5 -1.42857
7656.5 0
7657.5 0
7658.5 0
7659.5 1
7660.5 0
7661.5 0
7662.5 1
7663.5 0
7664.5 -1.42857
7665.5 0
7666.5 0
7667.5 1
7668.5 0
7669.5 -0.428571
7670.5 0
7671.5 0
7672.5 0
7673.5 1
7674.5 0
7675.5 0
7676.5 0
7677.5 0
7678.5 -1.42857
7679.5 1
7680.5 -1.42857
7681.5 -0.428571
7682.5 1
7683.5 0
7684.5 0
7685.5 0
7686.5 0
7687.5 0
7688.5 0
7689.5 0
7690.5 0
7691.5 -1.85714
7692.5 0
7693.5 0
7694.5 0
7695.5 0
7696.5 0
7697.5 0
7698.5 0
7699.5 0
7700.5 2
7701.5 0
7702.5 0
7703.5 -1.42857
7704.5 -1.42857
7705.5 2
7706.5 0
7707.5 0
7708.5 0
7709.5 -1.42857
7710.5 0
7711.5 -0.428571
7712.5 0
7713.5 -1.42857
7714.5 0
7715.5 0
7716.5 0
7717.5 0
7718.5 2
7719.5 0
7720.5 0
7721.5 2.57143
7722.5 -1.42857
7723.5 0
7724.5 -1.42857
7725.5 -0.428571
7726.5 1
7727.5 0
7728.5 1
7729.5 0
7730.5 0
7731.5 0
7732.5 1
7733.5 0
7734.5 0
7735.5 1
7736.5 0
7737.5 0
7738.5 0
7739.5 0
7740.5 0
7741.5 -1.42857
7742.5 -1.42857
7743.5 0
7744.5 0
7745.5 0
7746.5 0
7747.5 0
7748.5 1
7749.5 0
7750.5 0
7751.5 0
7752.5 -1.42857
7753.5 0
7754.5 -1.42857
7755.5 -2.85714
7756.5 0
7757.5 0
7758.5 0
7759.5 0
7760.5 0
7761.5 -0.428571
7762.5 -1.42857
7763.5 0
7764.5 1
7765.5 0
7766.5 0
7767.5 0
7768.5 1
7769.5 1.57143
7770.5 -1.42857
7771.5 2
7772.5 -1.42857
7773.5 0
7774.5 -0.857143
7775.5 2
7776.5 0
7777.5 1
7778.5 -1.42857
7779.5 0
7780.5 0
7781.5 0
7782.5 0
7783.5 0
7784.5 -1.42857
7785.5 0
7786.5 1.57143
7787.5 -1.42857
7788.5 0
7789.5 1
7790.5 0
7791.5 0
7792.5 2
7793.5 0
7794.5 0
7795.5 1
7796.5 0
7797.5 1
7798.5 1
7799.5 1
7800.5 2
7801.5 1
7802.5 -1.42857
7803.5 -1.42857
7804.5 -0.428571
7805.5 0
7806.5 0
7807.5 0
7808.5 -0.428571
7809.5 -1.42857
7810.5 0
7811.5 0
7812.5 0
7813.5 0
7814.5 1
7815.5 0
7816.5 0
7817.5 0
7818.5 1
7819.5 -1.42857
7820.5 0
7821.5 0
7822.5 1
7823.5 1
7824.5 0
7825.5 0
7826.5 0
7827.5 3
7828.5 4
7829.5 1
7830.5 1.57143
7831.5 -1.42857
7832.5 1
7833.5 0
7834.5 0
7835.5 -1.42857
7836.5 -1.42857
7837.5 -0.428571
7838.5 1
7839.5 0
7840.5 0
7841.5 0
7842.5 0
7843.5 -1.42857
7844.5 -2.85714
7845.5 0
7846.5 0
7847.5 0
7848.5 0
7849.5 0
7850.5 0
7851.5 0
7852.5 0
7853.5 0
7854.5 0
7855.5 1
7856.5 1
7857.5 0
7858.5 1
7859.5 0
7860.5 1
7861.5 0
7862.5 0
7863.5 1
7864.5 -0.428571
7865.5 0
7866.5 0
7867.5 -0.428571
7868.5 0
7869.5 1
7870.5 0
7871.5 0
7872.5 2
7873.5 0
7874.5 0
7875.5 0
7876.5 1
7877.5 0
7878.5 0
7879.5 0
7880.5 1
7881.5 0
7882.5 1
7883.5 0
7884.5 -1.42857
7885.5 0
7886.5 0
7887.5 1
7888.5 -1.42857
7889.5 0
7890.5 0
7891.5 0
7892.5 1
7893.5 0
7894.5 0
7895.5 0
7896.5 0
7897.5 0
7898.5 0
7899.5 0
7900.5 -1.42857
7901.5 0
7902.5 0
7903.5 0
7904.5 1
7905.5 -1.42857
7906.5 0
7907.5 0
7908.5 0
7909.5 2
7910.5 0
7911.5 -0.428571
7912.5 -1.85714
7913.5 -1.42857
7914.5 0
7915.5 0
7916.5 -1.42857
7917.5 -0.428571
7918.5 0
7919.5 0
7920.5 -1.42857
7921.5 0
7922.5 0
7923.5 0
7924.5 0
7925.5 0
7926.5 2
7927.5 0
7928.5 0
7929.5 0
7930.5 1
7931.5 0
7932.5 0
7933.5 0
7934.5 0
7935.5 0
7936.5 0
7937.5 0
7938.5 0
7939.5 0
7940.5 -2.85714
7941.5 0
7942.5 -0.428571
7943.5 0
7944.5 0
7945.5 0
7946.5 0
7947.5 1
7948.5 1
7949.5 0
7950.5 1
7951.5 1
7952.5 1
7953.5 0
7954.5 0
7955.5 0
7956.5 0
7957.5 1
7958.5 1
7959.5 0
7960.5 0
7961.5 1
7962.5 0
7963.5 0
7964.5 0
7965.5 0
7966.5 0
7967.5 1
7968.5 1
7969.5 0
7970.5 0
7971.5 0
7972.5 -1.42857
7973.5 1
7974.5 0
7975.5 -1.42857
7976.5 1
7977.5 0
7978.5 0
7979.5 -1.42857
7980.5 0
7981.5 0
7982.5 0
7983.5 -1.42857
7984.5 -2.85714
7985.5 0
7986.5 -1.42857
7987.5 0
7988.5 0
7989.5 0
7990.5 0
7991.5 0
7992.5 0
7993.5 0
7994.5 0
7995.5 0
7996.5 0
7997.5 0
7998.5 -1.42857
7999.5 -1.42857
8000.5 0
8001.5 0
8002.5 0
8003.5 0
8004.5 0
8005.5 0
8006.5 1
8007.5 0
8008.5 0
8009.5 0
8010.5 0
8011.5 0
8012.5 0
8013.5 0
8014.5 0
8015.5 1
8016.5 0
8017.5 0
8018.5 -1.42857
8019.5 -1.42857
8020.5 -0.428571
8021.5 0
8022.5 0
8023.5 0
8024.5 -1.42857
8025.5 0
8026.5 0
8027.5 0
8028.5 0
8029.5 1
8030.5 0
8031.5 0
8032.5 1
8033.5 0
8034.5 0
8035.5 1
8036.5 0
8037.5 0
8038.5 1
8039.5 -0.428571
8040.5 -1.42857
8041.5 0
8042.5 0
8043.5 -1.42857
8044.5 0
8045.5 0
8046.5 0
8047.5 2
8048.5 0
8049.5 0
8050.5 1
8051.5 0
8052.5 0
8053.5 1
8054.5 1
8055.5 0
8056.5 0
8057.5 0
8058.5 0
8059.5 0
8060.5 0
8061.5 0
8062.5 2
8063.5 1
8064.5 0
8065.5 0
8066.5 -1.42857
8067.5 0
8068.5 0
8069.5 1
8070.5 0
8071.5 -1.42857
8072.5 0
8073.5 0
8074.5 0
8075.5 1
8076.5 0
8077.5 0
8078.5 1
8079.5 -2.85714
8080.5 1
8081.5 0
8082.5 1
8083.5 0
8084.5 2
8085.5 1
8086.5 -1.42857
8087.5 0
8088.5 1
8089.5 -0.428571
8090.5 1
8091.5 -2.85714
8092.5 0
8093.5 1
8094.5 1
8095.5 1
8096.5 -0.428571
8097.5 -1.42857
8098.5 0
8099.5 1
8100.5 0
8101.5 0
8102.5 0
8103.5 0
8104.5 0
8105.5 0
8106.5 0
8107.5 0
8108.5 0
8109.5 0
8110.5 0
8111.5 -0.428571
8112.5 0
8113.5 0
8114.5 -1.42857
8115.5 -1.42857
8116.5 -1.42857
8117.5 0
8118.5 0
8119.5 0
8120.5 0
8121.5 1
8122.5 0
8123.5 -1.42857
8124.5 0
8125.5 0
8126.5 0
8127.5 0
8128.5 0
8129.5 0
8130.5 0
8131.5 0
8132.5 -1.42857
8133.5 1
8134.5 0
8135.5 0
8136.5 0
8137.5 -1.42857
8138.5 0
8139.5 0
8140.5 -1.42857
8141.5 0
8142.5 0
8143.5 0
8144.5 0
8145.5 -1.85714
8146.5 0
8147.5 0
8148.5 -1.42857
8149.5 0
8150.5 0
8151.5 0
8152.5 0
8153.5 0
8154.5 0
8155.5 0
8156.5 1
8157.5 0
8158.5 0
8159.5 0
8160.5 0.571429
8161.5 1
8162.5 0
8163.5 0
8164.5 0
8165.5 0
8166.5 -1.42857
8167.5 0
8168.5 0
8169.5 0
8170.5 0
8171.5 0
8172.5 0
8173.5 0
8174.5 0
8175.5 0
8176.5 0
8177.5 0
8178.5 0
8179.5 0
8180.5 0
8181.5 0
8182.5 0
8183.5 0
8184.5 0
8185.5 -1.42857
8186.5 0
8187.5 0
8188.5 0
8189.5 0
8190.5 0
8191.5 -1.42857
8192.5 -1.42857
8193.5 0
8194.5 0
8195.5 1
8196.5 0
8197.5 0
8198.5 0
8199.5 1
8200.5 1
8201.5 -1.42857
8202.5 0
8203.5 1
8204.5 1
8205.5 0
8206.5 0
8207.5 0
8208.5 0
8209.5 0
8210.5 -1.42857
8211.5 0
8212.5 0
8213.5 0
8214.5 1
8215.5 0
8216.5 0
8217.5 0
8218.5 -0.428571
8219.5 0
8220.5 0
8221.5 0
8222.5 0
8223.5 -1.42857
8224.5 0
8225.5 0
8226.5 -1.42857
8227.5 0
8228.5 0
8229.5 0
8230.5 0
8231.5 0
8232.5 0
8233.5 0
8234.5 0
8235.5 1
8236.5 0
8237.5 0
8238.5 1
8239.5 1
8240.5 1
8241.5 0
8242.5 0
8243.5 0
8244.5 0
8245.5 2
8246.5 0
8247.5 0
8248.5 0
8249.5 0
8250.5 0
8251.5 -1.42857
8252.5 0
8253.5 0
8254.5 0
8255.5 0
8256.5 0
8257.5 0
8258.5 0
8259.5 -0.428571
8260.5 0
8261.5 0
8262.5 0
8263.5 0
8264.5 1
8265.5 0
8266.5 0
8267.5 0
8268.5 0
8269.5 0
8270.5 0
8271.5 0
8272.5 0
8273.5 0
8274.5 0
8275.5 0
8276.5 0
8277.5 0
8278.5 0
8279.5 1
8280.5 0
8281.5 1
8282.5 0
8283.5 0
8284.5 0
8285.5 0
8286.5 0
8287.5 0
8288.5 -1.42857
8289.5 0
8290.5 0
8291.5 0
8292.5 0
8293.5 0
8294.5 0
8295.5 -1.42857
8296.5 0
8297.5 1
8298.5 0
8299.5 0
8300.5 0
8301.5 0
8302.5 0
8303.5 0
8304.5 0
8305.5 -1.42857
8306.5 -0.428571
8307.5 1
8308.5 0
8309.5 0
8310.5 0
8311.5 0
8312.5 0
8313.5 0
8314.5 0
8315.5 0
8316.5 1
8317.5 0
8318.5 -1.42857
8319.5 0
8320.5 0
8321.5 -1.42857
8322.5 1
8323.5 0
8324.5 0
8325.5 1
8326.5 1
8327.5 1
8328.5 1
8329.5 1
8330.5 1
8331.5 1
8332.5 0
8333.5 0
8334.5 1
8335.5 0
8336.5 1
8337.5 0
8338.5 0
8339.5 0
8340.5 0
8341.5 0
8342.5 0
8343.5 0
8344.5 1
8345.5 0
8346.5 0
8347.5 1
8348.5 0
8349.5 0
8350.5 -1.42857
8351.5 0
8352.5 0
8353.5 0
8354.5 0
8355.5 0
8356.5 1
8357.5 0
8358.5 0
8359.5 0
8360.5 0
8361.5 0
8362.5 0
8363.5 0
8364.5 1
8365.5 0
8366.5 0
8367.5 0
8368.5 0
8369.5 0
8370.5 0
8371.5 0
8372.5 1
8373.5 0
8374.5 0
8375.5 0
8376.5 0
8377.5 1
8378.5 0
8379.5 0
8380.5 0
8381.5 0
8382.5 0
8383.5 -1.42857
8384.5 0
8385.5 0
8386.5 1
8387.5 1
8388.5 0
8389.5 0
8390.5 0
8391.5 0
8392.5 0
8393.5 0
8394.5 0
8395.5 0
8396.5 0
8397.5 -1.42857
8398.5 0
8399.5 0
8400.5 0
8401.5 0
8402.5 2
8403.5 0
8404.5 0
8405.5 0
8406.5 -1.42857
8407.5 0
8408.5 0
8409.5 0
8410.5 1
8411.5 0
8412.5 0
8413.5 0
8414.5 0
8415.5 0
8416.5 0
8417.5 0
8418.5 1
8419.5 0
8420.5 0
8421.5 0
8422.5 0
8423.5 0
8424.5 0
8425.5 0
8426.5 0
8427.5 0
8428.5 0
8429.5 0
8430.5 0
8431.5 -1.42857
8432.5 0
8433.5 -1.42857
8434.5 0
8435.5 0
8436.5 0
8437.5 0
8438.5 0
8439.5 0
8440.5 0
8441.5 0
8442.5 0
8443.5 -1.42857
8444.5 0
8445.5 0
8446.5 1
8447.5 0
8448.5 0
8449.5 0
8450.5 0
8451.5 0
8452.5 0
8453.5 1
8454.5 0
8455.5 0
8456.5 0
8457.5 0
8458.5 1
8459.5 -1.42857
8460.5 0
8461.5 -1.42857
8462.5 0
8463.5 0
8464.5 1
8465.5 0
8466.5 0
8467.5 0
8468.5 0
8469.5 0
8470.5 0
8471.5 0
8472.5 0
8473.5 1
8474.5 -1.42857
8475.5 0
8476.5 1
8477.5 1
8478.5 0
8479.5 -1.42857
8480.5 0
8481.5 -1.85714
8482.5 0
8483.5 2
8484.5 0
8485.5 0
8486.5 1
8487.5 0
8488.5 -1.42857
8489.5 1
8490.5 -1.42857
8491.5 1
8492.5 0
8493.5 -1.42857
8494.5 -1.42857
8495.5 0
8496.5 0
8497.5 -0.428571
8498.5 0
8499.5 0
8500.5 0
8501.5 -1.42857
8502.5 1
8503.5 0
8504.5 0
8505.5 0
8506.5 0
8507.5 0
8508.5 0
8509.5 0
8510.5 0
8511.5 0
8512.5 -2.85714
8513.5 -1.42857
8514.5 0
8515.5 1
8516.5 0
8517.5 0
8518.5 0
8519.5 1
8520.5 0
8521.5 0
8522.5 0
8523.5 0
8524.5 2
8525.5 0
8526.5 0
8527.5 1
8528.5 0
8529.5 0
8530.5 -0.428571
8531.5 -1.42857
8532.5 -1.42857
8533.5 0
8534.5 0
8535.5 -1.42857
8536.5 -1.42857
8537.5 0
8538.5 0
8539.5 0
8540.5 -1.42857
8541.5 0
8542.5 1
8543.5 0
8544.5 -1.42857
8545.5 0
8546.5 0
8547.5 0
8548.5 0
8549.5 0
8550.5 0
8551.5 0
8552.5 0
8553.5 0
8554.5 0
8555.5 0
8556.5 0
8557.5 0
8558.5 0
8559.5 0
8560.5 0
8561.5 1
8562.5 0
8563.5 0
8564.5 0
8565.5 0
8566.5 0
8567.5 0
8568.5 0
8569.5 0
8570.5 0
8571.5 -1.42857
8572.5 0
8573.5 0
8574.5 0
8575.5 0
8576.5 0
8577.5 -1.42857
8578.5 1
8579.5 0
8580.5 0
8581.5 0
8582.5 0
8583.5 0
8584.5 0
8585.5 -1.42857
8586.5 0
8587.5 0
8588.5 1
8589.5 0
8590.5 0
8591.5 0
8592.5 0
8593.5 0
8594.5 0
8595.5 0
8596.5 -1.42857
8597.5 0
8598.5 0
8599.5 0
8600.5 0
8601.5 -1.42857
8602.5 0
8603.5 0
8604.5 -2.85714
8605.5 0
8606.5 0
8607.5 0
8608.5 0
8609.5 0
8610.5 1
8611.5 0
8612.5 0
8613.5 0
8614.5 0
8615.5 0
8616.5 0
8617.5 0
8618.5 0
8619.5 0
8620.5 1
8621.5 0
8622.5 1
8623.5 1
8624.5 0
8625.5 0
8626.5 -1.42857
8627.5 1
8628.5 0
8629.5 1
8630.5 0
8631.5 0
8632.5 0
8633.5 1
8634.5 0
8635.5 0
8636.5 -1.42857
8637.5 0
8638.5 0
8639.5 0
8640.5 0
8641.5 0
8642.5 0
8643.5 0
8644.5 0
8645.5 0
8646.5 0
8647.5 0
8648.5 0
8649.5 0
8650.5 0
8651.5 0
8652.5 0
8653.5 1
8654.5 -1.42857
8655.5 0
8656.5 0
8657.5 0
8658.5 0
8659.5 0
8660.5 0
8661.5 0
8662.5 0
8663.5 0
8664.5 0
8665.5 0
8666.5 0
8667.5 -1.42857
8668.5 0
8669.5 0
8670.5 0
8671.5 0
8672.5 0
8673.5 0
8674.5 0
8675.5 1
8676.5 0
8677.5 0
8678.5 0
8679.5 0
8680.5 -1.42857
8681.5 1
8682.5 0
8683.5 0
8684.5 0
8685.5 1
8686.5 0
8687.5 0
8688.5 1
8689.5 0
8690.5 0
8691.5 0
8692.5 0
8693.5 0
8694.5 0
8695.5 0
8696.5 0
8697.5 1
8698.5 0
8699.5 -1.42857
8700.5 1
8701.5 0
8702.5 0
8703.5 0
8704.5 0
8705.5 0
8706.5 1
8707.5 0
8708.5 0
8709.5 -1.42857
8710.5 0
8711.5 1
8712.5 0
8713.5 -1.42857
8714.5 0
8715.5 0
8716.5 0
8717.5 1
8718.5 -1.42857
8719.5 0
8720.5 0
8721.5 1
8722.5 1
8723.5 0
8724.5 0
8725.5 0
8726.5 1
8727.5 0
8728.5 0
8729.5 -1.42857
8730.5 1
8731.5 0
8732.5 0
8733.5 0
8734.5 0
8735.5 0
8736.5 0
8737.5 0
8738.5 0
8739.5 0
8740.5 0
8741.5 0
8742.5 0
8743.5 0
8744.5 0
8745.5 0
8746.5 1
8747.5 0
8748.5 -1.42857
8749.5 1
8750.5 0
8751.5 0
8752.5 0
8753.5 0
8754.5 0
8755.5 0
8756.5 0
8757.5 -1.42857
8758.5 0
8759.5 0
8760.5 -1.42857
8761.5 0
8762.5 0
8763.5 0
8764.5 0
8765.5 -1.42857
8766.5 1
8767.5 0
8768.5 0
8769.5 -1.42857
8770.5 0
8771.5 0
8772.5 0
8773.5 1
8774.5 0
8775.5 1
8776.5 0
8777.5 0
8778.5 0
8779.5 0
8780.5 0
8781.5 1
8782.5 0
8783.5 0
8784.5 0
8785.5 0
8786.5 0
8787.5 0
8788.5 0
8789.5 0
8790.5 0
8791.5 0
8792.5 0
8793.5 0
8794.5 0
8795.5 0
8796.5 0
8797.5 0
8798.5 0
8799.5 1
8800.5 1
8801.5 0
8802.5 0
8803.5 0
8804.5 0
8805.5 0
8806.5 1
8807.5 1
8808.5 0
8809.5 0
8810.5 -1.42857
8811.5 0
8812.5 -1.42857
8813.5 0
8814.5 0
8815.5 -1.42857
8816.5 0
8817.5 0
8818.5 0
8819.5 0
8820.5 0
8821.5 1
8822.5 0
8823.5 0
8824.5 0
8825.5 0
8826.5 0
8827.5 0
8828.5 0
8829.5 0
8830.5 0
8831.5 -1.42857
8832.5 1
8833.5 -1.42857
8834.5 -1.42857
8835.5 0
8836.5 0
8837.5 0
8838.5 0
8839.5 0
8840.5 0
8841.5 0
8842.5 0
8843.5 0
8844.5 0
8845.5 0
8846.5 1
8847.5 0
8848.5 -1.42857
8849.5 0
8850.5 0
8851.5 0
8852.5 0
8853.5 0
8854.5 0
8855.5 0
8856.5 0
8857.5 0
8858.5 0
8859.5 0
8860.5 0
8861.5 0
8862.5 0
8863.5 0
8864.5 0
8865.5 0
8866.5 0
8867.5 0
8868.5 0
8869.5 0
8870.5 0
8871.5 0
8872.5 0
8873.5 1
8874.5 0
8875.5 0
8876.5 0
8877.5 1
8878.5 0
8879.5 0
8880.5 0
8881.5 0
8882.5 0
8883.5 0
8884.5 0
8885.5 0
8886.5 1
8887.5 0
8888.5 0
8889.5 0
8890.5 0
8891.5 0
8892.5 0
8893.5 0
8894.5 0
8895.5 0
8896.5 0
8897.5 0
8898.5 -1.42857
8899.5 0
8900.5 0
8901.5 -1.42857
8902.5 0
8903.5 1
8904.5 -1.42857
8905.5 0
8906.5 0
8907.5 0
8908.5 -1.42857
8909.5 0
8910.5 0
8911.5 0
8912.5 0
8913.5 0
8914.5 0
8915.5 0
8916.5 0
8917.5 0
8918.5 0
8919.5 0
8920.5 1
8921.5 0
8922.5 0
8923.5 0
8924.5 0
8925.5 0
8926.5 0
8927.5 0
8928.5 1
8929.5 0
8930.5 0
8931.5 0
8932.5 0
8933.5 0
8934.5 0
8935.5 0
8936.5 0
8937.5 0
8938.5 0
8939.5 0
8940.5 0
8941.5 0
8942.5 1
8943.5 1
8944.5 1
8945.5 0
8946.5 0
8947.5 2
8948.5 0
8949.5 0
8950.5 0
8951.5 -1.42857
8952.5 0
8953.5 0
8954.5 0
8955.5 -1.42857
8956.5 0
8957.5 0
8958.5 0
8959.5 0
8960.5 0
8961.5 0
8962.5 0
8963.5 0
8964.5 0
8965.5 0
8966.5 -1.42857
8967.5 0
8968.5 0
8969.5 0
8970.5 0
8971.5 0
8972.5 0
8973.5 0
8974.5 0
8975.5 0
8976.5 0
8977.5 0
8978.5 0
8979.5 0
8980.5 0
8981.5 0
8982.5 0
8983.5 0
8984.5 0
8985.5 -1.42857
8986.5 0
8987.5 1
8988.5 -1.42857
8989.5 -0.428571
8990.5 0
8991.5 0
8992.5 0
8993.5 0
8994.5 0
8995.5 0
8996.5 0
8997.5 0
8998.5 0
8999.5 1
9000.5 0
9001.5 1
9002.5 0
9003.5 0
9004.5 -1.42857
9005.5 0
9006.5 1
9007.5 0
9008.5 0
9009.5 0
9010.5 0
9011.5 0
9012.5 0
9013.5 0
9014.5 0
9015.5 1
9016.5 0
9017.5 0
9018.5 0
9019.5 0
9020.5 0
9021.5 0
9022.5 0
9023.5 0
9024.5 0
9025.5 0
9026.5 0
9027.5 0
9028.5 0
9029.5 0
9030.5 0
9031.5 0
9032.5 1
9033.5 0
9034.5 0
9035.5 0
9036.5 1
9037.5 0
9038.5 0
9039.5 0
9040.5 0
9041.5 1
9042.5 0
9043.5 0
9044.5 0
9045.5 0
9046.5 0
9047.5 0
9048.5 0
9049.5 0
9050.5 0
9051.5 0
9052.5 1
9053.5 0
9054.5 0
9055.5 0
9056.5 0
9057.5 0
9058.5 0
9059.5 0
9060.5 0
9061.5 0
9062.5 -2.85714
9063.5 0
9064.5 0
9065.5 0
9066.5 0
9067.5 0
9068.5 0
9069.5 0
9070.5 0
9071.5 0
9072.5 0
9073.5 1
9074.5 0
9075.5 0
9076.5 -1.42857
9077.5 -1.42857
9078.5 0
9079.5 1
9080.5 0
9081.5 1
9082.5 0
9083.5 0
9084.5 0
9085.5 -1.42857
9086.5 0
9087.5 0
9088.5 0
9089.5 0
9090.5 0
9091.5 0
9092.5 0
9093.5 0
9094.5 -1.42857
9095.5 0
9096.5 -1.42857
9097.5 1
9098.5 0
9099.5 -1.42857
9100.5 0
9101.5 0
9102.5 0
9103.5 0
9104.5 0
9105.5 0
9106.5 0
9107.5 0
9108.5 0
9109.5 0
9110.5 1
9111.5 -1.42857
9112.5 0
9113.5 0
9114.5 0
9115.5 0
9116.5 0
9117.5 0
9118.5 0
9119.5 2
9120.5 1
9121.5 0
9122.5 0
9123.5 -1.42857
9124.5 0
9125.5 -1.42857
9126.5 0
9127.5 0
9128.5 0
9129.5 0
9130.5 1
9131.5 0
9132.5 0
9133.5 1
9134.5 -1.42857
9135.5 0
9136.5 -1.42857
9137.5 0
9138.5 1
9139.5 0
9140.5 1
9141.5 -1.42857
9142.5 0
9143.5 1
9144.5 0
9145.5 -1.42857
9146.5 0
9147.5 0
9148.5 0
9149.5 0
9150.5 0
9151.5 1
9152.5 0
9153.5 0
9154.5 0
9155.5 0
9156.5 -1.42857
9157.5 0
9158.5 2
9159.5 0
9160.5 0
9161.5 0
9162.5 0
9163.5 0
9164.5 0
9165.5 0
9166.5 0
9167.5 1
9168.5 0
9169.5 0
9170.5 0
9171.5 0
9172.5 0
9173.5 0
9174.5 0
9175.5 1
9176.5 0
9177.5 0
9178.5 0
9179.5 0
9180.5 0
9181.5 0
9182.5 0
9183.5 0
9184.5 0
9185.5 0
9186.5 0
9187.5 0
9188.5 0
9189.5 -1.42857
9190.5 0
9191.5 1
9192.5 0
9193.5 0
9194.5 0
9195.5 1
9196.5 1
9197.5 0
9198.5 0
9199.5 1
9200.5 0
9201.5 0
9202.5 0
9203.5 0
9204.5 0
9205.5 0
9206.5 0
9207.5 1
9208.5 0
9209.5 0
9210.5 0
9211.5 0
9212.5 0
9213.5 0
9214.5 0
9215.5 0
9216.5 0
9217.5 1
9218.5 0
9219.5 1
9220.5 0
9221.5 0
9222.5 0
9223.5 0
9224.5 -1.42857
9225.5 0
9226.5 0
9227.5 0
9228.5 0
9229.5 -1.42857
9230.5 0
9231.5 1
9232.5 0
9233.5 0
9234.5 0
9235.5 0
9236.5 0
9237.5 0
9238.5 0
9239.5 0
9240.5 0
9241.5 0
9242.5 1
9243.5 0
9244.5 0
9245.5 0
9246.5 0
9247.5 0
9248.5 0
9249.5 0
9250.5 0
9251.5 0
9252.5 -1.42857
9253.5 0
9254.5 2
9255.5 0
9256.5 0
9257.5 0
9258.5 1
9259.5 0
9260.5 0
9261.5 0
9262.5 0
9263.5 0
9264.5 1
9265.5 0
9266.5 0
9267.5 0
9268.5 0
9269.5 0
9270.5 0
9271.5 -1.42857
9272.5 0
9273.5 0
9274.5 0
9275.5 -1.42857
9276.5 0
9277.5 0
9278.5 0
9279.5 1
9280.5 -0.428571
9281.5 0
9282.5 -0.428571
9283.5 0
9284.5 0
9285.5 1
9286.5 0
9287.5 0
9288.5 0
9289.5 -1.42857
9290.5 0
9291.5 0
9292.5 0
9293.5 0
9294.5 0
9295.5 0
9296.5 0
9297.5 0
9298.5 0
9299.5 0
9300.5 0
9301.5 1
9302.5 1
9303.5 0
9304.5 0
9305.5 0
9306.5 0
9307.5 0
9308.5 0
9309.5 0
9310.5 0
9311.5 0
9312.5 1
9313.5 0
9314.5 0
9315.5 0
9316.5 0
9317.5 0
9318.5 0
9319.5 0
9320.5 0
9321.5 0
9322.5 0
9323.5 0
9324.5 0
9325.5 0
9326.5 0
9327.5 0
9328.5 0
9329.5 0
9330.5 1
9331.5 0
9332.5 0
9333.5 0
9334.5 0
9335.5 0
9336.5 0
9337.5 0
9338.5 0
9339.5 0
9340.5 0
9341.5 0
9342.5 0
9343.5 0
9344.5 0
9345.5 0
9346.5 0
9347.5 0
9348.5 -1.42857
9349.5 0
9350.5 0
9351.5 0
9352.5 0
9353.5 0
9354.5 0
9355.5 0
9356.5 0
9357.5 0
9358.5 0
9359.5 1
9360.5 0
9361.5 0
9362.5 0
9363.5 0
9364.5 0
9365.5 -1.42857
9366.5 0
9367.5 0
9368.5 0
9369.5 0
9370.5 0
9371.5 0
9372.5 0
9373.5 0
9374.5 1
9375.5 1
9376.5 0
9377.5 0
9378.5 0
9379.5 0
9380.5 0
9381.5 0
9382.5 -1.42857
9383.5 0
9384.5 0
9385.5 1
9386.5 0
9387.5 0
9388.5 0
9389.5 -1.42857
9390.5 0
9391.5 0
9392.5 0
9393.5 0
9394.5 1
9395.5 0
9396.5 -2.85714
9397.5 0
9398.5 0
9399.5 1
9400.5 -1.42857
9401.5 0
9402.5 0
9403.5 0
9404.5 0
9405.5 0
9406.5 0
9407.5 0
9408.5 0
9409.5 0
9410.5 0
9411.5 0
9412.5 0
9413.5 0
9414.5 -1.42857
9415.5 0
9416.5 0
9417.5 -1.42857
9418.5 1
9419.5 0
9420.5 0
9421.5 0
9422.5 0
9423.5 0
9424.5 0
9425.5 1
9426.5 0
9427.5 0
9428.5 0
9429.5 0
9430.5 1
9431.5 1
9432.5 0
9433.5 1
9434.5 0
9435.5 0
9436.5 0
9437.5 0
9438.5 0
9439.5 0
9440.5 0
9441.5 0
9442.5 0
9443.5 1
9444.5 0
9445.5 0
9446.5 0
9447.5 0
9448.5 0
9449.5 0
9450.5 0
9451.5 0
9452.5 0
9453.5 0
9454.5 0
9455.5 1
9456.5 0
9457.5 0
9458.5 0
9459.5 0
9460.5 0
9461.5 0
9462.5 0
9463.5 0
9464.5 -1.42857
9465.5 0
9466.5 0
9467.5 0
9468.5 0
9469.5 1
9470.5 0
9471.5 0
9472.5 0
9473.5 0
9474.5 0
9475.5 0
9476.5 0
9477.5 0
9478.5 0
9479.5 0
9480.5 0
9481.5 0
9482.5 -1.42857
9483.5 -2.85714
9484.5 0
9485.5 0
9486.5 0
9487.5 0
9488.5 0
9489.5 0
9490.5 0
9491.5 0
9492.5 0
9493.5 0
9494.5 0
9495.5 0
9496.5 0
9497.5 0
9498.5 0
9499.5 0
9500.5 0
9501.5 -1.42857
9502.5 0
9503.5 1
9504.5 0
9505.5 0
9506.5 1
9507.5 0
9508.5 0
9509.5 0
9510.5 0
9511.5 0
9512.5 1
9513.5 0
9514.5 0
9515.5 0
9516.5 0
9517.5 0
9518.5 0
9519.5 0
9520.5 0
9521.5 0
9522.5 -1.42857
9523.5 0
9524.5 -1.42857
9525.5 0
9526.5 0
9527.5 0
9528.5 0
9529.5 -1.42857
9530.5 -1.42857
9531.5 0
9532.5 -1.42857
9533.5 0
9534.5 0
9535.5 0
9536.5 0
9537.5 0
9538.5 0
9539.5 0
9540.5 0
9541.5 -1.42857
9542.5 0
9543.5 1
9544.5 0
9545.5 0
9546.5 0
9547.5 0
9548.5 0
9549.5 1
9550.5 1
9551.5 0
9552.5 0
9553.5 0
9554.5 0
9555.5 0
9556.5 1
9557.5 0
9558.5 0
9559.5 0
9560.5 0
9561.5 0
9562.5 0
9563.5 0
9564.5 0
9565.5 0
9566.5 1
9567.5 0
9568.5 0
9569.5 0
9570.5 0
9571.5 0
9572.5 -1.42857
9573.5 0
9574.5 0
9575.5 0
9576.5 1
9577.5 0
9578.5 -1.42857
9579.5 0
9580.5 0
9581.5 0
9582.5 0
9583.5 0
9584.5 0
9585.5 0
9586.5 0
9587.5 0
9588.5 0
9589.5 0
9590.5 0
9591.5 0
9592.5 0
9593.5 0
9594.5 0
9595.5 0
9596.5 0
9597.5 0
9598.5 0
9599.5 0
9600.5 0
9601.5 0
9602.5 0
9603.5 0
9604.5 0
9605.5 0
9606.5 -1.42857
9607.5 0
9608.5 0
9609.5 0
9610.5 0
9611.5 -1.42857
9612.5 0
9613.5 0
9614.5 0
9615.5 0
9616.5 0
9617.5 0
9618.5 0
9619.5 0
9620.5 0
9621.5 0
9622.5 0
9623.5 0
9624.5 -1.42857
9625.5 0
9626.5 0
9627.5 1
9628.5 0
9629.5 0
9630.5 0
9631.5 0
9632.5 0
9633.5 -1.42857
9634.5 0
9635.5 0
9636.5 0
9637.5 0
9638.5 0
9639.5 0
9640.5 0
9641.5 0
9642.5 0
9643.5 0
9644.5 0
9645.5 0
9646.5 0
9647.5 0
9648.5 0
9649.5 0
9650.5 2
9651.5 0
9652.5 1
9653.5 0
9654.5 1
9655.5 0
9656.5 0
9657.5 0
9658.5 0
9659.5 0
9660.5 0
9661.5 0
9662.5 -1.42857
9663.5 0
9664.5 0
9665.5 0
9666.5 0
9667.5 0
9668.5 0
9669.5 -0.428571
9670.5 0
9671.5 0
9672.5 -1.42857
9673.5 0
9674.5 0
9675.5 0
9676.5 0
9677.5 0
9678.5 0
9679.5 0
9680.5 0
9681.5 1
9682.5 0
9683.5 0
9684.5 0
9685.5 0
9686.5 0
9687.5 0
9688.5 0
9689.5 0
9690.5 0
9691.5 0
9692.5 -1.42857
9693.5 0
9694.5 0
9695.5 0
9696.5 0
9697.5 0
9698.5 0
9699.5 0
9700.5 0
9701.5 0
9702.5 0
9703.5 0
9704.5 0
9705.5 0
9706.5 0
9707.5 0
9708.5 0
9709.5 0
9710.5 0
9711.5 0
9712.5 0
9713.5 0
9714.5 0
9715.5 0
9716.5 0
9717.5 0
9718.5 0
9719.5 0
9720.5 -1.42857
9721.5 0
9722.5 0
9723.5 0
9724.5 0
9725.5 0
9726.5 0
9727.5 0
9728.5 0
9729.5 0
9730.5 0
9731.5 0
9732.5 0
9733.5 0
9734.5 0
9735.5 0
9736.5 0
9737.5 0
9738.5 -0.428571
9739.5 0
9740.5 0
9741.5 0
9742.5 0
9743.5 0
9744.5 0
9745.5 0
9746.5 0
9747.5 0
9748.5 0
9749.5 0
9750.5 0
9751.5 0
9752.5 0
9753.5 0
9754.5 0
9755.5 0
9756.5 0
9757.5 0
9758.5 0
9759.5 0
9760.5 0
9761.5 0
9762.5 0
9763.5 0
9764.5 0
9765.5 0
9766.5 0
9767.5 0
9768.5 0
9769.5 0
9770.5 0
9771.5 0
9772.5 0
9773.5 0
9774.5 0
9775.5 0
9776.5 0
9777.5 0
9778.5 0
9779.5 0
9780.5 0
9781.5 0
9782.5 0
9783.5 0
9784.5 0
9785.5 0
9786.5 0
9787.5 0
9788.5 0
9789.5 0
9790.5 0
9791.5 0
9792.5 0
9793.5 0
9794.5 0
9795.5 0
9796.5 -1.42857
9797.5 0
9798.5 0
9799.5 0
9800.5 0
9801.5 0
9802.5 0
9803.5 0
9804.5 0
9805.5 0
9806.5 0
9807.5 0
9808.5 0
9809.5 0
9810.5 0
9811.5 0
9812.5 0
9813.5 0
9814.5 0
9815.5 0
9816.5 0
9817.5 0
9818.5 0
9819.5 0
9820.5 0
9821.5 0
9822.5 0
9823.5 0
9824.5 0
9825.5 0
9826.5 0
9827.5 0
9828.5 0
9829.5 0
9830.5 0
9831.5 0
9832.5 0
9833.5 0
9834.5 0
9835.5 0
9836.5 -1.42857
9837.5 -1.42857
9838.5 1
9839.5 0
9840.5 0
9841.5 0
9842.5 0
9843.5 0
9844.5 0
9845.5 0
9846.5 0
9847.5 0
9848.5 0
9849.5 0
9850.5 0
9851.5 0
9852.5 0
9853.5 0
9854.5 0
9855.5 0
9856.5 0
9857.5 0
9858.5 0
9859.5 0
9860.5 0
9861.5 0
9862.5 0
9863.5 0
9864.5 0
9865.5 0
9866.5 0
9867.5 0
9868.5 0
9869.5 0
9870.5 0
9871.5 0
9872.5 0
9873.5 -1.42857
9874.5 0
9875.5 0
9876.5 0
9877.5 0
9878.5 -1.42857
9879.5 0
9880.5 0
9881.5 0
9882.5 0
9883.5 0
9884.5 0
9885.5 0
9886.5 0
9887.5 0
9888.5 0
9889.5 0
9890.5 0
9891.5 0
9892.5 0
9893.5 0
9894.5 0
9895.5 0
9896.5 0
9897.5 0
9898.5 0
9899.5 0
9900.5 0
9901.5 0
9902.5 0
9903.5 0
9904.5 0
9905.5 0
9906.5 0
9907.5 0
9908.5 0
9909.5 0
9910.5 0
9911.5 0
9912.5 0
9913.5 0
9914.5 0
9915.5 0
9916.5 1
9917.5 0
9918.5 0
9919.5 0
9920.5 0
9921.5 0
9922.5 0
9923.5 0
9924.5 0
9925.5 0
9926.5 -1.42857
9927.5 0
9928.5 0
9929.5 0
9930.5 0
9931.5 0
9932.5 0
9933.5 0
9934.5 0
9935.5 0
9936.5 0
9937.5 0
9938.5 0
9939.5 0
9940.5 0
9941.5 0
9942.5 0
9943.5 0
9944.5 0
9945.5 0
9946.5 0
9947.5 0
9948.5 0
9949.5 0
9950.5 0
9951.5 0
9952.5 0
9953.5 0
9954.5 0
9955.5 0
9956.5 -1.42857
9957.5 0
9958.5 0
9959.5 0
9960.5 0
9961.5 0
9962.5 0
9963.5 0
9964.5 1
9965.5 0
9966.5 0
9967.5 0
9968.5 0
9969.5 0
9970.5 0
9971.5 0
9972.5 0
9973.5 0
9974.5 0
9975.5 0
9976.5 0
9977.5 0
9978.5 0
9979.5 0
9980.5 0
9981.5 1
9982.5 0
9983.5 0
9984.5 0
9985.5 0
9986.5 0
9987.5 0
9988.5 0
9989.5 0
9990.5 0
9991.5 0
9992.5 0
9993.5 0
9994.5 0
9995.5 0
9996.5 0
9997.5 0
9998.5 0
9999.5 0
10000.5 0
10001.5 0
10002.5 0
10003.5 0
10004.5 0
10005.5 0
10006.5 0
10007.5 0
10008.5 0
10009.5 0
10010.5 0
10011.5 0
10012.5 0
10013.5 0
10014.5 0
10015.5 0
10016.5 0
10017.5 0
10018.5 -1.42857
10019.5 0
10020.5 0
10021.5 0
10022.5 0
10023.5 0
10024.5 0
10025.5 0
10026.5 0
10027.5 0
10028.5 0
10029.5 0
10030.5 0
10031.5 0
10032.5 0
10033.5 0
10034.5 0
10035.5 0
10036.5 0
10037.5 0
10038.5 0
10039.5 0
10040.5 0
10041.5 0
10042.5 0
10043.5 0
10044.5 0
10045.5 0
10046.5 0
10047.5 0
10048.5 0
10049.5 0
10050.5 0
10051.5 0
10052.5 0
10053.5 0
10054.5 0
10055.5 0
10056.5 0
10057.5 0
10058.5 0
10059.5 0
10060.5 0
10061.5 0
10062.5 0
10063.5 0
10064.5 0
10065.5 0
10066.5 0
10067.5 0
10068.5 0
10069.5 0
10070.5 0
10071.5 0
10072.5 0
10073.5 0
10074.5 0
10075.5 0
10076.5 0
10077.5 0
10078.5 0
10079.5 0
10080.5 0
10081.5 0
10082.5 0
10083.5 0
10084.5 0
10085.5 0
10086.5 0
10087.5 0
10088.5 0
10089.5 0
10090.5 0
10091.5 0
10092.5 0
10093.5 0
10094.5 0
10095.5 0
10096.5 0
10097.5 0
10098.5 0
10099.5 0
10100.5 0
10101.5 0
10102.5 1
10103.5 0
10104.5 0
10105.5 0
10106.5 0
10107.5 0
10108.5 0
10109.5 0
10110.5 0
10111.5 0
10112.5 0
10113.5 0
10114.5 0
10115.5 0
10116.5 0
10117.5 0
10118.5 0
10119.5 0
10120.5 0
10121.5 0
10122.5 0
10123.5 0
10124.5 0
10125.5 0
10126.5 0
10127.5 0
10128.5 0
10129.5 0
10130.5 0
10131.5 0
10132.5 0
10133.5 0
10134.5 0
10135.5 0
10136.5 0
10137.5 0
10138.5 0
10139.5 0
10140.5 0
10141.5 0
10142.5 -1.42857
10143.5 -1.42857
10144.5 0
10145.5 0
10146.5 0
10147.5 0
10148.5 0
10149.5 0
10150.5 0
10151.5 0
10152.5 0
10153.5 0
10154.5 0
10155.5 0
10156.5 0
10157.5 0
10158.5 0
10159.5 0
10160.5 0
10161.5 0
10162.5 0
10163.5 0
10164.5 0
10165.5 0
10166.5 0
10167.5 1
10168.5 0
10169.5 0
10170.5 0
10171.5 0
10172.5 0
10173.5 0
10174.5 0
10175.5 0
10176.5 0
10177.5 0
10178.5 0
10179.5 0
10180.5 0
10181.5 0
10182.5 0
10183.5 0
10184.5 0
10185.5 0
10186.5 0
10187.5 0
10188.5 0
10189.5 0
10190.5 0
10191.5 0
10192.5 0
10193.5 0
10194.5 0
10195.5 0
10196.5 0
10197.5 0
10198.5 0
10199.5 0
10200.5 0
10201.5 0
10202.5 0
10203.5 0
10204.5 0
10205.5 0
10206.5 0
10207.5 0
10208.5 0
10209.5 0
10210.5 0
10211.5 2
10212.5 0
10213.5 0
10214.5 0
10215.5 0
10216.5 0
10217.5 0
10218.5 0
10219.5 0
10220.5 0
10221.5 0
10222.5 0
10223.5 0
10224.5 1
10225.5 0
10226.5 0
10227.5 -1.42857
10228.5 0
10229.5 0
10230.5 0
10231.5 0
10232.5 0
10233.5 0
10234.5 0
10235.5 0
10236.5 0
10237.5 0
10238.5 0
10239.5 0
10240.5 0
10241.5 0
10242.5 0
10243.5 0
10244.5 0
10245.5 0
10246.5 0
10247.5 0
10248.5 0
10249.5 0
10250.5 0
10251.5 0
10252.5 0
10253.5 0
10254.5 0
10255.5 0
10256.5 0
10257.5 0
10258.5 0
10259.5 0
10260.5 -1.42857
10261.5 0
10262.5 0
10263.5 0
10264.5 0
10265.5 0
10266.5 0
10267.5 0
10268.5 0
10269.5 0
10270.5 0
10271.5 0
10272.5 0
10273.5 0
10274.5 0
10275.5 0
10276.5 0
10277.5 0
10278.5 0
10279.5 0
10280.5 0
10281.5 0
10282.5 0
10283.5 0
10284.5 0
10285.5 0
10286.5 0
10287.5 0
10288.5 0
10289.5 0
10290.5 0
10291.5 0
10292.5 0
10293.5 0
10294.5 0
10295.5 0
10296.5 0
10297.5 0
10298.5 0
10299.5 0
10300.5 0
10301.5 0
10302.5 0
10303.5 0
10304.5 0
10305.5 0
10306.5 0
10307.5 0
10308.5 0
10309.5 0
10310.5 0
10311.5 0
10312.5 0
10313.5 0
10314.5 0
10315.5 0
10316.5 0
10317.5 0
10318.5 0
10319.5 0
10320.5 0
10321.5 0
10322.5 0
10323.5 0
10324.5 0
10325.5 0
10326.5 0
10327.5 0
10328.5 0
10329.5 0
10330.5 0
10331.5 0
10332.5 0
10333.5 0
10334.5 0
10335.5 0
10336.5 0
10337.5 1
10338.5 0
10339.5 0
10340.5 0
10341.5 0
10342.5 0
10343.5 0
10344.5 0
10345.5 0
10346.5 0
10347.5 0
10348.5 0
10349.5 0
10350.5 0
10351.5 0
10352.5 0
10353.5 0
10354.5 0
10355.5 0
10356.5 0
10357.5 0
10358.5 0
10359.5 0
10360.5 0
10361.5 0
10362.5 0
10363.5 0
10364.5 0
10365.5 0
10366.5 0
10367.5 0
10368.5 0
10369.5 0
10370.5 0
10371.5 0
10372.5 0
10373.5 0
10374.5 0
10375.5 0
10376.5 0
10377.5 0
10378.5 0
10379.5 0
10380.5 0
10381.5 0
10382.5 0
10383.5 -1.42857
10384.5 0
10385.5 0
10386.5 0
10387.5 0
10388.5 0
10389.5 0
10390.5 0
10391.5 0
10392.5 0
10393.5 0
10394.5 0
10395.5 0
10396.5 0
10397.5 0
10398.5 0
10399.5 0
10400.5 0
10401.5 0
10402.5 0
10403.5 0
10404.5 -1.42857
10405.5 0
10406.5 0
10407.5 0
10408.5 0
10409.5 0
10410.5 0
10411.5 0
10412.5 0
10413.5 0
10414.5 0
10415.5 0
10416.5 0
10417.5 0
10418.5 0
10419.5 0
10420.5 0
10421.5 0
10422.5 -1.42857
10423.5 0
10424.5 0
10425.5 0
10426.5 0
10427.5 0
10428.5 0
10429.5 0
10430.5 0
10431.5 0
10432.5 0
10433.5 0
10434.5 0
10435.5 0
10436.5 0
10437.5 0
10438.5 0
10439.5 0
10440.5 0
10441.5 0
10442.5 0
10443.5 0
10444.5 0
10445.5 0
10446.5 0
10447.5 0
10448.5 0
10449.5 0
10450.5 0
10451.5 0
10452.5 0
10453.5 0
10454.5 1
10455.5 0
10456.5 0
10457.5 0
10458.5 0
10459.5 0
10460.5 0
10461.5 0
10462.5 0
10463.5 0
10464.5 0
10465.5 0
10466.5 -1.42857
10467.5 0
10468.5 0
10469.5 0
10470.5 0
10471.5 0
10472.5 0
10473.5 0
10474.5 0
10475.5 0
10476.5 0
10477.5 0
10478.5 0
10479.5 0
10480.5 0
10481.5 0
10482.5 0
10483.5 0
10484.5 0
10485.5 0
10486.5 0
10487.5 0
10488.5 0
10489.5 0
10490.5 0
10491.5 0
10492.5 0
10493.5 0
10494.5 0
10495.5 0
10496.5 0
10497.5 0
10498.5 0
10499.5 0
10500.5 0
10501.5 1
10502.5 0
10503.5 0
10504.5 0
10505.5 0
10506.5 0
10507.5 0
10508.5 0
10509.5 0
10510.5 0
10511.5 0
10512.5 0
10513.5 0
10514.5 0
10515.5 0
10516.5 0
10517.5 0
10518.5 0
10519.5 0
10520.5 0
10521.5 0
10522.5 0
10523.5 0
10524.5 0
10525.5 0
10526.5 0
10527.5 0
10528.5 0
10529.5 0
10530.5 0
10531.5 0
10532.5 0
10533.5 0
10534.5 0
10535.5 0
10536.5 0
10537.5 0
10538.5 0
10539.5 0
10540.5 0
10541.5 0
10542.5 0
10543.5 0
10544.5 0
10545.5 0
10546.5 0
10547.5 0
10548.5 0
10549.5 0
10550.5 0
10551.5 0
10552.5 0
10553.5 0
10554.5 0
10555.5 0
10556.5 0
10557.5 0
10558.5 0
10559.5 0
10560.5 0
10561.5 0
10562.5 0
10563.5 0
10564.5 0
10565.5 0
10566.5 0
10567.5 0
10568.5 0
10569.5 0
10570.5 0
10571.5 0
10572.5 0
10573.5 0
10574.5 0
10575.5 0
10576.5 0
10577.5 0
10578.5 0
10579.5 0
10580.5 0
10581.5 0
10582.5 0
10583.5 0
10584.5 0
10585.5 0
10586.5 0
10587.5 0
10588.5 0
10589.5 0
10590.5 0
10591.5 0
10592.5 0
10593.5 0
10594.5 0
10595.5 0
10596.5 0
10597.5 0
10598.5 0
10599.5 0
10600.5 0
10601.5 0
10602.5 0
10603.5 0
10604.5 0
10605.5 0
10606.5 0
10607.5 0
10608.5 0
10609.5 0
10610.5 0
10611.5 0
10612.5 0
10613.5 0
10614.5 0
10615.5 0
10616.5 0
10617.5 0
10618.5 0
10619.5 0
10620.5 0
10621.5 0
10622.5 0
10623.5 0
10624.5 0
10625.5 0
10626.5 0
10627.5 0
10628.5 0
10629.5 0
10630.5 0
10631.5 0
10632.5 0
10633.5 0
10634.5 0
10635.5 0
10636.5 0
10637.5 0
10638.5 0
10639.5 0
10640.5 0
10641.5 0
10642.5 0
10643.5 0
10644.5 0
10645.5 0
10646.5 0
10647.5 0
10648.5 0
10649.5 0
10650.5 0
10651.5 0
10652.5 0
10653.5 0
10654.5 0
10655.5 0
10656.5 0
10657.5 0
10658.5 0
10659.5 0
10660.5 0
10661.5 0
10662.5 0
10663.5 0
10664.5 0
10665.5 0
10666.5 0
10667.5 0
10668.5 0
10669.5 0
10670.5 0
10671.5 0
10672.5 0
10673.5 0
10674.5 0
10675.5 0
10676.5 0
10677.5 0
10678.5 0
10679.5 0
10680.5 0
10681.5 0
10682.5 0
10683.5 0
10684.5 0
10685.5 0
10686.5 0
10687.5 0
10688.5 0
10689.5 0
10690.5 0
10691.5 0
10692.5 0
10693.5 0
10694.5 0
10695.5 0
10696.5 0
10697.5 0
10698.5 0
10699.5 0
10700.5 0
10701.5 0
10702.5 0
10703.5 0
10704.5 0
10705.5 0
10706.5 0
10707.5 0
10708.5 0
10709.5 0
10710.5 0
10711.5 0
10712.5 0
10713.5 0
10714.5 0
10715.5 0
10716.5 0
10717.5 0
10718.5 0
10719.5 0
10720.5 0
10721.5 0
10722.5 0
10723.5 0
10724.5 0
10725.5 0
10726.5 0
10727.5 0
10728.5 0
10729.5 0
10730.5 0
10731.5 0
10732.5 0
10733.5 0
10734.5 0
10735.5 0
10736.5 0
10737.5 0
10738.5 0
10739.5 0
10740.5 0
10741.5 0
10742.5 0
10743.5 0
10744.5 0
10745.5 0
10746.5 0
10747.5 0
10748.5 0
10749.5 0
10750.5 0
10751.5 0
10752.5 0
10753.5 0
10754.5 0
10755.5 0
10756.5 0
10757.5 0
10758.5 0
10759.5 0
10760.5 0
10761.5 0
10762.5 0
10763.5 0
10764.5 0
10765.5 0
10766.5 0
10767.5 0
10768.5 0
10769.5 0
10770.5 0
10771.5 0
10772.5 0
10773.5 0
10774.5 0
10775.5 0
10776.5 0
10777.5 0
10778.5 0
10779.5 0
10780.5 0
10781.5 0
10782.5 0
10783.5 0
10784.5 0
10785.5 0
10786.5 0
10787.5 0
10788.5 0
10789.5 0
10790.5 0
10791.5 0
10792.5 0
10793.5 0
10794.5 0
10795.5 0
10796.5 0
10797.5 0
10798.5 0
10799.5 0
10800.5 0
10801.5 0
10802.5 0
10803.5 0
10804.5 0
10805.5 0
10806.5 0
10807.5 0
10808.5 0
10809.5 0
10810.5 0
10811.5 0
10812.5 0
10813.5 0
10814.5 0
10815.5 0
10816.5 0
10817.5 0
10818.5 0
10819.5 0
10820.5 0
10821.5 0
10822.5 0
10823.5 0
10824.5 0
10825.5 0
10826.5 0
10827.5 0
10828.5 0
10829.5 0
10830.5 0
10831.5 0
10832.5 0
10833.5 0
10834.5 0
10835.5 0
10836.5 0
10837.5 0
10838.5 0
10839.5 0
10840.5 0
10841.5 0
10842.5 0
10843.5 0
10844.5 0
10845.5 0
10846.5 0
10847.5 0
10848.5 0
10849.5 0
10850.5 0
10851.5 0
10852.5 0
10853.5 0
10854.5 0
10855.5 0
10856.5 0
10857.5 0
10858.5 0
10859.5 0
10860.5 0
10861.5 0
10862.5 0
10863.5 0
10864.5 0
10865.5 0
10866.5 0
10867.5 0
10868.5 0
10869.5 0
10870.5 0
10871.5 0
10872.5 0
10873.5 0
10874.5 0
10875.5 0
10876.5 0
10877.5 0
10878.5 0
10879.5 0
10880.5 0
10881.5 0
10882.5 0
10883.5 0
10884.5 0
10885.5 0
10886.5 0
10887.5 0
10888.5 0
10889.5 0
10890.5 0
10891.5 0
10892.5 0
10893.5 0
10894.5 0
10895.5 0
10896.5 0
10897.5 0
10898.5 0
10899.5 0
10900.5 0
10901.5 0
10902.5 0
10903.5 0
10904.5 -1.42857
10905.5 0
10906.5 0
10907.5 0
10908.5 0
10909.5 0
10910.5 0
10911.5 0
10912.5 0
10913.5 0
10914.5 0
10915.5 0
10916.5 0
10917.5 0
10918.5 0
10919.5 0
10920.5 0
10921.5 0
10922.5 0
10923.5 0
10924.5 0
10925.5 0
10926.5 0
10927.5 0
10928.5 0
10929.5 0
10930.5 0
10931.5 0
10932.5 0
10933.5 0
10934.5 0
10935.5 0
10936.5 0
10937.5 0
10938.5 0
10939.5 0
10940.5 0
10941.5 0
10942.5 0
10943.5 0
10944.5 0
10945.5 0
10946.5 0
10947.5 0
10948.5 0
10949.5 0
10950.5 0
10951.5 0
10952.5 0
10953.5 0
10954.5 0
10955.5 0
10956.5 0
10957.5 0
10958.5 0
10959.5 0
10960.5 0
10961.5 0
10962.5 0
10963.5 0
10964.5 0
10965.5 0
10966.5 0
10967.5 0
10968.5 0
10969.5 0
10970.5 0
10971.5 0
10972.5 0
10973.5 0
10974.5 0
10975.5 0
10976.5 0
10977.5 0
10978.5 0
10979.5 0
10980.5 0
10981.5 0
10982.5 0
10983.5 0
10984.5 0
10985.5 0
10986.5 0
10987.5 0
10988.5 0
10989.5 0
10990.5 0
10991.5 0
10992.5 0
10993.5 0
10994.5 0
10995.5 0
10996.5 0
10997.5 0
10998.5 0
10999.5 0
11000.5 0
11001.5 0
11002.5 0
11003.5 0
11004.5 0
11005.5 0
11006.5 0
11007.5 0
11008.5 0
11009.5 0
11010.5 0
11011.5 0
11012.5 0
11013.5 0
11014.5 0
11015.5 0
11016.5 0
11017.5 0
11018.5 0
11019.5 0
11020.5 0
11021.5 0
11022.5 0
11023.5 0
11024.5 0
11025.5 0
11026.5 0
11027.5 0
11028.5 0
11029.5 0
11030.5 0
11031.5 0
11032.5 0
11033.5 0
11034.5 0
11035.5 0
11036.5 0
11037.5 0
11038.5 0
11039.5 0
11040.5 0
11041.5 0
11042.5 0
11043.5 0
11044.5 0
11045.5 0
11046.5 0
11047.5 0
11048.5 0
11049.5 0
11050.5 0
11051.5 0
11052.5 0
11053.5 0
11054.5 0
11055.5 0
11056.5 0
11057.5 0
11058.5 0
11059.5 0
11060.5 0
11061.5 0
11062.5 0
11063.5 0
11064.5 0
11065.5 0
11066.5 0
11067.5 0
11068.5 0
11069.5 0
11070.5 0
11071.5 0
11072.5 0
11073.5 0
11074.5 0
11075.5 0
11076.5 0
11077.5 0
11078.5 0
11079.5 0
11080.5 0
11081.5 0
11082.5 0
11083.5 0
11084.5 0
11085.5 0
11086.5 0
11087.5 0
11088.5 0
11089.5 0
11090.5 0
11091.5 0
11092.5 0
11093.5 0
11094.5 0
11095.5 0
11096.5 0
11097.5 0
11098.5 0
11099.5 0
11100.5 0
11101.5 0
11102.5 0
11103.5 0
11104.5 0
11105.5 0
11106.5 0
11107.5 0
11108.5 0
11109.5 0
11110.5 0
11111.5 0
11112.5 0
11113.5 0
11114.5 0
11115.5 0
11116.5 0
11117.5 0
11118.5 0
11119.5 0
11120.5 0
11121.5 0
11122.5 0
11123.5 0
11124.5 0
11125.5 0
11126.5 0
11127.5 0
11128.5 0
11129.5 0
11130.5 0
11131.5 0
11132.5 0
11133.5 0
11134.5 0
11135.5 0
11136.5 0
11137.5 0
11138.5 0
11139.5 0
11140.5 0
11141.5 0
11142.5 0
11143.5 0
11144.5 0
11145.5 0
11146.5 0
11147.5 0
11148.5 0
11149.5 0
11150.5 0
11151.5 0
11152.5 0
11153.5 0
11154.5 0
11155.5 0
11156.5 0
11157.5 0
11158.5 0
11159.5 0
11160.5 0
11161.5 0
11162.5 0
11163.5 0
11164.5 0
11165.5 0
11166.5 0
11167.5 0
11168.5 0
11169.5 0
11170.5 0
11171.5 0
11172.5 0
11173.5 0
11174.5 0
11175.5 0
11176.5 0
11177.5 0
11178.5 0
11179.5 0
11180.5 0
11181.5 0
11182.5 0
11183.5 0
11184.5 0
11185.5 0
11186.5 1
11187.5 0
11188.5 0
11189.5 0
11190.5 0
11191.5 0
11192.5 0
11193.5 0
11194.5 0
11195.5 0
11196.5 0
11197.5 0
11198.5 0
11199.5 0
11200.5 0
11201.5 0
11202.5 0
11203.5 0
11204.5 0
11205.5 0
11206.5 0
11207.5 0
11208.5 0
11209.5 0
11210.5 0
11211.5 0
11212.5 0
11213.5 0
11214.5 0
11215.5 0
11216.5 0
11217.5 0
11218.5 0
11219.5 0
11220.5 0
11221.5 0
11222.5 0
11223.5 0
11224.5 0
11225.5 0
11226.5 0
11227.5 0
11228.5 0
11229.5 0
11230.5 0
11231.5 0
11232.5 0
11233.5 0
11234.5 0
11235.5 0
11236.5 0
11237.5 0
11238.5 0
11239.5 0
11240.5 0
11241.5 0
11242.5 0
11243.5 0
11244.5 0
11245.5 0
11246.5 0
11247.5 0
11248.5 0
11249.5 0
11250.5 0
11251.5 0
11252.5 0
11253.5 0
11254.5 0
11255.5 0
11256.5 0
11257.5 0
11258.5 0
11259.5 0
11260.5 0
11261.5 0
11262.5 0
11263.5 0
11264.5 0
11265.5 0
11266.5 0
11267.5 0
11268.5 0
11269.5 0
11270.5 0
11271.5 0
11272.5 0
11273.5 0
11274.5 0
11275.5 0
11276.5 0
11277.5 0
11278.5 0
11279.5 0
11280.5 0
11281.5 0
11282.5 0
11283.5 0
11284.5 0
11285.5 0
11286.5 0
11287.5 0
11288.5 0
11289.5 0
11290.5 0
11291.5 0
11292.5 0
11293.5 0
11294.5 0
11295.5 0
11296.5 0
11297.5 0
11298.5 0
11299.5 0
11300.5 0
11301.5 0
11302.5 0
11303.5 0
11304.5 0
11305.5 0
11306.5 0
11307.5 0
11308.5 0
11309.5 0
11310.5 0
11311.5 0
11312.5 0
11313.5 0
11314.5 0
11315.5 0
11316.5 0
11317.5 0
11318.5 0
11319.5 0
11320.5 0
11321.5 0
11322.5 0
11323.5 0
11324.5 0
11325.5 0
11326.5 0
11327.5 0
11328.5 0
11329.5 0
11330.5 0
11331.5 0
11332.5 0
11333.5 0
11334.5 0
11335.5 0
11336.5 0
11337.5 0
11338.5 0
11339.5 0
11340.5 0
11341.5 0
11342.5 0
11343.5 0
11344.5 0
11345.5 0
11346.5 0
11347.5 0
11348.5 0
11349.5 0
11350.5 0
11351.5 0
11352.5 0
11353.5 0
11354.5 0
11355.5 0
11356.5 0
11357.5 0
11358.5 0
11359.5 0
11360.5 0
11361.5 0
11362.5 0
11363.5 0
11364.5 0
11365.5 0
11366.5 0
11367.5 0
11368.5 0
11369.5 0
11370.5 0
11371.5 0
11372.5 0
11373.5 0
11374.5 0
11375.5 0
11376.5 0
11377.5 0
11378.5 0
11379.5 0
11380.5 0
11381.5 0
11382.5 0
11383.5 0
11384.5 0
11385.5 0
11386.5 0
11387.5 0
11388.5 0
11389.5 0
11390.5 0
11391.5 0
11392.5 0
11393.5 0
11394.5 0
11395.5 0
11396.5 0
11397.5 0
11398.5 0
11399.5 0
11400.5 0
11401.5 0
11402.5 0
11403.5 0
11404.5 0
11405.5 0
11406.5 0
11407.5 0
11408.5 0
11409.5 0
11410.5 0
11411.5 0
11412.5 0
11413.5 0
11414.5 0
11415.5 0
11416.5 0
11417.5 0
11418.5 0
11419.5 0
11420.5 0
11421.5 0
11422.5 0
11423.5 0
11424.5 0
11425.5 0
11426.5 0
11427.5 0
11428.5 0
11429.5 0
11430.5 0
11431.5 0
11432.5 0
11433.5 0
11434.5 0
11435.5 0
11436.5 0
11437.5 0
11438.5 0
11439.5 0
11440.5 0
11441.5 0
11442.5 0
11443.5 0
11444.5 0
11445.5 0
11446.5 0
11447.5 0
11448.5 0
11449.5 0
11450.5 0
11451.5 0
11452.5 0
11453.5 0
11454.5 0
11455.5 0
11456.5 0
11457.5 0
11458.5 0
11459.5 0
11460.5 0
11461.5 0
11462.5 0
11463.5 0
11464.5 0
11465.5 0
11466.5 0
11467.5 0
11468.5 0
11469.5 0
11470.5 0
11471.5 0
11472.5 0
11473.5 0
11474.5 0
11475.5 0
11476.5 0
11477.5 0
11478.5 0
11479.5 0
11480.5 0
11481.5 0
11482.5 0
11483.5 0
11484.5 0
11485.5 0
11486.5 0
11487.5 0
11488.5 0
11489.5 0
11490.5 0
11491.5 0
11492.5 0
11493.5 0
11494.5 0
11495.5 0
11496.5 0
11497.5 0
11498.5 0
11499.5 0
11500.5 0
11501.5 0
11502.5 0
11503.5 0
11504.5 0
11505.5 0
11506.5 0
11507.5 0
11508.5 0
11509.5 0
11510.5 0
11511.5 0
11512.5 0
11513.5 0
11514.5 0
11515.5 0
11516.5 0
11517.5 0
11518.5 0
11519.5 0
11520.5 0
11521.5 0
11522.5 0
11523.5 0
11524.5 0
11525.5 0
11526.5 0
11527.5 0
11528.5 0
11529.5 0
11530.5 0
11531.5 0
11532.5 0
11533.5 0
11534.5 0
11535.5 0
11536.5 0
11537.5 0
11538.5 0
11539.5 0
11540.5 0
11541.5 0
11542.5 0
11543.5 0
11544.5 0
11545.5 0
11546.5 0
11547.5 0
11548.5 0
11549.5 0
11550.5 0
11551.5 0
11552.5 0
11553.5 0
11554.5 0
11555.5 0
11556.5 0
11557.5 0
11558.5 0
11559.5 0
11560.5 0
11561.5 0
11562.5 0
11563.5 0
11564.5 0
11565.5 0
11566.5 0
11567.5 0
11568.5 0
11569.5 0
11570.5 0
11571.5 0
11572.5 0
11573.5 0
11574.5 0
11575.5 0
11576.5 0
11577.5 0
11578.5 0
11579.5 0
11580.5 0
11581.5 0
11582.5 0
11583.5 0
11584.5 0
11585.5 0
11586.5 0
11587.5 0
11588.5 0
11589.5 0
11590.5 0
11591.5 0
11592.5 0
11593.5 0
11594.5 0
11595.5 0
11596.5 0
11597.5 0
11598.5 -1.42857
11599.5 0
11600.5 0
11601.5 0
11602.5 0
11603.5 0
11604.5 0
11605.5 0
11606.5 0
11607.5 0
11608.5 0
11609.5 0
11610.5 0
11611.5 0
11612.5 0
11613.5 0
11614.5 0
11615.5 0
11616.5 0
11617.5 0
11618.5 0
11619.5 0
11620.5 0
11621.5 0
11622.5 0
11623.5 0
11624.5 0
11625.5 0
11626.5 0
11627.5 0
11628.5 0
11629.5 0
11630.5 0
11631.5 0
11632.5 0
11633.5 0
11634.5 0
11635.5 0
11636.5 0
11637.5 0
11638.5 0
11639.5 0
11640.5 0
11641.5 0
11642.5 0
11643.5 0
11644.5 0
11645.5 0
11646.5 0
11647.5 0
11648.5 0
11649.5 0
11650.5 0
11651.5 0
11652.5 0
11653.5 0
11654.5 0
11655.5 0
11656.5 0
11657.5 0
11658.5 0
11659.5 0
11660.5 0
11661.5 0
11662.5 0
11663.5 0
11664.5 0
11665.5 0
11666.5 0
11667.5 0
11668.5 0
11669.5 0
11670.5 0
11671.5 0
11672.5 0
11673.5 0
11674.5 0
11675.5 0
11676.5 0
11677.5 0
11678.5 0
11679.5 0
11680.5 0
11681.5 -1.42857
11682.5 0
11683.5 0
11684.5 0
11685.5 0
11686.5 0
11687.5 0
11688.5 0
11689.5 0
11690.5 0
11691.5 0
11692.5 0
11693.5 0
11694.5 0
11695.5 0
11696.5 0
11697.5 0
11698.5 0
11699.5 0
11700.5 0
11701.5 0
11702.5 0
11703.5 0
11704.5 0
11705.5 0
11706.5 0
11707.5 0
11708.5 0
11709.5 0
11710.5 0
11711.5 0
11712.5 0
11713.5 0
11714.5 0
11715.5 0
11716.5 0
11717.5 0
11718.5 0
11719.5 0
11720.5 0
11721.5 0
11722.5 0
11723.5 0
11724.5 0
11725.5 0
11726.5 0
11727.5 0
11728.5 0
11729.5 0
11730.5 0
11731.5 0
11732.5 0
11733.5 0
11734.5 0
11735.5 0
11736.5 0
11737.5 0
11738.5 0
11739.5 0
11740.5 0
11741.5 0
11742.5 0
11743.5 0
11744.5 0
11745.5 0
11746.5 0
11747.5 0
11748.5 0
11749.5 0
11750.5 0
11751.5 0
11752.5 0
11753.5 0
11754.5 0
11755.5 0
11756.5 0
11757.5 0
11758.5 0
11759.5 0
11760.5 0
11761.5 0
11762.5 0
11763.5 0
11764.5 0
11765.5 0
11766.5 0
11767.5 0
11768.5 0
11769.5 0
11770.5 0
11771.5 0
11772.5 0
11773.5 0
11774.5 0
11775.5 0
11776.5 0
11777.5 0
11778.5 0
11779.5 0
11780.5 0
11781.5 0
11782.5 0
11783.5 0
11784.5 0
11785.5 0
11786.5 0
11787.5 0
11788.5 0
11789.5 0
11790.5 0
11791.5 0
11792.5 0
11793.5 0
11794.5 0
11795.5 0
11796.5 0
11797.5 0
11798.5 0
11799.5 0
11800.5 0
11801.5 0
11802.5 0
11803.5 0
11804.5 0
11805.5 0
11806.5 0
11807.5 0
11808.5 0
11809.5 0
11810.5 0
11811.5 0
11812.5 0
11813.5 0
11814.5 0
11815.5 0
11816.5 0
11817.5 0
11818.5 0
11819.5 0
11820.5 0
11821.5 0
11822.5 0
11823.5 0
11824.5 0
11825.5 0
11826.5 0
11827.5 0
11828.5 0
11829.5 0
11830.5 0
11831.5 0
11832.5 0
11833.5 0
11834.5 0
11835.5 0
11836.5 0
11837.5 0
11838.5 0
11839.5 0
11840.5 0
11841.5 0
11842.5 0
11843.5 0
11844.5 0
11845.5 0
11846.5 0
11847.5 0
11848.5 0
11849.5 0
11850.5 0
11851.5 0
11852.5 0
11853.5 0
11854.5 0
11855.5 0
11856.5 0
11857.5 0
11858.5 0
11859.5 0
11860.5 0
11861.5 0
11862.5 0
11863.5 0
11864.5 0
11865.5 0
11866.5 0
11867.5 0
11868.5 0
11869.5 0
11870.5 0
11871.5 0
11872.5 0
11873.5 0
11874.5 0
11875.5 0
11876.5 0
11877.5 0
11878.5 0
11879.5 0
11880.5 0
11881.5 0
11882.5 0
11883.5 0
11884.5 0
11885.5 0
11886.5 0
11887.5 0
11888.5 0
11889.5 0
11890.5 0
11891.5 0
11892.5 1
11893.5 0
11894.5 0
11895.5 0
11896.5 0
11897.5 0
11898.5 0
11899.5 0
11900.5 0
11901.5 0
11902.5 0
11903.5 0
11904.5 0
11905.5 0
11906.5 0
11907.5 0
11908.5 0
11909.5 0
11910.5 0
11911.5 0
11912.5 0
11913.5 0
11914.5 0
11915.5 0
11916.5 0
11917.5 0
11918.5 0
11919.5 0
11920.5 0
11921.5 0
11922.5 0
11923.5 0
11924.5 0
11925.5 0
11926.5 0
11927.5 0
11928.5 0
11929.5 0
11930.5 0
11931.5 0
11932.5 0
11933.5 0
11934.5 0
11935.5 0
11936.5 0
11937.5 0
11938.5 0
11939.5 0
11940.5 0
11941.5 0
11942.5 0
11943.5 0
11944.5 0
11945.5 0
11946.5 0
11947.5 0
11948.5 0
11949.5 0
11950.5 0
11951.5 0
11952.5 0
11953.5 0
11954.5 1
11955.5 0
11956.5 0
11957.5 0
11958.5 0
11959.5 0
11960.5 0
11961.5 0
11962.5 0
11963.5 0
11964.5 0
11965.5 0
11966.5 0
11967.5 0
11968.5 0
11969.5 0
11970.5 0
11971.5 0
11972.5 0
11973.5 0
11974.5 0
11975.5 0
11976.5 0
11977.5 0
11978.5 0
11979.5 0
11980.5 0
11981.5 0
11982.5 0
11983.5 0
11984.5 0
11985.5 0
11986.5 0
11987.5 0
11988.5 0
11989.5 0
11990.5 0
11991.5 0
11992.5 0
11993.5 0
11994.5 0
11995.5 0
11996.5 0
11997.5 0
11998.5 0
11999.5 0
