# EGG_ProjY_E4625.0(4.0)_B4610.5(2.5)_B4630.0(1.0)
# X axis : Energy (keV) [Y axis]
# Y axis : Counts/1 keV
# N Bins : 12000
# X Min : 0
# X Max : 12000
# X value at the center of the bins
0.5 0
1.5 0
2.5 0
3.5 0
4.5 0
5.5 17.1428
6.5 24
7.5 10
8.5 14
9.5 10.4286
10.5 18.8571
11.5 27.7143
12.5 6.71428
13.5 9.42856
14.5 20
15.5 32.4286
16.5 68.1428
17.5 28.5714
18.5 95.4286
19.5 59.1428
20.5 95.5714
21.5 114
22.5 82.8571
23.5 158
24.5 222.429
25.5 197.286
26.5 121.143
27.5 234.857
28.5 212.571
29.5 243
30.5 266
31.5 237.143
32.5 358.714
33.5 296.429
34.5 359.857
35.5 233.571
36.5 325.429
37.5 397.571
38.5 303.143
39.5 312.143
40.5 430.571
41.5 395.143
42.5 324
43.5 368.143
44.5 371.714
45.5 427.286
46.5 435.286
47.5 556.286
48.5 456.571
49.5 473
50.5 416.429
51.5 482.714
52.5 520.286
53.5 431.571
54.5 445.714
55.5 420.857
56.5 519.857
57.5 601.857
58.5 582.857
59.5 728.571
60.5 519.286
61.5 472.571
62.5 463
63.5 427.857
64.5 555.286
65.5 522.714
66.5 588.286
67.5 599.714
68.5 493.143
69.5 499.714
70.5 543
71.5 359
72.5 534.857
73.5 541.571
74.5 783.571
75.5 849.571
76.5 1074.86
77.5 1020.43
78.5 723.286
79.5 491.571
80.5 568.286
81.5 413.429
82.5 519.857
83.5 450
84.5 484.143
85.5 531.714
86.5 664.857
87.5 673.286
88.5 583.428
89.5 490.143
90.5 569
91.5 412.714
92.5 491.143
93.5 466.429
94.5 492
95.5 529.143
96.5 452.286
97.5 440.571
98.5 481.429
99.5 374.143
100.5 400.714
101.5 462.429
102.5 554
103.5 495.571
104.5 488.571
105.5 576.428
106.5 624.571
107.5 458.714
108.5 488.714
109.5 505.857
110.5 596.428
111.5 406.428
112.5 514.857
113.5 471.714
114.5 442.143
115.5 521.857
116.5 450.857
117.5 518.428
118.5 530.571
119.5 634
120.5 478.428
121.5 655.286
122.5 674.857
123.5 697.428
124.5 629.857
125.5 753.857
126.5 616.286
127.5 728.857
128.5 648.286
129.5 630.428
130.5 713.714
131.5 569.286
132.5 569
133.5 501.286
134.5 604.286
135.5 476.428
136.5 429.428
137.5 633.857
138.5 609.428
139.5 632.428
140.5 513.571
141.5 638
142.5 585.143
143.5 682.286
144.5 691
145.5 608.571
146.5 587.286
147.5 622.286
148.5 656.143
149.5 754.286
150.5 529.286
151.5 623.143
152.5 791.857
153.5 570
154.5 622.286
155.5 564.286
156.5 549.143
157.5 492
158.5 527.286
159.5 643
160.5 607.714
161.5 682.571
162.5 693.286
163.5 483.286
164.5 719.143
165.5 641.428
166.5 633.143
167.5 616.857
168.5 761.857
169.5 677
170.5 695.571
171.5 656.714
172.5 789.571
173.5 638.714
174.5 664.714
175.5 631.428
176.5 696.571
177.5 568.286
178.5 712.428
179.5 792.571
180.5 698
181.5 682.286
182.5 567.714
183.5 615.428
184.5 659.428
185.5 776
186.5 758.857
187.5 628.714
188.5 749.857
189.5 675
190.5 691.286
191.5 775.714
192.5 739
193.5 721.571
194.5 501.714
195.5 697.857
196.5 568.428
197.5 584.714
198.5 669.428
199.5 623.571
200.5 607.143
201.5 709.714
202.5 533.714
203.5 607.714
204.5 566.428
205.5 596.857
206.5 702.286
207.5 830
208.5 636.143
209.5 854.571
210.5 705.286
211.5 972.857
212.5 905.714
213.5 1001.86
214.5 1151.43
215.5 1188.57
216.5 1186.14
217.5 1310.57
218.5 1139.29
219.5 1126
220.5 1028.86
221.5 929.286
222.5 904
223.5 822.857
224.5 766.571
225.5 645.571
226.5 721.714
227.5 602.571
228.5 503.571
229.5 608.286
230.5 351.428
231.5 587.571
232.5 466.571
233.5 385.857
234.5 490.857
235.5 511.143
236.5 569.428
237.5 595
238.5 663.143
239.5 657.571
240.5 820.286
241.5 740.286
242.5 714.428
243.5 859.571
244.5 660.286
245.5 698
246.5 723.428
247.5 697
248.5 806.428
249.5 799.428
250.5 761
251.5 748
252.5 731.428
253.5 664.143
254.5 675.286
255.5 846
256.5 819.286
257.5 906.143
258.5 1027.29
259.5 934.428
260.5 1036.71
261.5 1054
262.5 919.571
263.5 810.428
264.5 800.571
265.5 675.571
266.5 715
267.5 723
268.5 523.857
269.5 505.286
270.5 457.714
271.5 303.857
272.5 246.571
273.5 246.857
274.5 373.143
275.5 421.428
276.5 413.571
277.5 357.714
278.5 649.428
279.5 594.286
280.5 657.143
281.5 635.571
282.5 596
283.5 732.857
284.5 616
285.5 477.143
286.5 561.571
287.5 447.571
288.5 657.857
289.5 493.571
290.5 580.428
291.5 634.571
292.5 624.857
293.5 604.857
294.5 695.143
295.5 782.571
296.5 732.571
297.5 583
298.5 574.429
299.5 659.143
300.5 666.286
301.5 527.429
302.5 516.429
303.5 511.857
304.5 511
305.5 486
306.5 393.714
307.5 427.857
308.5 400.857
309.5 518.571
310.5 526.429
311.5 536.286
312.5 596.143
313.5 578.429
314.5 504.143
315.5 598.429
316.5 711.286
317.5 761.429
318.5 756.857
319.5 701.143
320.5 741.571
321.5 716.571
322.5 688.714
323.5 578.571
324.5 623.857
325.5 672.429
326.5 557.286
327.5 569.286
328.5 439.143
329.5 444.429
330.5 464.857
331.5 470.857
332.5 338.571
333.5 412.286
334.5 246.428
335.5 520.714
336.5 398.714
337.5 405.857
338.5 440
339.5 498.714
340.5 577.571
341.5 483.429
342.5 414.143
343.5 515.571
344.5 455.714
345.5 547.571
346.5 487.143
347.5 469.714
348.5 542.714
349.5 398.429
350.5 502.571
351.5 511.143
352.5 567.143
353.5 545.143
354.5 523.714
355.5 681.143
356.5 637.286
357.5 587.714
358.5 556
359.5 599.571
360.5 641.857
361.5 570.429
362.5 491.143
363.5 430.714
364.5 444.143
365.5 522.143
366.5 431.714
367.5 501.429
368.5 481
369.5 348.143
370.5 280.857
371.5 295.714
372.5 310.429
373.5 338.143
374.5 409.429
375.5 460.286
376.5 548
377.5 415.429
378.5 527.429
379.5 640
380.5 568.571
381.5 565
382.5 514.286
383.5 545.571
384.5 531.571
385.5 423.429
386.5 408.714
387.5 426.714
388.5 413.286
389.5 361.143
390.5 348.571
391.5 296.571
392.5 279
393.5 270.429
394.5 360.571
395.5 344.714
396.5 405.143
397.5 342.571
398.5 487.286
399.5 480
400.5 404.429
401.5 393.143
402.5 480.429
403.5 1061.57
404.5 1050.14
405.5 586.571
406.5 471.143
407.5 458.857
408.5 529.429
409.5 429.286
410.5 427.286
411.5 366.429
412.5 474.143
413.5 368.143
414.5 439.571
415.5 306.571
416.5 496.714
417.5 387.571
418.5 360.714
419.5 438.571
420.5 318.143
421.5 306.857
422.5 279.143
423.5 376.286
424.5 314
425.5 377.143
426.5 368.714
427.5 366
428.5 322.286
429.5 348.571
430.5 305.429
431.5 366.571
432.5 294
433.5 350.714
434.5 388.429
435.5 371.143
436.5 434
437.5 315.714
438.5 437
439.5 368
440.5 456.571
441.5 382.714
442.5 419.714
443.5 432
444.5 412.571
445.5 356
446.5 422.429
447.5 416.571
448.5 421
449.5 461.714
450.5 337.571
451.5 451
452.5 420.429
453.5 363.857
454.5 398.429
455.5 379.571
456.5 423.571
457.5 324
458.5 306.857
459.5 322.857
460.5 347.714
461.5 386.143
462.5 395.857
463.5 398.571
464.5 395.714
465.5 376.571
466.5 359.143
467.5 310.714
468.5 381.857
469.5 408.286
470.5 356.143
471.5 421.714
472.5 422.714
473.5 465.714
474.5 411
475.5 435.857
476.5 376
477.5 391.286
478.5 375.143
479.5 405.429
480.5 397.714
481.5 334
482.5 448.286
483.5 457.857
484.5 350.571
485.5 430
486.5 315.857
487.5 335
488.5 263
489.5 334.857
490.5 297.429
491.5 379
492.5 322
493.5 369.857
494.5 386.714
495.5 403
496.5 335.714
497.5 453.143
498.5 390.571
499.5 415.286
500.5 346.571
501.5 346.286
502.5 259.429
503.5 331.714
504.5 371.714
505.5 593.714
506.5 763
507.5 1294.29
508.5 1773.71
509.5 2845.14
510.5 3791.43
511.5 3472.29
512.5 2116.71
513.5 954.286
514.5 583.286
515.5 450.857
516.5 278.571
517.5 306.714
518.5 311.857
519.5 262
520.5 267.286
521.5 238.429
522.5 247
523.5 259.571
524.5 267
525.5 253.286
526.5 261.143
527.5 301.143
528.5 363.571
529.5 292
530.5 254.429
531.5 330.857
532.5 305.714
533.5 404.571
534.5 325.571
535.5 298.714
536.5 303.286
537.5 374
538.5 334.429
539.5 339.286
540.5 321.143
541.5 319.714
542.5 353.857
543.5 302.714
544.5 362.286
545.5 266
546.5 274.857
547.5 316.143
548.5 312.286
549.5 302
550.5 251
551.5 381
552.5 257.286
553.5 202.286
554.5 303
555.5 189.571
556.5 277.429
557.5 231.857
558.5 325.143
559.5 317.429
560.5 305.429
561.5 348.429
562.5 265.286
563.5 271.143
564.5 304.429
565.5 398.571
566.5 264.714
567.5 324.714
568.5 334.857
569.5 338.286
570.5 325.429
571.5 322.571
572.5 288.714
573.5 258.286
574.5 324.571
575.5 264.857
576.5 264.857
577.5 249.571
578.5 261
579.5 296.286
580.5 261.143
581.5 299.429
582.5 383.571
583.5 255.571
584.5 240
585.5 257.857
586.5 256.857
587.5 287
588.5 212.571
589.5 301
590.5 304.714
591.5 230.714
592.5 282.571
593.5 198.143
594.5 272
595.5 251.714
596.5 328.857
597.5 317
598.5 341.143
599.5 378
600.5 306.714
601.5 318.714
602.5 338.286
603.5 259.857
604.5 288.571
605.5 268.714
606.5 320.286
607.5 305.429
608.5 272.857
609.5 311.857
610.5 256.714
611.5 284.143
612.5 311.857
613.5 289.143
614.5 280.286
615.5 244.571
616.5 297.143
617.5 236.857
618.5 296.286
619.5 267.143
620.5 304.286
621.5 310.286
622.5 287
623.5 303.429
624.5 311.286
625.5 254.571
626.5 217.143
627.5 286.714
628.5 420.429
629.5 382.429
630.5 317.143
631.5 190.143
632.5 262.857
633.5 246.571
634.5 292
635.5 365.429
636.5 324.714
637.5 479.143
638.5 478.857
639.5 352.857
640.5 363.286
641.5 340.143
642.5 235
643.5 215.429
644.5 273.143
645.5 325.857
646.5 374.857
647.5 306
648.5 318.429
649.5 315.143
650.5 527.571
651.5 424.143
652.5 395.571
653.5 270
654.5 342.857
655.5 254.429
656.5 303.857
657.5 286.286
658.5 302
659.5 323
660.5 264.143
661.5 300.571
662.5 338
663.5 425.429
664.5 655
665.5 704.286
666.5 451.286
667.5 363.714
668.5 271.571
669.5 316.143
670.5 300.857
671.5 267.857
672.5 318
673.5 258.714
674.5 251.429
675.5 339.714
676.5 300.286
677.5 241.857
678.5 281.286
679.5 312
680.5 244.571
681.5 311
682.5 320
683.5 271.143
684.5 277.143
685.5 264.714
686.5 256.857
687.5 310.857
688.5 260
689.5 251.286
690.5 245.571
691.5 235.714
692.5 306.571
693.5 282.571
694.5 246
695.5 257.286
696.5 256.714
697.5 290.571
698.5 250.429
699.5 280.857
700.5 287.429
701.5 277.714
702.5 268.857
703.5 276.143
704.5 285.714
705.5 244.286
706.5 294.143
707.5 229.286
708.5 216.571
709.5 282.429
710.5 322.429
711.5 291.714
712.5 254.143
713.5 266.429
714.5 213.143
715.5 298.429
716.5 379.857
717.5 293.286
718.5 297
719.5 305
720.5 279
721.5 199.286
722.5 289
723.5 275.286
724.5 336.571
725.5 276.714
726.5 354.857
727.5 360
728.5 424.714
729.5 554.429
730.5 395.429
731.5 384.857
732.5 304.857
733.5 361.857
734.5 288.286
735.5 239.143
736.5 261.571
737.5 270
738.5 300.857
739.5 206.286
740.5 247.143
741.5 221.571
742.5 256
743.5 202.143
744.5 241.429
745.5 181.286
746.5 287.286
747.5 280.429
748.5 333.286
749.5 258.286
750.5 339.714
751.5 253.143
752.5 312
753.5 276
754.5 221
755.5 314
756.5 238.857
757.5 254
758.5 347.857
759.5 507.714
760.5 902
761.5 1125.14
762.5 755.143
763.5 365.571
764.5 330.429
765.5 289.857
766.5 307.857
767.5 330.429
768.5 327
769.5 448.714
770.5 334.714
771.5 413.286
772.5 368.429
773.5 419.714
774.5 377.857
775.5 342.429
776.5 279.571
777.5 284.857
778.5 263.429
779.5 274.143
780.5 245
781.5 277
782.5 182.857
783.5 165.286
784.5 227.429
785.5 216.143
786.5 172.143
787.5 215.714
788.5 253.571
789.5 284.714
790.5 222.571
791.5 282.143
792.5 258.429
793.5 270.286
794.5 310.429
795.5 270.857
796.5 263.429
797.5 316.429
798.5 269
799.5 399.571
800.5 267.143
801.5 293.857
802.5 327.429
803.5 383
804.5 288
805.5 249
806.5 287.286
807.5 373.286
808.5 324.429
809.5 227.857
810.5 344.143
811.5 226.286
812.5 333.143
813.5 247.429
814.5 218.571
815.5 266.857
816.5 285.571
817.5 338
818.5 309.571
819.5 351.857
820.5 285.143
821.5 272.571
822.5 255
823.5 315.857
824.5 295.571
825.5 269.571
826.5 339
827.5 336.857
828.5 320.571
829.5 351.714
830.5 231.571
831.5 362.857
832.5 291
833.5 300.714
834.5 379.143
835.5 287.286
836.5 255.429
837.5 310.857
838.5 357.571
839.5 290.429
840.5 351.286
841.5 325.571
842.5 349.286
843.5 316
844.5 338.714
845.5 319.286
846.5 372.571
847.5 349
848.5 348.714
849.5 363.714
850.5 325.286
851.5 347.714
852.5 387.286
853.5 310.571
854.5 326
855.5 317.286
856.5 392.429
857.5 376.143
858.5 364.143
859.5 306.286
860.5 317.857
861.5 391.571
862.5 289.429
863.5 356.429
864.5 348
865.5 311.571
866.5 308.571
867.5 381.286
868.5 437.714
869.5 531.429
870.5 411.857
871.5 331.571
872.5 321.714
873.5 380.857
874.5 456.571
875.5 327
876.5 491.857
877.5 445.429
878.5 408.286
879.5 423.143
880.5 350.857
881.5 417.429
882.5 390.571
883.5 408.571
884.5 361.429
885.5 409.286
886.5 395.714
887.5 419.429
888.5 409.857
889.5 326.429
890.5 410.714
891.5 458.714
892.5 413.857
893.5 391
894.5 395.143
895.5 387.286
896.5 345.714
897.5 415.571
898.5 403.857
899.5 394
900.5 452.286
901.5 408.286
902.5 355.714
903.5 418.429
904.5 429.571
905.5 460
906.5 365.714
907.5 420.429
908.5 412.571
909.5 341.714
910.5 425
911.5 438.571
912.5 523.143
913.5 493.571
914.5 504
915.5 446.429
916.5 412.286
917.5 420.143
918.5 420.429
919.5 383.714
920.5 361.429
921.5 423.286
922.5 447.286
923.5 387.143
924.5 381.571
925.5 383.714
926.5 346.429
927.5 385.571
928.5 443.857
929.5 457.286
930.5 407
931.5 398
932.5 440.429
933.5 507.857
934.5 414.143
935.5 449
936.5 468.429
937.5 486
938.5 434.571
939.5 420.571
940.5 499.857
941.5 396.429
942.5 359.857
943.5 454.857
944.5 438.571
945.5 383.714
946.5 405.286
947.5 399
948.5 330.857
949.5 394.286
950.5 280.429
951.5 330.857
952.5 401.143
953.5 335.286
954.5 311.714
955.5 463.714
956.5 448.429
957.5 361.143
958.5 350.857
959.5 302.571
960.5 326.714
961.5 293.714
962.5 326.286
963.5 375.143
964.5 364.286
965.5 473.143
966.5 509.571
967.5 526.857
968.5 259.429
969.5 292.714
970.5 327.143
971.5 256.714
972.5 261.857
973.5 284.429
974.5 261.571
975.5 237.714
976.5 247.714
977.5 291.857
978.5 218.571
979.5 230.714
980.5 254
981.5 217.857
982.5 225.714
983.5 227.857
984.5 269.286
985.5 221.429
986.5 224.286
987.5 240.857
988.5 220
989.5 270.714
990.5 274.429
991.5 223.143
992.5 264
993.5 244.143
994.5 231.286
995.5 263
996.5 249.286
997.5 209.143
998.5 283.714
999.5 322.286
1000.5 426.714
1001.5 570.428
1002.5 565.714
1003.5 397.143
1004.5 304.286
1005.5 303.143
1006.5 230
1007.5 240.429
1008.5 228.143
1009.5 218.714
1010.5 241.714
1011.5 207.429
1012.5 213.143
1013.5 193.286
1014.5 277
1015.5 290.857
1016.5 308.714
1017.5 243.571
1018.5 183.429
1019.5 220.571
1020.5 273.857
1021.5 218.143
1022.5 285.143
1023.5 248.857
1024.5 453.857
1025.5 388.571
1026.5 314.714
1027.5 204.143
1028.5 208.286
1029.5 177.143
1030.5 190.571
1031.5 199.714
1032.5 215.429
1033.5 167.571
1034.5 193.571
1035.5 132.714
1036.5 193.286
1037.5 177.286
1038.5 204.429
1039.5 191.286
1040.5 200.714
1041.5 163.429
1042.5 174.714
1043.5 162.429
1044.5 186
1045.5 175.429
1046.5 202
1047.5 170.429
1048.5 175.571
1049.5 206.714
1050.5 244.429
1051.5 222.857
1052.5 190
1053.5 182
1054.5 199.429
1055.5 196.857
1056.5 122.714
1057.5 165.857
1058.5 201.286
1059.5 157.571
1060.5 164.286
1061.5 92.1428
1062.5 215.286
1063.5 312.429
1064.5 317.143
1065.5 167.714
1066.5 158.714
1067.5 186.857
1068.5 140.571
1069.5 193.857
1070.5 197.857
1071.5 384.857
1072.5 889.429
1073.5 2237.86
1074.5 2582.71
1075.5 1362.29
1076.5 425.429
1077.5 131.429
1078.5 143.143
1079.5 175.571
1080.5 109.714
1081.5 119.857
1082.5 162.857
1083.5 162.714
1084.5 144.857
1085.5 107.429
1086.5 145.286
1087.5 124.286
1088.5 162.857
1089.5 146.286
1090.5 148
1091.5 150.714
1092.5 130.571
1093.5 171.857
1094.5 143.143
1095.5 162.143
1096.5 151.571
1097.5 198
1098.5 94.4286
1099.5 134
1100.5 126.143
1101.5 148.143
1102.5 95.7143
1103.5 154
1104.5 107.571
1105.5 88.4286
1106.5 92
1107.5 84.4286
1108.5 130.143
1109.5 129.286
1110.5 112
1111.5 159.571
1112.5 134
1113.5 85.1428
1114.5 153
1115.5 169
1116.5 129.714
1117.5 133.143
1118.5 139.429
1119.5 155.286
1120.5 135
1121.5 209.143
1122.5 315.571
1123.5 800.286
1124.5 3145.29
1125.5 7534.29
1126.5 8278
1127.5 3865.86
1128.5 949.286
1129.5 255.143
1130.5 143
1131.5 144.286
1132.5 138.143
1133.5 115.571
1134.5 117.143
1135.5 84
1136.5 114
1137.5 86.5714
1138.5 71.1428
1139.5 122.714
1140.5 106.429
1141.5 91.4286
1142.5 107.286
1143.5 135.429
1144.5 75
1145.5 75
1146.5 104
1147.5 119.714
1148.5 124.857
1149.5 119.857
1150.5 119.429
1151.5 115
1152.5 237.857
1153.5 761.286
1154.5 3024.71
1155.5 10315.4
1156.5 22115.3
1157.5 22691.7
1158.5 9548.14
1159.5 1976.86
1160.5 398.571
1161.5 78.1428
1162.5 133.286
1163.5 60.2857
1164.5 59.7143
1165.5 42.1428
1166.5 76.4286
1167.5 93.8571
1168.5 56.4286
1169.5 71.4286
1170.5 54
1171.5 39.2857
1172.5 37
1173.5 63.5714
1174.5 38.5714
1175.5 51.1429
1176.5 105.429
1177.5 35
1178.5 12
1179.5 86.8571
1180.5 65.2857
1181.5 110.571
1182.5 114.714
1183.5 134.571
1184.5 51.5714
1185.5 77
1186.5 49.5714
1187.5 28
1188.5 36.4286
1189.5 38.2857
1190.5 56.7143
1191.5 58.2857
1192.5 72.4286
1193.5 57.7143
1194.5 41.8571
1195.5 70.4286
1196.5 98
1197.5 14.2857
1198.5 52.5714
1199.5 55.5714
1200.5 50.5714
1201.5 63
1202.5 59.8571
1203.5 101.857
1204.5 96.4286
1205.5 57.8571
1206.5 85.8571
1207.5 54.2857
1208.5 61.1429
1209.5 101.714
1210.5 80.5714
1211.5 24.4286
1212.5 93.8571
1213.5 66.8571
1214.5 49.4286
1215.5 26.7143
1216.5 54.2857
1217.5 57.8571
1218.5 52.4286
1219.5 71.2857
1220.5 56.5714
1221.5 72.2857
1222.5 67.5714
1223.5 85.5714
1224.5 48
1225.5 6.28571
1226.5 25
1227.5 59
1228.5 45
1229.5 45.1428
1230.5 43.8571
1231.5 50.8571
1232.5 74.4286
1233.5 45.1429
1234.5 34.1429
1235.5 9.71428
1236.5 53.8571
1237.5 57.2857
1238.5 9.14285
1239.5 67.7143
1240.5 54.1429
1241.5 90.1429
1242.5 21.5714
1243.5 13.4286
1244.5 29.8571
1245.5 46.2857
1246.5 40.7143
1247.5 59.4286
1248.5 47.2857
1249.5 67.5714
1250.5 23.8571
1251.5 42
1252.5 48.8571
1253.5 59.8571
1254.5 63.7143
1255.5 8.85714
1256.5 25.1429
1257.5 68.5714
1258.5 26
1259.5 -1.57144
1260.5 49.8571
1261.5 48
1262.5 33.7143
1263.5 22.1428
1264.5 34.7143
1265.5 49
1266.5 28.5714
1267.5 74
1268.5 24.7143
1269.5 42.4286
1270.5 62.2857
1271.5 30.1428
1272.5 88.7143
1273.5 176.143
1274.5 281.143
1275.5 249
1276.5 181.857
1277.5 72.4286
1278.5 63.1428
1279.5 31.4286
1280.5 16.8571
1281.5 66.8571
1282.5 40.4286
1283.5 51.4286
1284.5 48.1429
1285.5 15.7143
1286.5 12
1287.5 -3.42858
1288.5 15.2857
1289.5 -13.8572
1290.5 27
1291.5 2.14285
1292.5 61.8571
1293.5 50.4286
1294.5 22.7143
1295.5 34.8571
1296.5 46
1297.5 41.7143
1298.5 32.2857
1299.5 53
1300.5 20.7143
1301.5 43.5714
1302.5 12.1429
1303.5 58.1429
1304.5 44.7143
1305.5 46.2857
1306.5 27.8571
1307.5 206.857
1308.5 256.857
1309.5 351
1310.5 155.143
1311.5 66.2857
1312.5 27.8571
1313.5 63.5714
1314.5 57.7143
1315.5 78.4286
1316.5 44.4286
1317.5 35.4286
1318.5 37.4286
1319.5 59.1429
1320.5 30.7143
1321.5 51
1322.5 35.5714
1323.5 55.8571
1324.5 58.8571
1325.5 37.2857
1326.5 27.1429
1327.5 65.7143
1328.5 51.1429
1329.5 42.2857
1330.5 37
1331.5 45
1332.5 45.8571
1333.5 55.1429
1334.5 53.7143
1335.5 20.2857
1336.5 36.7143
1337.5 18.1429
1338.5 46.8571
1339.5 82.4286
1340.5 33.5714
1341.5 55
1342.5 14.4286
1343.5 65.2857
1344.5 14.8571
1345.5 -4.71429
1346.5 30.7143
1347.5 48.8571
1348.5 15.4286
1349.5 26.4286
1350.5 41.1429
1351.5 52.2857
1352.5 46.7143
1353.5 56.1429
1354.5 52.8571
1355.5 28
1356.5 54.4286
1357.5 14.2857
1358.5 58.8571
1359.5 60.1429
1360.5 45.7143
1361.5 39.4286
1362.5 23.4286
1363.5 37.5714
1364.5 35.2857
1365.5 62.5714
1366.5 59.7143
1367.5 72.8571
1368.5 29
1369.5 74.5714
1370.5 86.4286
1371.5 25.7143
1372.5 55.4286
1373.5 76.1429
1374.5 112.143
1375.5 98.4286
1376.5 76.8571
1377.5 104.571
1378.5 146.143
1379.5 91.7143
1380.5 61.5714
1381.5 65.2857
1382.5 31.8571
1383.5 10.1429
1384.5 18.1429
1385.5 29.8571
1386.5 21.8571
1387.5 54.7143
1388.5 45.5714
1389.5 42.2857
1390.5 56.7143
1391.5 42.8571
1392.5 44.7143
1393.5 45
1394.5 52.8571
1395.5 30.5714
1396.5 41.5714
1397.5 58.8571
1398.5 7.99999
1399.5 62.7143
1400.5 43.5714
1401.5 29.7143
1402.5 68.7143
1403.5 19
1404.5 73.1429
1405.5 29.4286
1406.5 80.1429
1407.5 110.714
1408.5 192.429
1409.5 142.571
1410.5 58.8571
1411.5 76.8571
1412.5 101.571
1413.5 101.286
1414.5 108
1415.5 47.8571
1416.5 64.7143
1417.5 22.5714
1418.5 31.2857
1419.5 -10
1420.5 23.4286
1421.5 60.1429
1422.5 62
1423.5 51
1424.5 20.1429
1425.5 70.2857
1426.5 77.4286
1427.5 114.286
1428.5 255
1429.5 248.571
1430.5 161.429
1431.5 106.143
1432.5 41.2857
1433.5 58.1429
1434.5 18.7143
1435.5 11.1429
1436.5 57.4286
1437.5 47
1438.5 57.1429
1439.5 28.4286
1440.5 85.5714
1441.5 36.4286
1442.5 24.7143
1443.5 46.8571
1444.5 37.2857
1445.5 43.1429
1446.5 51.7143
1447.5 24.1429
1448.5 77.7143
1449.5 23.5714
1450.5 51
1451.5 30.1429
1452.5 37
1453.5 27.7143
1454.5 54.2857
1455.5 50.5714
1456.5 27.5714
1457.5 49.8571
1458.5 73.4286
1459.5 17.4286
1460.5 62.5714
1461.5 72.8571
1462.5 39.5714
1463.5 52.8571
1464.5 59.4286
1465.5 40.2857
1466.5 58
1467.5 68
1468.5 32.1429
1469.5 38.7143
1470.5 52.5714
1471.5 55.1429
1472.5 27.4286
1473.5 40.7143
1474.5 53.4286
1475.5 57.5714
1476.5 53.8571
1477.5 68.8571
1478.5 52.5714
1479.5 39.1429
1480.5 43.2857
1481.5 38.2857
1482.5 55.1429
1483.5 26
1484.5 36.7143
1485.5 47.8571
1486.5 71.5714
1487.5 43
1488.5 54.7143
1489.5 24.7143
1490.5 46.8571
1491.5 32.2857
1492.5 38.8571
1493.5 49
1494.5 45.2857
1495.5 61.7143
1496.5 87.1428
1497.5 116.429
1498.5 301.714
1499.5 461.143
1500.5 240.857
1501.5 78.1428
1502.5 51.4286
1503.5 42.7143
1504.5 43.1429
1505.5 25.1429
1506.5 40.7143
1507.5 17.7143
1508.5 30.2857
1509.5 49.1429
1510.5 79.5714
1511.5 39.5714
1512.5 29.2857
1513.5 23
1514.5 41.4286
1515.5 15.7143
1516.5 45.7143
1517.5 12.4286
1518.5 22.7143
1519.5 40.4286
1520.5 67.2857
1521.5 81.5714
1522.5 88.8571
1523.5 89.1429
1524.5 57.7143
1525.5 49.2857
1526.5 58.4286
1527.5 79.4286
1528.5 67
1529.5 29.7143
1530.5 30.5714
1531.5 30.7143
1532.5 26.7143
1533.5 -11.7143
1534.5 43.2857
1535.5 32.4286
1536.5 35.7143
1537.5 22.4286
1538.5 41
1539.5 19.1428
1540.5 67
1541.5 44.4286
1542.5 44
1543.5 42.2857
1544.5 23.7143
1545.5 -4.28572
1546.5 50.4286
1547.5 27.2857
1548.5 35.7143
1549.5 7.42857
1550.5 50.2857
1551.5 27.8571
1552.5 46.5714
1553.5 40.7143
1554.5 37.4286
1555.5 50.4286
1556.5 47.2857
1557.5 35.2857
1558.5 22.5714
1559.5 24.8571
1560.5 54
1561.5 25.4286
1562.5 65.5714
1563.5 23.1429
1564.5 44.4286
1565.5 22.5714
1566.5 74.1429
1567.5 44.8571
1568.5 24.5714
1569.5 37.7143
1570.5 45.2857
1571.5 56.5714
1572.5 48.8571
1573.5 30.1429
1574.5 32.4286
1575.5 33
1576.5 36.4286
1577.5 67.7143
1578.5 50.4286
1579.5 75.8571
1580.5 11.4286
1581.5 19.4286
1582.5 21.5714
1583.5 43.2857
1584.5 23
1585.5 71.1429
1586.5 70
1587.5 26.1429
1588.5 42.8571
1589.5 42
1590.5 39.5714
1591.5 76.4286
1592.5 18.1429
1593.5 47.1429
1594.5 31.5714
1595.5 31.4286
1596.5 25.7143
1597.5 59.2857
1598.5 66.2857
1599.5 56.2857
1600.5 71.1429
1601.5 73.8571
1602.5 93.8571
1603.5 66.7143
1604.5 69.4286
1605.5 56.5714
1606.5 35.8571
1607.5 94.2857
1608.5 66.4286
1609.5 37
1610.5 35.8571
1611.5 61.8571
1612.5 20.4286
1613.5 54.7143
1614.5 41
1615.5 35.1429
1616.5 46.4286
1617.5 23.1429
1618.5 49
1619.5 26.4286
1620.5 27.8571
1621.5 65.8571
1622.5 52.2857
1623.5 48
1624.5 69.5714
1625.5 38.5714
1626.5 51.8571
1627.5 39.7143
1628.5 1.57142
1629.5 36
1630.5 68.8571
1631.5 99.4286
1632.5 55.1429
1633.5 75.5714
1634.5 95
1635.5 57.8571
1636.5 99.2857
1637.5 75.7143
1638.5 51.4286
1639.5 80
1640.5 35.5714
1641.5 53.5714
1642.5 13.4286
1643.5 63.1429
1644.5 64
1645.5 50.1429
1646.5 109.286
1647.5 80
1648.5 68.1428
1649.5 62.2857
1650.5 48.5714
1651.5 53.4286
1652.5 60.8571
1653.5 50.1429
1654.5 72.7143
1655.5 59.8571
1656.5 0.714278
1657.5 32.2857
1658.5 75.2857
1659.5 63.8571
1660.5 22
1661.5 51.2857
1662.5 54.4286
1663.5 14.8571
1664.5 25.5714
1665.5 36.8571
1666.5 47.7143
1667.5 44.1429
1668.5 24.2857
1669.5 29.1429
1670.5 45.2857
1671.5 46.5714
1672.5 55.8571
1673.5 53.7143
1674.5 30.1429
1675.5 41.2857
1676.5 52.1429
1677.5 46.1429
1678.5 42.4286
1679.5 74.2857
1680.5 69.4286
1681.5 32.7143
1682.5 37.5714
1683.5 17.2857
1684.5 72.2857
1685.5 28.4286
1686.5 53.8571
1687.5 33
1688.5 46.1429
1689.5 28.2857
1690.5 52
1691.5 42.7143
1692.5 40.1429
1693.5 42.8571
1694.5 60.8571
1695.5 48.7143
1696.5 48
1697.5 53.4286
1698.5 44.4286
1699.5 62.2857
1700.5 40.5714
1701.5 74.4286
1702.5 74.1429
1703.5 100.429
1704.5 33.4286
1705.5 31.8571
1706.5 33.4286
1707.5 47.5714
1708.5 40.7143
1709.5 60.7143
1710.5 43.8571
1711.5 39.7143
1712.5 48.1429
1713.5 13.7143
1714.5 21.5714
1715.5 5.85714
1716.5 60.1429
1717.5 42.7143
1718.5 45
1719.5 25.2857
1720.5 22.4286
1721.5 41.8571
1722.5 22.4286
1723.5 12.4286
1724.5 70
1725.5 44
1726.5 69.5714
1727.5 93.4286
1728.5 50.2857
1729.5 55.4286
1730.5 54.5714
1731.5 53.1429
1732.5 40.8571
1733.5 50
1734.5 39.7143
1735.5 55.1429
1736.5 19.7143
1737.5 30
1738.5 28.4286
1739.5 34.1429
1740.5 45.5714
1741.5 61.4286
1742.5 74
1743.5 62.1429
1744.5 38.2857
1745.5 21.2857
1746.5 61.8571
1747.5 20.1429
1748.5 24.5714
1749.5 23.7143
1750.5 22.4286
1751.5 60.8571
1752.5 22.5714
1753.5 37.4286
1754.5 27.2857
1755.5 28.1429
1756.5 52.1429
1757.5 57.5714
1758.5 23.2857
1759.5 39.5714
1760.5 35.5714
1761.5 28.7143
1762.5 70.5714
1763.5 71.8571
1764.5 55.4286
1765.5 34.8571
1766.5 44.5714
1767.5 56.5714
1768.5 41
1769.5 50.5714
1770.5 45.2857
1771.5 51.8571
1772.5 33.7143
1773.5 46.8571
1774.5 4.71428
1775.5 24.8571
1776.5 48.8571
1777.5 54.1429
1778.5 64.1429
1779.5 56
1780.5 34.1429
1781.5 33.7143
1782.5 52.2857
1783.5 64.8571
1784.5 53.5714
1785.5 31.5714
1786.5 47.8571
1787.5 71.5714
1788.5 78
1789.5 65.1429
1790.5 38.1429
1791.5 40.8571
1792.5 40.1429
1793.5 59.4286
1794.5 71.7143
1795.5 72.7143
1796.5 11
1797.5 40.5714
1798.5 46.2857
1799.5 41.8571
1800.5 65.2857
1801.5 31.2857
1802.5 22.4286
1803.5 61.8571
1804.5 61
1805.5 43.2857
1806.5 37.8571
1807.5 46.2857
1808.5 61.5714
1809.5 48.7143
1810.5 43.1428
1811.5 58.1429
1812.5 26.1429
1813.5 59.2857
1814.5 16.7143
1815.5 50.7143
1816.5 65.5714
1817.5 31.7143
1818.5 55.7143
1819.5 35.2857
1820.5 25.7143
1821.5 72.1429
1822.5 90.1429
1823.5 81.5714
1824.5 88.1429
1825.5 35.5714
1826.5 48.2857
1827.5 32.5714
1828.5 10.7143
1829.5 25.8571
1830.5 47.5714
1831.5 22.1429
1832.5 24
1833.5 37
1834.5 27.4286
1835.5 47.2857
1836.5 49
1837.5 37.2857
1838.5 19.5714
1839.5 25.4286
1840.5 48.2857
1841.5 34.1429
1842.5 58.4286
1843.5 40.8571
1844.5 42
1845.5 27.1429
1846.5 49
1847.5 25.4286
1848.5 36.8571
1849.5 63.8571
1850.5 53.4286
1851.5 51.8571
1852.5 44.8571
1853.5 50.8571
1854.5 12.4286
1855.5 48.5714
1856.5 47.1429
1857.5 42.7143
1858.5 43.5714
1859.5 49.2857
1860.5 14.4286
1861.5 38.1429
1862.5 41.4286
1863.5 12.8571
1864.5 13.2857
1865.5 33.4286
1866.5 36.1429
1867.5 16
1868.5 18.2857
1869.5 45.2857
1870.5 41.5714
1871.5 137.571
1872.5 92.5714
1873.5 66
1874.5 57.7143
1875.5 54.4286
1876.5 41.4286
1877.5 37.4286
1878.5 11.4286
1879.5 44.7143
1880.5 25.2857
1881.5 35.8571
1882.5 35.2857
1883.5 75.7143
1884.5 128.429
1885.5 212.714
1886.5 406.429
1887.5 339.571
1888.5 217.714
1889.5 79.8571
1890.5 39.5714
1891.5 21.1429
1892.5 57.1429
1893.5 31.7143
1894.5 27.7143
1895.5 19.1429
1896.5 61.7143
1897.5 26.8571
1898.5 36.1429
1899.5 11.1428
1900.5 68.4286
1901.5 66.7143
1902.5 31.7143
1903.5 44.8571
1904.5 38.1429
1905.5 36.8571
1906.5 39.7143
1907.5 38
1908.5 53.1429
1909.5 26.5714
1910.5 26
1911.5 36.5714
1912.5 51.4286
1913.5 44.5714
1914.5 80.4286
1915.5 85.4286
1916.5 62.4286
1917.5 81.5714
1918.5 94.8571
1919.5 76.2857
1920.5 107.429
1921.5 110.571
1922.5 54.2857
1923.5 33.1429
1924.5 59.1429
1925.5 48.2857
1926.5 57.5714
1927.5 16.2857
1928.5 48.1429
1929.5 20.7143
1930.5 -2.57143
1931.5 -2.42858
1932.5 45.5714
1933.5 34.2857
1934.5 54.4286
1935.5 45.1429
1936.5 27.5714
1937.5 44
1938.5 23.1429
1939.5 32
1940.5 15.8571
1941.5 83.7143
1942.5 28.7143
1943.5 54.7143
1944.5 22.7143
1945.5 44.2857
1946.5 37.1429
1947.5 40.1429
1948.5 33.2857
1949.5 36.7143
1950.5 12.1428
1951.5 82.5714
1952.5 45
1953.5 50.1429
1954.5 38
1955.5 69.8571
1956.5 30.1429
1957.5 50.2857
1958.5 35.7143
1959.5 38.1429
1960.5 44.4286
1961.5 7.42857
1962.5 84.2857
1963.5 48.8571
1964.5 50
1965.5 15.8571
1966.5 49.5714
1967.5 46
1968.5 31.7143
1969.5 38.7143
1970.5 53.7143
1971.5 30.1429
1972.5 31.5714
1973.5 10.1429
1974.5 28.1429
1975.5 16.2857
1976.5 19.1429
1977.5 55.4286
1978.5 41.1429
1979.5 33.8571
1980.5 70.8571
1981.5 129
1982.5 198.143
1983.5 258.286
1984.5 194.429
1985.5 105
1986.5 56.2857
1987.5 17.2857
1988.5 28.4286
1989.5 23
1990.5 9.57142
1991.5 18.7143
1992.5 16.4286
1993.5 47.4286
1994.5 48.4286
1995.5 34.2857
1996.5 33.2857
1997.5 61.2857
1998.5 22.5714
1999.5 16.7143
2000.5 56.4286
2001.5 45.4286
2002.5 56.5714
2003.5 45.8571
2004.5 38.8571
2005.5 29.8571
2006.5 51.1429
2007.5 32.2857
2008.5 75.2857
2009.5 22.8571
2010.5 20.4286
2011.5 47.1429
2012.5 31.7143
2013.5 17.8571
2014.5 42
2015.5 44.5714
2016.5 38.4286
2017.5 19.7143
2018.5 38.4286
2019.5 34.7143
2020.5 48.8571
2021.5 49.4286
2022.5 35.5714
2023.5 104.286
2024.5 149.857
2025.5 201.571
2026.5 130.571
2027.5 62.4286
2028.5 63.8571
2029.5 58.4286
2030.5 37.7143
2031.5 31.7143
2032.5 60.4286
2033.5 24
2034.5 31.4286
2035.5 37.5714
2036.5 31.5714
2037.5 13.7143
2038.5 35.5714
2039.5 45
2040.5 39.8571
2041.5 61.2857
2042.5 45
2043.5 48.5714
2044.5 9.57142
2045.5 34.8571
2046.5 43.2857
2047.5 43.2857
2048.5 49.7143
2049.5 20.4286
2050.5 40.1429
2051.5 38.4286
2052.5 29.5714
2053.5 12.2857
2054.5 28.8571
2055.5 9.99999
2056.5 20
2057.5 21.2857
2058.5 42.8571
2059.5 3.14285
2060.5 26.5714
2061.5 47.8571
2062.5 0.28571
2063.5 21
2064.5 32.1429
2065.5 28.4286
2066.5 27.5714
2067.5 31.7143
2068.5 39.2857
2069.5 83.4286
2070.5 61.4286
2071.5 113.143
2072.5 78.5714
2073.5 62
2074.5 32.2857
2075.5 37.7143
2076.5 22.4286
2077.5 45
2078.5 47.5714
2079.5 46.8571
2080.5 60.1429
2081.5 36.2857
2082.5 36.5714
2083.5 65.1429
2084.5 65.4286
2085.5 59.1429
2086.5 57
2087.5 59.2857
2088.5 16
2089.5 28.2857
2090.5 7.85714
2091.5 29.7143
2092.5 23.8571
2093.5 40.5714
2094.5 28
2095.5 36.4286
2096.5 0.571424
2097.5 19.7143
2098.5 44
2099.5 31
2100.5 22.7143
2101.5 36.4286
2102.5 22.4286
2103.5 40.7143
2104.5 38.1429
2105.5 45.5714
2106.5 67.8571
2107.5 58.8571
2108.5 47.8571
2109.5 51
2110.5 54.1429
2111.5 41.2857
2112.5 23
2113.5 36.4286
2114.5 30.4286
2115.5 27.8571
2116.5 21
2117.5 50.8571
2118.5 34.2857
2119.5 11
2120.5 26.2857
2121.5 29.2857
2122.5 53.5714
2123.5 45.7143
2124.5 38.1429
2125.5 58.2857
2126.5 77.7143
2127.5 33.4286
2128.5 68.4286
2129.5 30
2130.5 45.1429
2131.5 24.8571
2132.5 39.5714
2133.5 15.4286
2134.5 13
2135.5 43.5714
2136.5 48.5714
2137.5 37.2857
2138.5 9.85714
2139.5 31.8571
2140.5 30.2857
2141.5 40.4286
2142.5 79.4286
2143.5 147
2144.5 152
2145.5 158.429
2146.5 194.143
2147.5 172
2148.5 216.143
2149.5 417.429
2150.5 526.857
2151.5 410.857
2152.5 149.143
2153.5 64.7143
2154.5 42.5714
2155.5 35.8571
2156.5 20.1429
2157.5 15
2158.5 18.7143
2159.5 28.7143
2160.5 32.1429
2161.5 21.4286
2162.5 26.5714
2163.5 34.7143
2164.5 20.2857
2165.5 27
2166.5 34.8571
2167.5 19.4286
2168.5 23.4286
2169.5 32.4286
2170.5 31.4286
2171.5 35.5714
2172.5 16.8571
2173.5 56
2174.5 34.5714
2175.5 24.5714
2176.5 14.2857
2177.5 36.1429
2178.5 16.8571
2179.5 20.5714
2180.5 39.8571
2181.5 8.14285
2182.5 33.2857
2183.5 32.5714
2184.5 51.5714
2185.5 28.4286
2186.5 51.2857
2187.5 47.5714
2188.5 43.1429
2189.5 75.1429
2190.5 57.2857
2191.5 41.1429
2192.5 6.28571
2193.5 11.1429
2194.5 1.71428
2195.5 43.5714
2196.5 53.7143
2197.5 90.5714
2198.5 121.857
2199.5 250.429
2200.5 243
2201.5 135.857
2202.5 78.1429
2203.5 32.4286
2204.5 33.7143
2205.5 25.5714
2206.5 17.1429
2207.5 19.5714
2208.5 -10.7143
2209.5 16
2210.5 7.28571
2211.5 33.5714
2212.5 22.5714
2213.5 36
2214.5 30
2215.5 26.7143
2216.5 29.4286
2217.5 20.2857
2218.5 41.4286
2219.5 39.1429
2220.5 16.7143
2221.5 66.7143
2222.5 -5.00001
2223.5 42.5714
2224.5 25
2225.5 23.2857
2226.5 19.2857
2227.5 38.2857
2228.5 3.14285
2229.5 30.5714
2230.5 25.4286
2231.5 26.4286
2232.5 20.7143
2233.5 20.8571
2234.5 -3.28572
2235.5 19
2236.5 14.8571
2237.5 25.8571
2238.5 10.5714
2239.5 0.714282
2240.5 39.2857
2241.5 24.5714
2242.5 23.8571
2243.5 31.8571
2244.5 8.57143
2245.5 32.5714
2246.5 32.7143
2247.5 23.4286
2248.5 21
2249.5 61.8571
2250.5 27.4286
2251.5 24.2857
2252.5 24.1429
2253.5 33.8571
2254.5 40.2857
2255.5 20.7143
2256.5 37.7143
2257.5 14.1429
2258.5 39
2259.5 4.14285
2260.5 22.1429
2261.5 19.7143
2262.5 46.5714
2263.5 50.1429
2264.5 33
2265.5 45.2857
2266.5 15.1429
2267.5 53
2268.5 37.1429
2269.5 31.1429
2270.5 29.5714
2271.5 46.8571
2272.5 49.8571
2273.5 50.7143
2274.5 26.7143
2275.5 14.2857
2276.5 34.5714
2277.5 24.8571
2278.5 43.5714
2279.5 41.4286
2280.5 81.8571
2281.5 173.429
2282.5 133.429
2283.5 131.286
2284.5 68.5714
2285.5 39.8571
2286.5 36.4286
2287.5 8
2288.5 32.8571
2289.5 45.2857
2290.5 15.2857
2291.5 14.5714
2292.5 33
2293.5 22.2857
2294.5 18.4286
2295.5 28.7143
2296.5 -17.5714
2297.5 11
2298.5 14.5714
2299.5 44
2300.5 72.7143
2301.5 46.2857
2302.5 35
2303.5 45.5714
2304.5 29.1429
2305.5 32.8571
2306.5 41.5714
2307.5 31.1429
2308.5 31.1429
2309.5 46.4286
2310.5 -7
2311.5 17.5714
2312.5 57.1429
2313.5 39.2857
2314.5 57.4286
2315.5 33.7143
2316.5 37.1429
2317.5 31.1429
2318.5 46.8571
2319.5 18.1429
2320.5 27.2857
2321.5 28.2857
2322.5 35.5714
2323.5 30
2324.5 31.5714
2325.5 25.8571
2326.5 37.8571
2327.5 13.2857
2328.5 25.1429
2329.5 21.2857
2330.5 42
2331.5 25.5714
2332.5 49
2333.5 62.1429
2334.5 101.286
2335.5 162.857
2336.5 212.571
2337.5 173.429
2338.5 104.429
2339.5 38.2857
2340.5 45.2857
2341.5 29.4286
2342.5 40.2857
2343.5 30.8571
2344.5 27.7143
2345.5 29.7143
2346.5 16.4286
2347.5 33.4286
2348.5 21.7143
2349.5 33
2350.5 43.1429
2351.5 21.7143
2352.5 59.1429
2353.5 25.1429
2354.5 30.4286
2355.5 35.2857
2356.5 26
2357.5 37.8571
2358.5 25
2359.5 30
2360.5 26.8571
2361.5 17.1429
2362.5 4.57143
2363.5 24.8571
2364.5 16.5714
2365.5 7.57143
2366.5 44.8571
2367.5 19.1429
2368.5 14
2369.5 18.4286
2370.5 41.7143
2371.5 39.5714
2372.5 17.7143
2373.5 25.4286
2374.5 44
2375.5 8.99999
2376.5 70.4286
2377.5 30.7143
2378.5 9.85714
2379.5 19.5714
2380.5 34.4286
2381.5 21.5714
2382.5 11.7143
2383.5 41.4286
2384.5 12
2385.5 7.28571
2386.5 48.2857
2387.5 31.4286
2388.5 31.5714
2389.5 15.8571
2390.5 10.1429
2391.5 40.4286
2392.5 37.4286
2393.5 33.8571
2394.5 24.2857
2395.5 12.4286
2396.5 31.1429
2397.5 34.8571
2398.5 38.8571
2399.5 43.7143
2400.5 6.14286
2401.5 28.8571
2402.5 28.2857
2403.5 23.5714
2404.5 26.4286
2405.5 11.7143
2406.5 9
2407.5 38
2408.5 46.5714
2409.5 45.8571
2410.5 46.2857
2411.5 10.7143
2412.5 17.4286
2413.5 29.4286
2414.5 24.5714
2415.5 28.1429
2416.5 30.1429
2417.5 39.4286
2418.5 7.14285
2419.5 34
2420.5 15.5714
2421.5 32.5714
2422.5 39.4286
2423.5 48.1429
2424.5 24.7143
2425.5 30.4286
2426.5 26.4286
2427.5 12.1429
2428.5 22.7143
2429.5 17.5714
2430.5 36.4286
2431.5 43.1429
2432.5 24.4286
2433.5 34.8571
2434.5 45.7143
2435.5 37.7143
2436.5 27.7143
2437.5 49.5714
2438.5 41.4286
2439.5 55.8571
2440.5 57.7143
2441.5 38.8571
2442.5 48.1429
2443.5 45.4286
2444.5 40.5714
2445.5 46.5714
2446.5 28.1429
2447.5 40
2448.5 16
2449.5 44.1429
2450.5 30
2451.5 16.2857
2452.5 17.8571
2453.5 26.2857
2454.5 26.4286
2455.5 27
2456.5 18.8571
2457.5 24.4286
2458.5 34
2459.5 31.8571
2460.5 25.1429
2461.5 29.1429
2462.5 38
2463.5 28.5714
2464.5 25.5714
2465.5 40.7143
2466.5 37
2467.5 46.4286
2468.5 43.5714
2469.5 40.5714
2470.5 32.5714
2471.5 45.7143
2472.5 52
2473.5 1.85714
2474.5 26
2475.5 28.5714
2476.5 34.1429
2477.5 20.7143
2478.5 10
2479.5 21.7143
2480.5 20.5714
2481.5 43.7143
2482.5 32.5714
2483.5 68.8571
2484.5 35.2857
2485.5 22.5714
2486.5 27.4286
2487.5 39.4286
2488.5 -0.285718
2489.5 17.7143
2490.5 25.4286
2491.5 43.5714
2492.5 24.2857
2493.5 45.7143
2494.5 42.7143
2495.5 23.1429
2496.5 56.4286
2497.5 10.8571
2498.5 28.1429
2499.5 17.4286
2500.5 41.8571
2501.5 19.5714
2502.5 34.1429
2503.5 31.7143
2504.5 7.71428
2505.5 35
2506.5 40.4286
2507.5 21.8571
2508.5 2.42857
2509.5 35.5714
2510.5 22.5714
2511.5 19
2512.5 13.8571
2513.5 16.4286
2514.5 26.2857
2515.5 36.5714
2516.5 50.7143
2517.5 85.1428
2518.5 90.2857
2519.5 97.7143
2520.5 68.5714
2521.5 42.1429
2522.5 33.2857
2523.5 33.4286
2524.5 40
2525.5 15.4286
2526.5 28.7143
2527.5 32.8571
2528.5 45
2529.5 25.2857
2530.5 19.5714
2531.5 25.4286
2532.5 32.1429
2533.5 15.7143
2534.5 27
2535.5 32.1429
2536.5 30.2857
2537.5 32.8571
2538.5 41.4286
2539.5 13.2857
2540.5 28.5714
2541.5 11.8571
2542.5 24.1429
2543.5 20.7143
2544.5 32.8571
2545.5 13.5714
2546.5 11.5714
2547.5 14.4286
2548.5 44.7143
2549.5 35.1429
2550.5 50.7143
2551.5 32.4286
2552.5 14.1429
2553.5 31.7143
2554.5 33.1429
2555.5 24.7143
2556.5 38.5714
2557.5 36.7143
2558.5 18.4286
2559.5 24.8571
2560.5 30.2857
2561.5 40.4286
2562.5 21.5714
2563.5 21.2857
2564.5 32.2857
2565.5 40.7143
2566.5 31.4286
2567.5 49
2568.5 36
2569.5 38.1429
2570.5 21.8571
2571.5 4.14285
2572.5 32.1429
2573.5 14.4286
2574.5 24.2857
2575.5 8.14285
2576.5 12.7143
2577.5 22
2578.5 37.5714
2579.5 17.4286
2580.5 74.2857
2581.5 63.4286
2582.5 65
2583.5 39.4286
2584.5 18.5714
2585.5 25.2857
2586.5 26.2857
2587.5 60
2588.5 68.4286
2589.5 88.7143
2590.5 101.143
2591.5 85.1429
2592.5 53.2857
2593.5 37.4286
2594.5 29.4286
2595.5 32.8571
2596.5 14.1429
2597.5 24.8571
2598.5 23
2599.5 39.5714
2600.5 36
2601.5 19.4286
2602.5 22.5714
2603.5 17.7143
2604.5 -2.71429
2605.5 30.1429
2606.5 27.1429
2607.5 11
2608.5 17.1429
2609.5 20.7143
2610.5 48.4286
2611.5 15.7143
2612.5 21
2613.5 15.1429
2614.5 29.8571
2615.5 31.2857
2616.5 32.7143
2617.5 45.1429
2618.5 63
2619.5 69.8571
2620.5 33.8571
2621.5 36.8571
2622.5 53.5714
2623.5 27.5714
2624.5 32.2857
2625.5 27
2626.5 26.8571
2627.5 29.1429
2628.5 42.4286
2629.5 14.5714
2630.5 8
2631.5 41.4286
2632.5 29.5714
2633.5 59.1429
2634.5 102.429
2635.5 206.143
2636.5 316.571
2637.5 342.857
2638.5 254.571
2639.5 200.143
2640.5 94.2857
2641.5 37
2642.5 42.7143
2643.5 12.1429
2644.5 23.5714
2645.5 27.5714
2646.5 35.4286
2647.5 36.7143
2648.5 31.2857
2649.5 11.7143
2650.5 22.5714
2651.5 26.8571
2652.5 18.8571
2653.5 18
2654.5 27
2655.5 -14.1429
2656.5 57.1429
2657.5 33.1429
2658.5 46.2857
2659.5 44.2857
2660.5 30.5714
2661.5 22.4286
2662.5 20.5714
2663.5 25.2857
2664.5 42.4286
2665.5 15.7143
2666.5 16
2667.5 35.4286
2668.5 49.4286
2669.5 -0.14286
2670.5 0.571426
2671.5 23.1429
2672.5 12.7143
2673.5 17.8571
2674.5 4.28571
2675.5 36
2676.5 24.1429
2677.5 35.2857
2678.5 4.85714
2679.5 44.7143
2680.5 35.5714
2681.5 8
2682.5 41.7143
2683.5 38.5714
2684.5 40.4286
2685.5 65.8571
2686.5 72.4286
2687.5 78.8571
2688.5 56.8571
2689.5 60.4286
2690.5 30.7143
2691.5 41.7143
2692.5 54.7143
2693.5 15.5714
2694.5 31.8571
2695.5 26.5714
2696.5 41.1429
2697.5 16.2857
2698.5 38
2699.5 15.7143
2700.5 33.2857
2701.5 21.8571
2702.5 -15.5714
2703.5 16
2704.5 32.4286
2705.5 2.57143
2706.5 38.8571
2707.5 47.2857
2708.5 64.5714
2709.5 70.7143
2710.5 82.4286
2711.5 13.8571
2712.5 17.8571
2713.5 13.8571
2714.5 7
2715.5 10
2716.5 31
2717.5 14.4286
2718.5 27.1429
2719.5 41.7143
2720.5 62.1429
2721.5 37.4286
2722.5 47.1428
2723.5 45.2857
2724.5 44.5714
2725.5 22
2726.5 63.1429
2727.5 59.1429
2728.5 54.1429
2729.5 58.7143
2730.5 74.2857
2731.5 41.2857
2732.5 45.4286
2733.5 22.2857
2734.5 10.7143
2735.5 33.1429
2736.5 4.57143
2737.5 16.2857
2738.5 18.7143
2739.5 34.4286
2740.5 27.5714
2741.5 10.8571
2742.5 39.1429
2743.5 30.8571
2744.5 19
2745.5 13.8571
2746.5 21.5714
2747.5 33.1429
2748.5 23.1429
2749.5 19.8571
2750.5 26.1429
2751.5 26.5714
2752.5 32
2753.5 10.2857
2754.5 14.8571
2755.5 42.7143
2756.5 30.8571
2757.5 25.7143
2758.5 22.2857
2759.5 20.1429
2760.5 30.2857
2761.5 23
2762.5 24
2763.5 15.4286
2764.5 25.1429
2765.5 9.85714
2766.5 35.4286
2767.5 10.7143
2768.5 29.8571
2769.5 16.1429
2770.5 39.1429
2771.5 49
2772.5 27.1429
2773.5 22.8571
2774.5 24.8571
2775.5 14.5714
2776.5 28
2777.5 9.28571
2778.5 18.4286
2779.5 24.5714
2780.5 22
2781.5 14.4286
2782.5 5.57143
2783.5 24
2784.5 17.1429
2785.5 26.7143
2786.5 15.7143
2787.5 44.4286
2788.5 17.4286
2789.5 37.4286
2790.5 35.1429
2791.5 87.2857
2792.5 96.7143
2793.5 119.857
2794.5 135
2795.5 101.286
2796.5 67.1429
2797.5 27.2857
2798.5 41.8571
2799.5 36.1429
2800.5 8.71428
2801.5 50.8571
2802.5 8.71428
2803.5 42.7143
2804.5 17.2857
2805.5 21.7143
2806.5 -2.42857
2807.5 12.4286
2808.5 2.71428
2809.5 22.4286
2810.5 30
2811.5 14.1429
2812.5 1.42857
2813.5 25.2857
2814.5 39.8571
2815.5 19.8571
2816.5 22.5714
2817.5 30.4286
2818.5 14.4286
2819.5 29.1429
2820.5 26.8571
2821.5 45.1429
2822.5 12.8571
2823.5 29.8571
2824.5 38.4286
2825.5 63.7143
2826.5 87.1429
2827.5 109.143
2828.5 133
2829.5 103.143
2830.5 45.7143
2831.5 30
2832.5 27.7143
2833.5 32.5714
2834.5 31.1429
2835.5 36.1429
2836.5 17.1429
2837.5 31.1429
2838.5 18.2857
2839.5 10.1429
2840.5 18.8571
2841.5 16.8571
2842.5 5.71428
2843.5 8
2844.5 2.57142
2845.5 35.1429
2846.5 3.57142
2847.5 21
2848.5 3.71428
2849.5 30.1429
2850.5 21.1429
2851.5 17.7143
2852.5 25.8571
2853.5 33.2857
2854.5 17.4286
2855.5 19.1429
2856.5 32.2857
2857.5 17.2857
2858.5 17.1429
2859.5 12.4286
2860.5 36.5714
2861.5 11
2862.5 35.1429
2863.5 10.7143
2864.5 20
2865.5 24.2857
2866.5 30.8571
2867.5 49
2868.5 24.2857
2869.5 17.7143
2870.5 38.8571
2871.5 33.8571
2872.5 36.5714
2873.5 26.5714
2874.5 26.8571
2875.5 19.4286
2876.5 33.2857
2877.5 35
2878.5 24.8571
2879.5 35.8571
2880.5 23.8571
2881.5 31
2882.5 31.8571
2883.5 19.7143
2884.5 33.5714
2885.5 23.7143
2886.5 31.4286
2887.5 24.8571
2888.5 19.5714
2889.5 53
2890.5 27.8571
2891.5 11.5714
2892.5 47.2857
2893.5 27
2894.5 34
2895.5 35.1429
2896.5 35.8571
2897.5 41.7143
2898.5 17.5714
2899.5 38
2900.5 34.1429
2901.5 48.1429
2902.5 34.5714
2903.5 25
2904.5 39.5714
2905.5 3.71428
2906.5 36
2907.5 21
2908.5 22.1429
2909.5 48.2857
2910.5 33.8571
2911.5 22.8571
2912.5 29.8571
2913.5 32.4286
2914.5 31.1429
2915.5 32
2916.5 27
2917.5 6.28571
2918.5 16.1429
2919.5 19.8571
2920.5 18.4286
2921.5 16
2922.5 11.1429
2923.5 32.4286
2924.5 33.1429
2925.5 13.7143
2926.5 28.2857
2927.5 24.5714
2928.5 35
2929.5 27.1429
2930.5 26.8571
2931.5 26.2857
2932.5 29
2933.5 25.4286
2934.5 43.2857
2935.5 40.5714
2936.5 39.2857
2937.5 21.2857
2938.5 30
2939.5 9.42857
2940.5 33.1429
2941.5 30
2942.5 48.5714
2943.5 38.4286
2944.5 38
2945.5 64.7143
2946.5 111.714
2947.5 127.286
2948.5 190.286
2949.5 222.571
2950.5 272.714
2951.5 226.429
2952.5 118.429
2953.5 79.8571
2954.5 41.4286
2955.5 48.4286
2956.5 22.5714
2957.5 39.8571
2958.5 12.4286
2959.5 20.2857
2960.5 29.4286
2961.5 30
2962.5 30
2963.5 30.2857
2964.5 12.5714
2965.5 25
2966.5 18.1429
2967.5 39.4286
2968.5 42.1429
2969.5 28.4286
2970.5 29.8571
2971.5 20.2857
2972.5 39.4286
2973.5 24
2974.5 26.1429
2975.5 35.8571
2976.5 7.28571
2977.5 10.7143
2978.5 28.8571
2979.5 15
2980.5 45
2981.5 28
2982.5 38.1429
2983.5 21
2984.5 25.2857
2985.5 10.5714
2986.5 21.8571
2987.5 29
2988.5 26.8571
2989.5 48.8571
2990.5 31.4286
2991.5 -0.142859
2992.5 15.5714
2993.5 43.5714
2994.5 7.71428
2995.5 30.5714
2996.5 12.2857
2997.5 20.7143
2998.5 30
2999.5 34.7143
3000.5 16.8571
3001.5 21.1429
3002.5 20.1429
3003.5 3.42857
3004.5 9.85714
3005.5 33.2857
3006.5 31.4286
3007.5 35.4286
3008.5 58.8571
3009.5 32.5714
3010.5 41
3011.5 48.2857
3012.5 42.1429
3013.5 26.1429
3014.5 37
3015.5 31.4286
3016.5 19.8571
3017.5 24.8571
3018.5 8.57143
3019.5 24
3020.5 13.8571
3021.5 17.5714
3022.5 26.1429
3023.5 28.4286
3024.5 0.714283
3025.5 28.5714
3026.5 20.4286
3027.5 14.4286
3028.5 31.2857
3029.5 19.2857
3030.5 10.7143
3031.5 20.8571
3032.5 8.14285
3033.5 40.1429
3034.5 24.4286
3035.5 37.2857
3036.5 2.42857
3037.5 24.2857
3038.5 36.4286
3039.5 11.4286
3040.5 -5
3041.5 21.2857
3042.5 30.5714
3043.5 19.8571
3044.5 41.5714
3045.5 6.57143
3046.5 22.2857
3047.5 13.7143
3048.5 -3
3049.5 35.4286
3050.5 24.7143
3051.5 18
3052.5 26
3053.5 32.5714
3054.5 6.14286
3055.5 19.4286
3056.5 29.1429
3057.5 22.1429
3058.5 18
3059.5 10.7143
3060.5 17
3061.5 13.1429
3062.5 20
3063.5 1.71428
3064.5 13.2857
3065.5 2.28571
3066.5 11.5714
3067.5 9.42857
3068.5 17.7143
3069.5 17.7143
3070.5 31
3071.5 11.8571
3072.5 6.71428
3073.5 28.2857
3074.5 32
3075.5 24.4286
3076.5 27.7143
3077.5 23.1429
3078.5 36.7143
3079.5 23.4286
3080.5 16
3081.5 19.4286
3082.5 14
3083.5 11.8571
3084.5 5.42857
3085.5 33.1429
3086.5 0.142855
3087.5 15.4286
3088.5 22.4286
3089.5 5.71428
3090.5 29
3091.5 23.2857
3092.5 25
3093.5 36.8571
3094.5 24.2857
3095.5 19.5714
3096.5 22.4286
3097.5 10
3098.5 21.2857
3099.5 15
3100.5 34
3101.5 8.85714
3102.5 33.1429
3103.5 27.8571
3104.5 20.8571
3105.5 25.1429
3106.5 20.7143
3107.5 -0.428574
3108.5 14.4286
3109.5 13
3110.5 25.8571
3111.5 15.8571
3112.5 22
3113.5 14.4286
3114.5 8.28571
3115.5 16.2857
3116.5 26.1429
3117.5 15.4286
3118.5 40.4286
3119.5 10.2857
3120.5 10.7143
3121.5 10.1429
3122.5 9.57143
3123.5 16.4286
3124.5 14.4286
3125.5 15.2857
3126.5 16.4286
3127.5 13.1429
3128.5 19.5714
3129.5 16.1429
3130.5 14.7143
3131.5 14.4286
3132.5 14.4286
3133.5 19
3134.5 19
3135.5 5.28571
3136.5 24.2857
3137.5 4
3138.5 -13.8571
3139.5 -42.5714
3140.5 -53.1429
3141.5 -17.2857
3142.5 -3.14286
3143.5 42.5714
3144.5 89.2857
3145.5 174.714
3146.5 334.857
3147.5 539.143
3148.5 594.714
3149.5 599.571
3150.5 362.286
3151.5 245.857
3152.5 100.571
3153.5 63.2857
3154.5 28.8571
3155.5 22.2857
3156.5 37.8571
3157.5 16.8571
3158.5 36.5714
3159.5 8.14285
3160.5 30
3161.5 -7.14286
3162.5 6
3163.5 10.8571
3164.5 30.7143
3165.5 5.28571
3166.5 11.4286
3167.5 28.5714
3168.5 14.4286
3169.5 23.2857
3170.5 22.4286
3171.5 17.2857
3172.5 14.5714
3173.5 3.42857
3174.5 8.85714
3175.5 10.5714
3176.5 20.4286
3177.5 18.7143
3178.5 4
3179.5 38.2857
3180.5 13.8571
3181.5 17.8571
3182.5 11.8571
3183.5 18
3184.5 -5.57143
3185.5 8.42857
3186.5 29.7143
3187.5 27.2857
3188.5 -2.5034e-06
3189.5 21.5714
3190.5 3.28571
3191.5 23.8571
3192.5 24
3193.5 44.2857
3194.5 104
3195.5 182.571
3196.5 266.857
3197.5 327.143
3198.5 314.714
3199.5 251.143
3200.5 179.714
3201.5 179.429
3202.5 140.429
3203.5 143.857
3204.5 90.8571
3205.5 50.2857
3206.5 1.57143
3207.5 3.71428
3208.5 4.57143
3209.5 8
3210.5 9.71428
3211.5 -17.2857
3212.5 -25.5714
3213.5 2.14286
3214.5 -0.714288
3215.5 -3.71429
3216.5 -14.2857
3217.5 11.8571
3218.5 2.28571
3219.5 5.42857
3220.5 13.5714
3221.5 12.4286
3222.5 17.1429
3223.5 12.7143
3224.5 16.2857
3225.5 15.5714
3226.5 20.2857
3227.5 24.4286
3228.5 12.5714
3229.5 21
3230.5 19
3231.5 19
3232.5 22.7143
3233.5 4.71428
3234.5 19
3235.5 39.2857
3236.5 30.7143
3237.5 8.71428
3238.5 15.5714
3239.5 14.1429
3240.5 -3.85715
3241.5 31.8571
3242.5 27.8571
3243.5 37.1429
3244.5 27.5714
3245.5 11.7143
3246.5 17.7143
3247.5 31.7143
3248.5 0.428569
3249.5 20.8571
3250.5 15.5714
3251.5 5.14286
3252.5 22.1429
3253.5 9
3254.5 17.4286
3255.5 31.4286
3256.5 20.1429
3257.5 5.71428
3258.5 21.8571
3259.5 25.5714
3260.5 44.7143
3261.5 6.57143
3262.5 4
3263.5 16.8571
3264.5 32.8571
3265.5 18.4286
3266.5 39.4286
3267.5 8.28571
3268.5 24.1429
3269.5 25.8571
3270.5 27.2857
3271.5 33.5714
3272.5 30.4286
3273.5 28.7143
3274.5 17
3275.5 25.5714
3276.5 30.5714
3277.5 30.8571
3278.5 22.2857
3279.5 12.1429
3280.5 24.8571
3281.5 12.7143
3282.5 8.71428
3283.5 11.4286
3284.5 25.5714
3285.5 21.8571
3286.5 38.2857
3287.5 12
3288.5 12.8571
3289.5 11.4286
3290.5 29.2857
3291.5 3.28571
3292.5 23.4286
3293.5 24.8571
3294.5 12
3295.5 15.2857
3296.5 22.7143
3297.5 25.1429
3298.5 42.2857
3299.5 16.4286
3300.5 36.4286
3301.5 70
3302.5 40.2857
3303.5 17.4286
3304.5 4.42857
3305.5 16.5714
3306.5 6.71428
3307.5 22.8571
3308.5 24
3309.5 13.7143
3310.5 35
3311.5 30.8571
3312.5 8.14286
3313.5 14
3314.5 28.8571
3315.5 25
3316.5 15.7143
3317.5 28
3318.5 23.2857
3319.5 25.7143
3320.5 35
3321.5 53
3322.5 84
3323.5 45.5714
3324.5 64
3325.5 22
3326.5 -6
3327.5 22.5714
3328.5 6.14286
3329.5 8
3330.5 4
3331.5 25.4286
3332.5 19.5714
3333.5 27.5714
3334.5 19.2857
3335.5 21.2857
3336.5 48
3337.5 54.4286
3338.5 41.8571
3339.5 25
3340.5 20.5714
3341.5 11.5714
3342.5 19.1429
3343.5 20
3344.5 16.2857
3345.5 7.85714
3346.5 10.8571
3347.5 5.57143
3348.5 -2.57143
3349.5 -5
3350.5 -26.4286
3351.5 22.7143
3352.5 19
3353.5 13.5714
3354.5 40.7143
3355.5 8.42857
3356.5 10.2857
3357.5 15
3358.5 16.7143
3359.5 20
3360.5 12.8571
3361.5 7.71428
3362.5 10.4286
3363.5 8.42857
3364.5 7.42857
3365.5 22.5714
3366.5 23.2857
3367.5 26
3368.5 9.42857
3369.5 4.28571
3370.5 5
3371.5 25
3372.5 23.4286
3373.5 20
3374.5 18.7143
3375.5 24.4286
3376.5 23.4286
3377.5 14
3378.5 11.1429
3379.5 17.5714
3380.5 17.7143
3381.5 13
3382.5 16.5714
3383.5 16.1429
3384.5 37.5714
3385.5 7
3386.5 24.4286
3387.5 22.1429
3388.5 26.2857
3389.5 21.4286
3390.5 24.4286
3391.5 9.42857
3392.5 20
3393.5 17.4286
3394.5 6.71428
3395.5 19.1429
3396.5 26.7143
3397.5 12.7143
3398.5 16.8571
3399.5 17.2857
3400.5 29.4286
3401.5 6
3402.5 13.2857
3403.5 17.4286
3404.5 8.14286
3405.5 12
3406.5 18.4286
3407.5 9
3408.5 27.2857
3409.5 5.28571
3410.5 16.8571
3411.5 22.5714
3412.5 25
3413.5 14.8571
3414.5 6.85714
3415.5 13.4286
3416.5 10.5714
3417.5 18.2857
3418.5 22.7143
3419.5 13.4286
3420.5 23.8571
3421.5 23.1429
3422.5 24.2857
3423.5 6.57143
3424.5 34.5714
3425.5 -11.8571
3426.5 37.2857
3427.5 65.8571
3428.5 32.1429
3429.5 30.5714
3430.5 12.2857
3431.5 21
3432.5 20.8571
3433.5 29.1429
3434.5 26.5714
3435.5 39
3436.5 20.4286
3437.5 0.714284
3438.5 22.2857
3439.5 21
3440.5 26
3441.5 23.8571
3442.5 22.5714
3443.5 30
3444.5 15.4286
3445.5 13.4286
3446.5 32.2857
3447.5 8
3448.5 2.71428
3449.5 12.8571
3450.5 16.5714
3451.5 24.2857
3452.5 -40.8571
3453.5 -9.42858
3454.5 -11.4286
3455.5 -1.71429
3456.5 16.2857
3457.5 28.4286
3458.5 27.4286
3459.5 9.42857
3460.5 36.1429
3461.5 37.2857
3462.5 13.1429
3463.5 43.4286
3464.5 35
3465.5 17.7143
3466.5 11.5714
3467.5 20.1429
3468.5 9.85714
3469.5 16.5714
3470.5 5
3471.5 7.28571
3472.5 15.4286
3473.5 10.1429
3474.5 32.8571
3475.5 28.5714
3476.5 -0.428573
3477.5 -5.71429
3478.5 3
3479.5 13.8571
3480.5 16.1429
3481.5 12.1429
3482.5 17.1429
3483.5 5.85714
3484.5 22.4286
3485.5 28.4286
3486.5 26.8571
3487.5 18.7143
3488.5 21.4286
3489.5 31.2857
3490.5 36.5714
3491.5 55
3492.5 34
3493.5 40.1429
3494.5 35
3495.5 14.5714
3496.5 36.4286
3497.5 28.1429
3498.5 34.4286
3499.5 5
3500.5 16.4286
3501.5 25.5714
3502.5 25
3503.5 11
3504.5 31.2857
3505.5 21.7143
3506.5 19.2857
3507.5 24
3508.5 24.2857
3509.5 9.57143
3510.5 14
3511.5 30.5714
3512.5 6.85714
3513.5 23
3514.5 6.57143
3515.5 20.5714
3516.5 21
3517.5 12.7143
3518.5 29
3519.5 22.1429
3520.5 14.7143
3521.5 9.28571
3522.5 28.4286
3523.5 30
3524.5 31.8571
3525.5 20.8571
3526.5 19.1429
3527.5 24.4286
3528.5 15.7143
3529.5 26.5714
3530.5 28
3531.5 32.1429
3532.5 16.4286
3533.5 20.1429
3534.5 7.57143
3535.5 5.57143
3536.5 20.4286
3537.5 5.57143
3538.5 16.1429
3539.5 2.28571
3540.5 27.1429
3541.5 29
3542.5 22.2857
3543.5 21
3544.5 22.8571
3545.5 9.85714
3546.5 21.4286
3547.5 18.4286
3548.5 16.4286
3549.5 13.2857
3550.5 25.4286
3551.5 14.1429
3552.5 26.5714
3553.5 15
3554.5 9
3555.5 16.4286
3556.5 9.28571
3557.5 21.5714
3558.5 12
3559.5 37.8571
3560.5 22
3561.5 10.2857
3562.5 23.2857
3563.5 27.4286
3564.5 25.1429
3565.5 33.2857
3566.5 25.8571
3567.5 27.1429
3568.5 32.5714
3569.5 25.4286
3570.5 15.4286
3571.5 10.5714
3572.5 23.1429
3573.5 18.8571
3574.5 3.71428
3575.5 18.8571
3576.5 7.71428
3577.5 9.42857
3578.5 17.2857
3579.5 7.85714
3580.5 28.2857
3581.5 9.14285
3582.5 11.8571
3583.5 27.8571
3584.5 6.28571
3585.5 42.1429
3586.5 20.7143
3587.5 9.85714
3588.5 27
3589.5 27.8571
3590.5 21.4286
3591.5 24.8571
3592.5 19.5714
3593.5 20.1429
3594.5 22.5714
3595.5 17.8571
3596.5 25
3597.5 18.1429
3598.5 12
3599.5 19
3600.5 12.2857
3601.5 20
3602.5 17.1429
3603.5 18
3604.5 15.4286
3605.5 33
3606.5 8.57143
3607.5 17.8571
3608.5 29.5714
3609.5 32.1429
3610.5 17.5714
3611.5 23.4286
3612.5 22.1429
3613.5 21.1429
3614.5 10.8571
3615.5 16.4286
3616.5 11.2857
3617.5 15.7143
3618.5 11.4286
3619.5 23
3620.5 16.8571
3621.5 18.2857
3622.5 6
3623.5 13.5714
3624.5 30.2857
3625.5 12.7143
3626.5 15.7143
3627.5 6.42857
3628.5 20.5714
3629.5 10.2857
3630.5 13.1429
3631.5 16.8571
3632.5 13.2857
3633.5 24.7143
3634.5 7.85714
3635.5 13.1429
3636.5 29.5714
3637.5 26.4286
3638.5 13.8571
3639.5 29.5714
3640.5 14
3641.5 8.85714
3642.5 2.85714
3643.5 23.8571
3644.5 54.4286
3645.5 22.2857
3646.5 30.1429
3647.5 39
3648.5 19.1429
3649.5 1.14286
3650.5 20.2857
3651.5 23.5714
3652.5 17
3653.5 20.2857
3654.5 24.2857
3655.5 24.8571
3656.5 27
3657.5 30.2857
3658.5 35
3659.5 30.7143
3660.5 18.4286
3661.5 20.2857
3662.5 12.8571
3663.5 22.8571
3664.5 10.1429
3665.5 2.28571
3666.5 23.5714
3667.5 36.1429
3668.5 15.4286
3669.5 14
3670.5 11.5714
3671.5 10.7143
3672.5 15
3673.5 23.7143
3674.5 27.4286
3675.5 31.5714
3676.5 25.5714
3677.5 23.5714
3678.5 30.4286
3679.5 33.1429
3680.5 17.5714
3681.5 27.2857
3682.5 12.8571
3683.5 28.5714
3684.5 10.4286
3685.5 21.5714
3686.5 19
3687.5 14
3688.5 24.1429
3689.5 14.2857
3690.5 24.8571
3691.5 7.14286
3692.5 12.5714
3693.5 25.4286
3694.5 7.28571
3695.5 3.71428
3696.5 8.71428
3697.5 16.7143
3698.5 22.7143
3699.5 23.5714
3700.5 7.85714
3701.5 25.5714
3702.5 20.1429
3703.5 21.4286
3704.5 10.5714
3705.5 45.8571
3706.5 77.7143
3707.5 113.714
3708.5 163.429
3709.5 252.571
3710.5 295.286
3711.5 372.857
3712.5 267.429
3713.5 195
3714.5 111.429
3715.5 66.1429
3716.5 45.7143
3717.5 17
3718.5 14.5714
3719.5 2.14286
3720.5 -9.42857
3721.5 -32.5714
3722.5 -10.7143
3723.5 -21.7143
3724.5 -42.4286
3725.5 -22.7143
3726.5 4.71428
3727.5 -1.42857
3728.5 17.5714
3729.5 7.71428
3730.5 3.14286
3731.5 4.71428
3732.5 25
3733.5 24.5714
3734.5 27.5714
3735.5 20.8571
3736.5 10.4286
3737.5 8.14286
3738.5 12.1429
3739.5 39.4286
3740.5 33
3741.5 26.8571
3742.5 27.2857
3743.5 28.5714
3744.5 15.1429
3745.5 31
3746.5 23.7143
3747.5 33.4286
3748.5 21.7143
3749.5 20.2857
3750.5 28
3751.5 14.7143
3752.5 32.1429
3753.5 6.14286
3754.5 34.5714
3755.5 20.1429
3756.5 34.1429
3757.5 27.1429
3758.5 18.8571
3759.5 0.571428
3760.5 19
3761.5 7.28571
3762.5 20.7143
3763.5 26.8571
3764.5 22.2857
3765.5 19.1429
3766.5 37.5714
3767.5 34.8571
3768.5 7.14286
3769.5 23.5714
3770.5 22.4286
3771.5 10.1429
3772.5 13.5714
3773.5 17.7143
3774.5 29.7143
3775.5 11.5714
3776.5 27.7143
3777.5 17.7143
3778.5 21
3779.5 -5.57143
3780.5 17
3781.5 17.5714
3782.5 24.7143
3783.5 26.8571
3784.5 17.7143
3785.5 25.8571
3786.5 15.4286
3787.5 29.1429
3788.5 29.7143
3789.5 31.5714
3790.5 12.4286
3791.5 22.5714
3792.5 3.85714
3793.5 7.42857
3794.5 22.5714
3795.5 14.1429
3796.5 17.2857
3797.5 19.4286
3798.5 21.1429
3799.5 20.8571
3800.5 12.1429
3801.5 3.42857
3802.5 9
3803.5 5.28571
3804.5 27
3805.5 28.2857
3806.5 13.2857
3807.5 48
3808.5 5.85714
3809.5 26.7143
3810.5 17.2857
3811.5 7.71428
3812.5 16.5714
3813.5 32.7143
3814.5 19.1429
3815.5 35.8571
3816.5 18.1429
3817.5 15.5714
3818.5 19.2857
3819.5 27.1429
3820.5 17.2857
3821.5 20.1429
3822.5 15.5714
3823.5 10.8571
3824.5 30.4286
3825.5 26.1429
3826.5 19.1429
3827.5 24.5714
3828.5 24.2857
3829.5 12.8571
3830.5 10.5714
3831.5 22.1429
3832.5 24
3833.5 24.2857
3834.5 21.7143
3835.5 33.5714
3836.5 23
3837.5 18.1429
3838.5 24
3839.5 19.8571
3840.5 16.8571
3841.5 30.5714
3842.5 11.2857
3843.5 19.8571
3844.5 51.4286
3845.5 67.8571
3846.5 102.571
3847.5 134.286
3848.5 178.286
3849.5 168.714
3850.5 95.8571
3851.5 69.4286
3852.5 34.7143
3853.5 21.2857
3854.5 16.2857
3855.5 2.71428
3856.5 -10.5714
3857.5 -50
3858.5 -99.1429
3859.5 -112.429
3860.5 -128
3861.5 -76.5714
3862.5 -39.2857
3863.5 0.571424
3864.5 5.14285
3865.5 23.1429
3866.5 7.14286
3867.5 7.42857
3868.5 26.7143
3869.5 18.8571
3870.5 32.8571
3871.5 22.7143
3872.5 13.5714
3873.5 15.1429
3874.5 29.1429
3875.5 15.2857
3876.5 9.28571
3877.5 21.2857
3878.5 19.8571
3879.5 31.8571
3880.5 30
3881.5 10.7143
3882.5 28.8571
3883.5 13.5714
3884.5 14.8571
3885.5 13.8571
3886.5 17.5714
3887.5 17.1429
3888.5 24
3889.5 22.7143
3890.5 29.5714
3891.5 43.2857
3892.5 22.2857
3893.5 18.8571
3894.5 36.1429
3895.5 23.7143
3896.5 12.7143
3897.5 12.5714
3898.5 19.2857
3899.5 18.5714
3900.5 22.5714
3901.5 21.7143
3902.5 23.4286
3903.5 21
3904.5 25.8571
3905.5 22
3906.5 2
3907.5 12.1429
3908.5 24.8571
3909.5 19.2857
3910.5 26.4286
3911.5 27.2857
3912.5 22.7143
3913.5 27.7143
3914.5 32
3915.5 28.2857
3916.5 23.5714
3917.5 7
3918.5 32.4286
3919.5 23.7143
3920.5 19.7143
3921.5 8
3922.5 22.4286
3923.5 19.7143
3924.5 5.57143
3925.5 23.1429
3926.5 20.2857
3927.5 30.7143
3928.5 20.5714
3929.5 17
3930.5 19.8571
3931.5 25.2857
3932.5 27.2857
3933.5 29
3934.5 23
3935.5 24.2857
3936.5 5.85714
3937.5 22
3938.5 19.1429
3939.5 11.8571
3940.5 18
3941.5 30.5714
3942.5 21.2857
3943.5 9.57143
3944.5 14
3945.5 19.5714
3946.5 33.7143
3947.5 13.1429
3948.5 15.7143
3949.5 36.8571
3950.5 36
3951.5 31.4286
3952.5 16.7143
3953.5 21
3954.5 17.7143
3955.5 25
3956.5 16.8571
3957.5 24.4286
3958.5 19.4286
3959.5 22.5714
3960.5 28.2857
3961.5 23.7143
3962.5 20.8571
3963.5 28.4286
3964.5 19.2857
3965.5 19.4286
3966.5 23.2857
3967.5 5.57143
3968.5 32.4286
3969.5 28
3970.5 59.5714
3971.5 7.71428
3972.5 15
3973.5 36.7143
3974.5 50.1429
3975.5 20.4286
3976.5 37.4286
3977.5 26.5714
3978.5 19.2857
3979.5 29.2857
3980.5 33.4286
3981.5 24.5714
3982.5 15.5714
3983.5 23.5714
3984.5 5.85714
3985.5 20.5714
3986.5 29.5714
3987.5 13.4286
3988.5 23
3989.5 21.5714
3990.5 30.2857
3991.5 10.5714
3992.5 23.5714
3993.5 29.2857
3994.5 30.8571
3995.5 18.2857
3996.5 17.8571
3997.5 19
3998.5 21.8571
3999.5 30.2857
4000.5 27.5714
4001.5 34.8571
4002.5 26.2857
4003.5 20.8571
4004.5 20.4286
4005.5 24.4286
4006.5 22.8571
4007.5 17.7143
4008.5 18.5714
4009.5 25.5714
4010.5 33.7143
4011.5 21.1429
4012.5 4.57143
4013.5 18.7143
4014.5 16.5714
4015.5 27.5714
4016.5 17
4017.5 9.42857
4018.5 17
4019.5 16.1429
4020.5 9.42857
4021.5 19.1429
4022.5 29.8571
4023.5 20.1429
4024.5 9.71428
4025.5 24.8571
4026.5 19.5714
4027.5 25.5714
4028.5 18
4029.5 18.8571
4030.5 14.7143
4031.5 33.7143
4032.5 25.2857
4033.5 19.2857
4034.5 32.7143
4035.5 27.7143
4036.5 17
4037.5 25.8571
4038.5 31.8571
4039.5 22.4286
4040.5 32.7143
4041.5 33.7143
4042.5 15.5714
4043.5 21.2857
4044.5 14.8571
4045.5 35.5714
4046.5 11.1429
4047.5 26.8571
4048.5 25.8571
4049.5 5.85714
4050.5 34.1429
4051.5 28.8571
4052.5 31.2857
4053.5 17.8571
4054.5 19.8571
4055.5 14
4056.5 15.4286
4057.5 26
4058.5 22.8571
4059.5 32.2857
4060.5 14
4061.5 15.4286
4062.5 21.7143
4063.5 20
4064.5 24.7143
4065.5 15.7143
4066.5 17.4286
4067.5 18.8571
4068.5 30.1429
4069.5 25.4286
4070.5 16.2857
4071.5 34.4286
4072.5 3.28571
4073.5 11.8571
4074.5 4.28571
4075.5 24.1429
4076.5 33.8571
4077.5 17.7143
4078.5 12.8571
4079.5 30.2857
4080.5 15.8571
4081.5 20.5714
4082.5 20
4083.5 12.8571
4084.5 17.2857
4085.5 18
4086.5 27.7143
4087.5 19.7143
4088.5 13.5714
4089.5 13.5714
4090.5 17
4091.5 19.7143
4092.5 11.4286
4093.5 19.2857
4094.5 7.57143
4095.5 18.2857
4096.5 10.1429
4097.5 6.71428
4098.5 8.85714
4099.5 14.4286
4100.5 21.2857
4101.5 19
4102.5 32.2857
4103.5 15.2857
4104.5 26.1429
4105.5 10.4286
4106.5 11
4107.5 3.85714
4108.5 23.4286
4109.5 16.8571
4110.5 28.5714
4111.5 19.4286
4112.5 19.4286
4113.5 27.5714
4114.5 5.57143
4115.5 25.2857
4116.5 -2.42857
4117.5 28.7143
4118.5 8.85714
4119.5 15.7143
4120.5 15.4286
4121.5 19.8571
4122.5 19.4286
4123.5 11.1429
4124.5 16.2857
4125.5 11.5714
4126.5 1.71428
4127.5 7
4128.5 26.5714
4129.5 13.4286
4130.5 19.2857
4131.5 15
4132.5 22.8571
4133.5 14.8571
4134.5 13.8571
4135.5 20.8571
4136.5 7.14286
4137.5 11.8571
4138.5 26.5714
4139.5 20.5714
4140.5 2.42857
4141.5 6.28571
4142.5 21.4286
4143.5 17.2857
4144.5 17.1429
4145.5 16
4146.5 -3
4147.5 20.1429
4148.5 21.7143
4149.5 3.28571
4150.5 16.5714
4151.5 7.42857
4152.5 9.28571
4153.5 9
4154.5 16
4155.5 17.8571
4156.5 5.71429
4157.5 21
4158.5 36
4159.5 22.8571
4160.5 8.14286
4161.5 14.5714
4162.5 9.71428
4163.5 22.5714
4164.5 22.8571
4165.5 42.2857
4166.5 67
4167.5 70.4286
4168.5 82.7143
4169.5 89.8571
4170.5 60.5714
4171.5 33.5714
4172.5 22.2857
4173.5 13
4174.5 18.8571
4175.5 4.57143
4176.5 20.8571
4177.5 11.8571
4178.5 8.28571
4179.5 17.5714
4180.5 7
4181.5 10.4286
4182.5 13.2857
4183.5 16
4184.5 5.57143
4185.5 13.7143
4186.5 27
4187.5 7.85714
4188.5 10.5714
4189.5 14.8571
4190.5 5.42857
4191.5 17
4192.5 21.7143
4193.5 16
4194.5 6.14286
4195.5 10
4196.5 18
4197.5 9.14286
4198.5 3
4199.5 25.2857
4200.5 23.1429
4201.5 7.57143
4202.5 10.8571
4203.5 20.2857
4204.5 25.8571
4205.5 6.42857
4206.5 -0.857144
4207.5 14.1429
4208.5 -1.57143
4209.5 10.8571
4210.5 23.5714
4211.5 13.4286
4212.5 -12.2857
4213.5 -39.4286
4214.5 -40.4286
4215.5 -49.8571
4216.5 -1.00001
4217.5 96.4286
4218.5 206
4219.5 381.571
4220.5 622.143
4221.5 850.857
4222.5 851.286
4223.5 655
4224.5 415.429
4225.5 157.714
4226.5 54.4286
4227.5 40.4286
4228.5 27.4286
4229.5 15.8571
4230.5 8.85714
4231.5 -2.42857
4232.5 -7.42857
4233.5 -8.57143
4234.5 -26.5714
4235.5 -45.5714
4236.5 -21.4286
4237.5 -14.7143
4238.5 -8.14286
4239.5 11.5714
4240.5 7.85714
4241.5 3.85714
4242.5 9.14286
4243.5 11.4286
4244.5 21.8571
4245.5 8.57143
4246.5 10.7143
4247.5 8.14286
4248.5 1.14286
4249.5 10.8571
4250.5 18.1429
4251.5 19
4252.5 19.2857
4253.5 18.1429
4254.5 10.7143
4255.5 10.2857
4256.5 21.8571
4257.5 9.71429
4258.5 7.57143
4259.5 17.7143
4260.5 11
4261.5 10.2857
4262.5 15.7143
4263.5 23.7143
4264.5 21.4286
4265.5 16.4286
4266.5 20.2857
4267.5 14.4286
4268.5 15.1429
4269.5 13.4286
4270.5 15
4271.5 9.14286
4272.5 14.4286
4273.5 16.8571
4274.5 13.8571
4275.5 15.1429
4276.5 17
4277.5 10
4278.5 19.1429
4279.5 16.1429
4280.5 12.7143
4281.5 10.7143
4282.5 3.28571
4283.5 -0.428572
4284.5 16.1429
4285.5 15.5714
4286.5 14.2857
4287.5 12.7143
4288.5 7.14286
4289.5 12.5714
4290.5 9.85714
4291.5 9.42857
4292.5 10.1429
4293.5 15.8571
4294.5 12.1429
4295.5 12.4286
4296.5 11.8571
4297.5 12.5714
4298.5 7.14286
4299.5 13.2857
4300.5 2.28571
4301.5 16.1429
4302.5 -3.85714
4303.5 5.85714
4304.5 11.4286
4305.5 19.8571
4306.5 12.2857
4307.5 14
4308.5 14.2857
4309.5 12.4286
4310.5 9.57143
4311.5 18.8571
4312.5 22
4313.5 9.14286
4314.5 14.2857
4315.5 12.1429
4316.5 11.7143
4317.5 14.4286
4318.5 17.4286
4319.5 14.8571
4320.5 22
4321.5 18
4322.5 52.5714
4323.5 69.4286
4324.5 123.429
4325.5 188.286
4326.5 196.857
4327.5 151
4328.5 109.714
4329.5 41
4330.5 24.8571
4331.5 6.42857
4332.5 30
4333.5 29.7143
4334.5 21.5714
4335.5 27.5714
4336.5 29.2857
4337.5 7
4338.5 10.2857
4339.5 11.4286
4340.5 10.1429
4341.5 18.7143
4342.5 28.2857
4343.5 9.57143
4344.5 19.2857
4345.5 6.28571
4346.5 -5.42857
4347.5 10.8571
4348.5 32.5714
4349.5 15.7143
4350.5 20.4286
4351.5 19.5714
4352.5 22.7143
4353.5 22
4354.5 7.14286
4355.5 22
4356.5 13.7143
4357.5 20.2857
4358.5 19
4359.5 22.4286
4360.5 19.1429
4361.5 16.1429
4362.5 18.7143
4363.5 21.7143
4364.5 19.4286
4365.5 16.2857
4366.5 15.4286
4367.5 20.7143
4368.5 15.4286
4369.5 14.7143
4370.5 25.5714
4371.5 21.1429
4372.5 21.8571
4373.5 9.71429
4374.5 21
4375.5 16
4376.5 9
4377.5 21.1429
4378.5 16.7143
4379.5 20.8571
4380.5 19.7143
4381.5 18.4286
4382.5 17.4286
4383.5 21.2857
4384.5 16.2857
4385.5 13
4386.5 28.5714
4387.5 19
4388.5 27.4286
4389.5 14.8571
4390.5 2.71428
4391.5 19.5714
4392.5 16.8571
4393.5 33.2857
4394.5 14.4286
4395.5 15.2857
4396.5 21.4286
4397.5 7.28571
4398.5 24
4399.5 7.42857
4400.5 19.5714
4401.5 15.7143
4402.5 20.5714
4403.5 18.1429
4404.5 11.2857
4405.5 28
4406.5 19.8571
4407.5 18.2857
4408.5 20.5714
4409.5 27.4286
4410.5 26.4286
4411.5 11.2857
4412.5 20.5714
4413.5 26
4414.5 22.2857
4415.5 22.8571
4416.5 29
4417.5 13
4418.5 19.2857
4419.5 24.8571
4420.5 19
4421.5 10.8571
4422.5 13.1429
4423.5 13.2857
4424.5 13.1429
4425.5 18.1429
4426.5 13.8571
4427.5 15.2857
4428.5 20.1429
4429.5 17.1429
4430.5 16
4431.5 23.4286
4432.5 27
4433.5 33.5714
4434.5 32.1429
4435.5 15.7143
4436.5 21
4437.5 9
4438.5 6.42857
4439.5 15.2857
4440.5 14.4286
4441.5 20.7143
4442.5 25.1429
4443.5 21.2857
4444.5 18.4286
4445.5 26.8571
4446.5 26.7143
4447.5 14.7143
4448.5 31.1429
4449.5 21.1429
4450.5 17
4451.5 25.2857
4452.5 33.2857
4453.5 14.5714
4454.5 21.1429
4455.5 20.4286
4456.5 -0.142858
4457.5 14.1429
4458.5 10
4459.5 23.8571
4460.5 29.1429
4461.5 35
4462.5 22.8571
4463.5 14
4464.5 24.2857
4465.5 11.1429
4466.5 17.2857
4467.5 29
4468.5 15.5714
4469.5 35.5714
4470.5 16
4471.5 15.8571
4472.5 21.4286
4473.5 24.2857
4474.5 20.2857
4475.5 22
4476.5 6.28571
4477.5 8
4478.5 11.7143
4479.5 22.2857
4480.5 25.2857
4481.5 21.1429
4482.5 19.5714
4483.5 18.2857
4484.5 13.1429
4485.5 22.5714
4486.5 22.1429
4487.5 14.1429
4488.5 17.4286
4489.5 16.8571
4490.5 17.7143
4491.5 27.8571
4492.5 36.2857
4493.5 20
4494.5 20.2857
4495.5 25.4286
4496.5 19
4497.5 17.4286
4498.5 20.8571
4499.5 17.4286
4500.5 17
4501.5 24.5714
4502.5 31
4503.5 28.1429
4504.5 24
4505.5 32
4506.5 44.4286
4507.5 26.2857
4508.5 12.5714
4509.5 14.8571
4510.5 29.1429
4511.5 26.2857
4512.5 18
4513.5 19.1429
4514.5 22.5714
4515.5 13.1429
4516.5 24
4517.5 23
4518.5 24.4286
4519.5 12
4520.5 15
4521.5 21.8571
4522.5 10.2857
4523.5 13.8571
4524.5 10.1429
4525.5 22.4286
4526.5 18.2857
4527.5 27
4528.5 17
4529.5 20.1429
4530.5 34.2857
4531.5 21.2857
4532.5 25.1429
4533.5 27.2857
4534.5 29.5714
4535.5 21.7143
4536.5 19.2857
4537.5 15
4538.5 10.8571
4539.5 26.4286
4540.5 22.1429
4541.5 21
4542.5 26.4286
4543.5 30.4286
4544.5 18.7143
4545.5 28.7143
4546.5 17.8571
4547.5 38.7143
4548.5 20.2857
4549.5 32.7143
4550.5 30.5714
4551.5 11.2857
4552.5 11.5714
4553.5 21.8571
4554.5 12.5714
4555.5 10.7143
4556.5 7
4557.5 14.5714
4558.5 16.7143
4559.5 26.4286
4560.5 27
4561.5 25.5714
4562.5 30.7143
4563.5 10.4286
4564.5 28.5714
4565.5 20
4566.5 27.5714
4567.5 30.4286
4568.5 32
4569.5 30.2857
4570.5 22
4571.5 32.1429
4572.5 18.5714
4573.5 12.8571
4574.5 24.1429
4575.5 19.2857
4576.5 13.8571
4577.5 36.2857
4578.5 33.1429
4579.5 17.7143
4580.5 24.8571
4581.5 17
4582.5 29.1429
4583.5 20.8571
4584.5 25.4286
4585.5 28.5714
4586.5 17
4587.5 20.2857
4588.5 21.1429
4589.5 9.57143
4590.5 16
4591.5 9.42857
4592.5 32.4286
4593.5 21.4286
4594.5 23.1429
4595.5 20.4286
4596.5 16
4597.5 25.7143
4598.5 29.1429
4599.5 29.7143
4600.5 17.4286
4601.5 26.8571
4602.5 20.7143
4603.5 34.5714
4604.5 21.8571
4605.5 27.2857
4606.5 17.4286
4607.5 17.1429
4608.5 20.5714
4609.5 21.5714
4610.5 23.4286
4611.5 31.7143
4612.5 38.4286
4613.5 23.1429
4614.5 23.7143
4615.5 14
4616.5 62.8571
4617.5 43.5714
4618.5 33.5714
4619.5 30.4286
4620.5 20.2857
4621.5 18.2857
4622.5 36.8571
4623.5 18
4624.5 31.5714
4625.5 36.8571
4626.5 38.4286
4627.5 23.8571
4628.5 37
4629.5 34.4286
4630.5 25.5714
4631.5 29.2857
4632.5 17
4633.5 29.8571
4634.5 15
4635.5 21
4636.5 18.7143
4637.5 27.8571
4638.5 18.4286
4639.5 37.5714
4640.5 36.7143
4641.5 19.5714
4642.5 17.7143
4643.5 14.5714
4644.5 16.8571
4645.5 28.7143
4646.5 26.5714
4647.5 28.1429
4648.5 17.7143
4649.5 28.2857
4650.5 14.5714
4651.5 31
4652.5 25.2857
4653.5 30.4286
4654.5 30.2857
4655.5 28
4656.5 30
4657.5 27.7143
4658.5 23.4286
4659.5 31
4660.5 36.2857
4661.5 27
4662.5 23.2857
4663.5 29
4664.5 33.1429
4665.5 28.2857
4666.5 26.8571
4667.5 32.5714
4668.5 31.2857
4669.5 21.7143
4670.5 35
4671.5 31.2857
4672.5 22
4673.5 22
4674.5 22.5714
4675.5 26.5714
4676.5 23.8571
4677.5 25.4286
4678.5 26.2857
4679.5 13.8571
4680.5 31.4286
4681.5 11.5714
4682.5 16.2857
4683.5 32.2857
4684.5 39.7143
4685.5 24.1429
4686.5 27.1429
4687.5 24.5714
4688.5 19.1429
4689.5 21.8571
4690.5 13
4691.5 23.4286
4692.5 29.5714
4693.5 17.2857
4694.5 23.4286
4695.5 19.1429
4696.5 28.1429
4697.5 23.2857
4698.5 22.1429
4699.5 18.8571
4700.5 9.85714
4701.5 33
4702.5 20
4703.5 17.2857
4704.5 27.1429
4705.5 32.7143
4706.5 22.7143
4707.5 30.7143
4708.5 27.1429
4709.5 25.4286
4710.5 16.1429
4711.5 18.8571
4712.5 22
4713.5 27.4286
4714.5 28.7143
4715.5 36.1429
4716.5 20.7143
4717.5 24.4286
4718.5 23.1429
4719.5 21.2857
4720.5 12.8571
4721.5 30.5714
4722.5 24.1429
4723.5 28.7143
4724.5 26.1429
4725.5 16.2857
4726.5 17.8571
4727.5 28.1429
4728.5 25.1429
4729.5 18
4730.5 29.2857
4731.5 16
4732.5 13.5714
4733.5 38.4286
4734.5 16.8571
4735.5 6.85714
4736.5 29.4286
4737.5 33.1429
4738.5 15.7143
4739.5 15.4286
4740.5 20
4741.5 20.2857
4742.5 27.4286
4743.5 16.7143
4744.5 19.5714
4745.5 10.4286
4746.5 21.7143
4747.5 12.5714
4748.5 32.5714
4749.5 26
4750.5 29.8571
4751.5 13.1429
4752.5 8.14286
4753.5 19
4754.5 23.2857
4755.5 27
4756.5 12.1429
4757.5 19.4286
4758.5 23.4286
4759.5 18.2857
4760.5 24
4761.5 23.4286
4762.5 22.2857
4763.5 25.5714
4764.5 30.7143
4765.5 19.2857
4766.5 19.1429
4767.5 22.5714
4768.5 34.5714
4769.5 20.4286
4770.5 25
4771.5 24.2857
4772.5 23.2857
4773.5 14.5714
4774.5 21.8571
4775.5 16.5714
4776.5 11.2857
4777.5 22.7143
4778.5 19.2857
4779.5 26
4780.5 20.7143
4781.5 24
4782.5 20.7143
4783.5 11.8571
4784.5 30.2857
4785.5 22.5714
4786.5 10.5714
4787.5 10
4788.5 21.1429
4789.5 26.4286
4790.5 12.2857
4791.5 15.4286
4792.5 25.4286
4793.5 21.1429
4794.5 17.8571
4795.5 16.8571
4796.5 24.7143
4797.5 12.4286
4798.5 20.7143
4799.5 23.4286
4800.5 24.2857
4801.5 21
4802.5 20.8571
4803.5 22
4804.5 15.8571
4805.5 31
4806.5 16.4286
4807.5 34
4808.5 20.1429
4809.5 18.7143
4810.5 25.2857
4811.5 18.5714
4812.5 20
4813.5 27.2857
4814.5 33.2857
4815.5 26.2857
4816.5 22.4286
4817.5 17.8571
4818.5 32.8571
4819.5 18.5714
4820.5 21.1429
4821.5 26.4286
4822.5 25.1429
4823.5 23.7143
4824.5 27.5714
4825.5 27.7143
4826.5 30.2857
4827.5 36.5714
4828.5 32.1429
4829.5 48.8571
4830.5 67.4286
4831.5 100.286
4832.5 154.143
4833.5 260.857
4834.5 339
4835.5 472.143
4836.5 560
4837.5 513
4838.5 402.143
4839.5 282.286
4840.5 179
4841.5 117.143
4842.5 56.1429
4843.5 54.1429
4844.5 70
4845.5 39.7143
4846.5 48.2857
4847.5 20.5714
4848.5 9.85714
4849.5 33.2857
4850.5 21.7143
4851.5 17
4852.5 13.1429
4853.5 20.2857
4854.5 11.8571
4855.5 30
4856.5 30
4857.5 24.1429
4858.5 19.8571
4859.5 24.1429
4860.5 18
4861.5 39.8571
4862.5 26.4286
4863.5 34.2857
4864.5 33.7143
4865.5 28.2857
4866.5 28.2857
4867.5 37.2857
4868.5 44.5714
4869.5 23.8571
4870.5 25.1429
4871.5 29.7143
4872.5 22.8571
4873.5 29.2857
4874.5 31.4286
4875.5 26.1429
4876.5 25.2857
4877.5 20.4286
4878.5 21.5714
4879.5 28.2857
4880.5 27.4286
4881.5 16
4882.5 25.1429
4883.5 26.2857
4884.5 23.7143
4885.5 20.1429
4886.5 20.8571
4887.5 13.7143
4888.5 27
4889.5 30
4890.5 29.5714
4891.5 21.2857
4892.5 16.2857
4893.5 22.8571
4894.5 24.4286
4895.5 29.1429
4896.5 16.8571
4897.5 25.8571
4898.5 40.7143
4899.5 25.4286
4900.5 26
4901.5 25.1429
4902.5 35
4903.5 31
4904.5 39.8571
4905.5 29.4286
4906.5 22.8571
4907.5 25.1429
4908.5 26.5714
4909.5 28
4910.5 21.5714
4911.5 34
4912.5 24.7143
4913.5 28.5714
4914.5 35.5714
4915.5 26.2857
4916.5 35.4286
4917.5 26
4918.5 27.7143
4919.5 28.1429
4920.5 30.8571
4921.5 29.1429
4922.5 31.2857
4923.5 15
4924.5 28
4925.5 17.8571
4926.5 24.1429
4927.5 38.4286
4928.5 19.2857
4929.5 28.2857
4930.5 29.4286
4931.5 22.4286
4932.5 28.5714
4933.5 30.1429
4934.5 23.5714
4935.5 27.2857
4936.5 33.4286
4937.5 26
4938.5 29.1429
4939.5 26.2857
4940.5 30.8571
4941.5 19.1429
4942.5 16.2857
4943.5 23.4286
4944.5 27.5714
4945.5 31.1429
4946.5 32.1429
4947.5 22.4286
4948.5 31
4949.5 24.1429
4950.5 34.2857
4951.5 26.2857
4952.5 33.1429
4953.5 29.2857
4954.5 29.5714
4955.5 32.4286
4956.5 15.1429
4957.5 40.5714
4958.5 31.7143
4959.5 26.1429
4960.5 28.4286
4961.5 11.2857
4962.5 25.4286
4963.5 26.5714
4964.5 23.4286
4965.5 26.5714
4966.5 34.2857
4967.5 30.4286
4968.5 26
4969.5 31
4970.5 34.5714
4971.5 25.4286
4972.5 25.2857
4973.5 31.4286
4974.5 28.5714
4975.5 31.5714
4976.5 21.8571
4977.5 33.2857
4978.5 34.4286
4979.5 22.1429
4980.5 48.7143
4981.5 25.4286
4982.5 22.5714
4983.5 25.2857
4984.5 24.7143
4985.5 37.1429
4986.5 27.5714
4987.5 25.4286
4988.5 23.4286
4989.5 34.4286
4990.5 14.2857
4991.5 29.1429
4992.5 22.5714
4993.5 24.1429
4994.5 30.7143
4995.5 32.2857
4996.5 33.4286
4997.5 32.5714
4998.5 33.1429
4999.5 31.7143
5000.5 17.8571
5001.5 20.8571
5002.5 33.8571
5003.5 28.5714
5004.5 25.7143
5005.5 27.4286
5006.5 17.1429
5007.5 32.4286
5008.5 35.4286
5009.5 29.5714
5010.5 36.4286
5011.5 33.4286
5012.5 28.4286
5013.5 31.7143
5014.5 32.5714
5015.5 22.4286
5016.5 33.4286
5017.5 25.1429
5018.5 25.4286
5019.5 36.7143
5020.5 38.4286
5021.5 41.8571
5022.5 33.1429
5023.5 41.2857
5024.5 33.4286
5025.5 17.5714
5026.5 23.1429
5027.5 35.2857
5028.5 35
5029.5 32.7143
5030.5 36
5031.5 32.4286
5032.5 22.4286
5033.5 35.4286
5034.5 27.7143
5035.5 43.7143
5036.5 26.2857
5037.5 29.5714
5038.5 19.8571
5039.5 28.5714
5040.5 34.4286
5041.5 25.2857
5042.5 27.4286
5043.5 29.5714
5044.5 34.7143
5045.5 19.2857
5046.5 28
5047.5 34.4286
5048.5 33.4286
5049.5 32.2857
5050.5 24.2857
5051.5 29.4286
5052.5 28.1429
5053.5 34.2857
5054.5 28
5055.5 37.5714
5056.5 37.8571
5057.5 18.8571
5058.5 21.4286
5059.5 33.4286
5060.5 25.5714
5061.5 34.7143
5062.5 39.4286
5063.5 30.2857
5064.5 53.4286
5065.5 39.7143
5066.5 26.7143
5067.5 27
5068.5 34.8571
5069.5 26.4286
5070.5 35.7143
5071.5 35.7143
5072.5 45.2857
5073.5 51.2857
5074.5 29.7143
5075.5 38.4286
5076.5 34.2857
5077.5 32.2857
5078.5 51.4286
5079.5 33.8571
5080.5 27.8571
5081.5 39.2857
5082.5 32.1429
5083.5 33.8571
5084.5 36
5085.5 27.1429
5086.5 44.4286
5087.5 39
5088.5 18.8571
5089.5 37.8571
5090.5 38.8571
5091.5 31.8571
5092.5 35.8571
5093.5 37.8571
5094.5 39.1429
5095.5 37.1429
5096.5 43.8571
5097.5 40.7143
5098.5 36.8571
5099.5 33.7143
5100.5 43.2857
5101.5 34.7143
5102.5 43
5103.5 32.2857
5104.5 25.8571
5105.5 44.5714
5106.5 22.4286
5107.5 30.4286
5108.5 28.4286
5109.5 38.8571
5110.5 28.7143
5111.5 26.4286
5112.5 27.5714
5113.5 29.1429
5114.5 38.4286
5115.5 27
5116.5 31.2857
5117.5 25.7143
5118.5 18.1429
5119.5 24.4286
5120.5 19.8571
5121.5 27.2857
5122.5 39.8571
5123.5 26.4286
5124.5 19.4286
5125.5 39
5126.5 26.4286
5127.5 23.7143
5128.5 29
5129.5 26.4286
5130.5 32.2857
5131.5 30.4286
5132.5 24.5714
5133.5 38.7143
5134.5 19.5714
5135.5 31
5136.5 32.8571
5137.5 30.1429
5138.5 30.8571
5139.5 25.4286
5140.5 27.1429
5141.5 39.5714
5142.5 21.2857
5143.5 18.2857
5144.5 24.5714
5145.5 26.5714
5146.5 19.4286
5147.5 31.5714
5148.5 30.5714
5149.5 32.4286
5150.5 22.4286
5151.5 20.4286
5152.5 17
5153.5 28.5714
5154.5 31.7143
5155.5 13.8571
5156.5 27.1429
5157.5 34.2857
5158.5 29.5714
5159.5 35.2857
5160.5 38.2857
5161.5 27.5714
5162.5 24.5714
5163.5 19.5714
5164.5 31.1429
5165.5 20.4286
5166.5 23.1429
5167.5 29.4286
5168.5 33
5169.5 25.4286
5170.5 35.5714
5171.5 29.2857
5172.5 29.4286
5173.5 22.4286
5174.5 28.1429
5175.5 22.2857
5176.5 34.4286
5177.5 29.7143
5178.5 28.2857
5179.5 22.8571
5180.5 18.1429
5181.5 28.4286
5182.5 30.5714
5183.5 31.5714
5184.5 21.4286
5185.5 24
5186.5 24.7143
5187.5 26.4286
5188.5 24.4286
5189.5 20.2857
5190.5 23.1429
5191.5 13.2857
5192.5 19.1429
5193.5 19.5714
5194.5 11.1429
5195.5 17.5714
5196.5 25.5714
5197.5 28.2857
5198.5 26.8571
5199.5 13
5200.5 25.2857
5201.5 30.7143
5202.5 21
5203.5 32.4286
5204.5 21.5714
5205.5 26.1429
5206.5 18.4286
5207.5 16.7143
5208.5 25.5714
5209.5 29.2857
5210.5 26.8571
5211.5 24.4286
5212.5 24.7143
5213.5 18.4286
5214.5 19.8571
5215.5 21.7143
5216.5 20.7143
5217.5 20.2857
5218.5 21.7143
5219.5 22.8571
5220.5 21.2857
5221.5 19.7143
5222.5 20.4286
5223.5 21.5714
5224.5 18.5714
5225.5 15.5714
5226.5 18
5227.5 24.5714
5228.5 26.7143
5229.5 14.7143
5230.5 18.1429
5231.5 23.8571
5232.5 16.8571
5233.5 14.1429
5234.5 17
5235.5 8.57143
5236.5 17.1429
5237.5 17.7143
5238.5 21.2857
5239.5 17.2857
5240.5 12.1429
5241.5 19.5714
5242.5 20.7143
5243.5 11.8571
5244.5 18.4286
5245.5 21.8571
5246.5 23.8571
5247.5 17.7143
5248.5 16.7143
5249.5 12.7143
5250.5 8.57143
5251.5 13.5714
5252.5 14.5714
5253.5 14.8571
5254.5 16.4286
5255.5 13.7143
5256.5 15.8571
5257.5 7.42857
5258.5 11.7143
5259.5 10.1429
5260.5 12.7143
5261.5 9.71429
5262.5 15.2857
5263.5 13.5714
5264.5 17.2857
5265.5 12.7143
5266.5 10.7143
5267.5 5.57143
5268.5 11.8571
5269.5 10.2857
5270.5 12.4286
5271.5 10.5714
5272.5 6.14286
5273.5 3
5274.5 10.7143
5275.5 7.85714
5276.5 14.5714
5277.5 10.7143
5278.5 8.57143
5279.5 5.28571
5280.5 5.71429
5281.5 16.8571
5282.5 10.2857
5283.5 5
5284.5 9.42857
5285.5 16.2857
5286.5 12
5287.5 12.4286
5288.5 6.57143
5289.5 9.57143
5290.5 7.14286
5291.5 13.5714
5292.5 14.7143
5293.5 15.5714
5294.5 11.5714
5295.5 17.2857
5296.5 14.4286
5297.5 7.28571
5298.5 12.2857
5299.5 9.57143
5300.5 7.57143
5301.5 3.57143
5302.5 12
5303.5 9.42857
5304.5 11.8571
5305.5 8.85714
5306.5 20.8571
5307.5 3.71429
5308.5 10.7143
5309.5 18
5310.5 13.8571
5311.5 4.85714
5312.5 9.85714
5313.5 5.71429
5314.5 6.85714
5315.5 15.5714
5316.5 2.28571
5317.5 11.8571
5318.5 11.8571
5319.5 7.71429
5320.5 10.7143
5321.5 11.7143
5322.5 13.7143
5323.5 9.71429
5324.5 7.42857
5325.5 6.14286
5326.5 16.8571
5327.5 11.8571
5328.5 13.5714
5329.5 3
5330.5 11.8571
5331.5 8.42857
5332.5 7.57143
5333.5 7.57143
5334.5 10.4286
5335.5 12.8571
5336.5 11.7143
5337.5 10.4286
5338.5 33.8571
5339.5 24.4286
5340.5 54.7143
5341.5 97
5342.5 158.714
5343.5 335.429
5344.5 534.571
5345.5 774.143
5346.5 1147.71
5347.5 1405.86
5348.5 1603.86
5349.5 1447.57
5350.5 928.571
5351.5 506.714
5352.5 282.143
5353.5 131.857
5354.5 110.143
5355.5 77.7143
5356.5 89
5357.5 58.2857
5358.5 28.2857
5359.5 23.4286
5360.5 5.28571
5361.5 12.8571
5362.5 3.71429
5363.5 2.42857
5364.5 -2.71429
5365.5 1.71429
5366.5 0.285714
5367.5 2.85714
5368.5 -4.57143
5369.5 0.571428
5370.5 1.85714
5371.5 4
5372.5 1.71429
5373.5 1
5374.5 -0.285714
5375.5 -1.42857
5376.5 -0.142857
5377.5 2.57143
5378.5 -1.71429
5379.5 2.71429
5380.5 0.714286
5381.5 0.714286
5382.5 5
5383.5 -1.57143
5384.5 0.428571
5385.5 2.71429
5386.5 1.85714
5387.5 -5.28571
5388.5 4.57143
5389.5 0.571428
5390.5 2.85714
5391.5 -1
5392.5 -2.85714
5393.5 -4.14286
5394.5 2.42857
5395.5 -2
5396.5 -0.857143
5397.5 -5.57143
5398.5 2.57143
5399.5 -3.71429
5400.5 -0.428572
5401.5 -1.28571
5402.5 -0.428572
5403.5 0.857143
5404.5 -1.14286
5405.5 0.714286
5406.5 -0.285714
5407.5 1.85714
5408.5 4
5409.5 3
5410.5 2
5411.5 -0.285714
5412.5 3
5413.5 1.85714
5414.5 -2.28571
5415.5 0.857143
5416.5 1.85714
5417.5 0.428571
5418.5 1
5419.5 5
5420.5 0.857143
5421.5 2
5422.5 0.714286
5423.5 1.71429
5424.5 1.85714
5425.5 1.85714
5426.5 2.85714
5427.5 0.714286
5428.5 3.85714
5429.5 0.857143
5430.5 0.857143
5431.5 -0.142857
5432.5 -0.285714
5433.5 -1.28571
5434.5 -0.428572
5435.5 -0.285714
5436.5 0.857143
5437.5 0.857143
5438.5 1.71429
5439.5 1
5440.5 -1.28571
5441.5 3
5442.5 7
5443.5 1.85714
5444.5 2.71429
5445.5 -1.14286
5446.5 -2.28571
5447.5 0.857143
5448.5 0.571428
5449.5 -3.42857
5450.5 0.571428
5451.5 4
5452.5 -2.57143
5453.5 -1.42857
5454.5 -2.42857
5455.5 2.71429
5456.5 2.42857
5457.5 1.57143
5458.5 2.71429
5459.5 8
5460.5 4.71429
5461.5 -2.28571
5462.5 2.71429
5463.5 2
5464.5 0
5465.5 1.71429
5466.5 2
5467.5 1.85714
5468.5 2
5469.5 0.714286
5470.5 0.714286
5471.5 1.85714
5472.5 -2.42857
5473.5 1.85714
5474.5 -2.28571
5475.5 0.857143
5476.5 0.714286
5477.5 2
5478.5 -0.142857
5479.5 0.857143
5480.5 3
5481.5 2
5482.5 0.857143
5483.5 -0.285714
5484.5 1
5485.5 -6.85714
5486.5 0.857143
5487.5 4.85714
5488.5 0.571428
5489.5 2
5490.5 4.85714
5491.5 0.428571
5492.5 -0.428572
5493.5 3
5494.5 4
5495.5 -2.42857
5496.5 3.85714
5497.5 1
5498.5 -1.28571
5499.5 2.85714
5500.5 3.85714
5501.5 1
5502.5 0.714286
5503.5 1
5504.5 -0.285714
5505.5 2.85714
5506.5 2
5507.5 4
5508.5 2.85714
5509.5 -1.14286
5510.5 -0.142857
5511.5 -0.428572
5512.5 2.42857
5513.5 6
5514.5 2.85714
5515.5 -4.85714
5516.5 1.42857
5517.5 -0.428572
5518.5 3.71429
5519.5 1.85714
5520.5 -1.57143
5521.5 -0.285714
5522.5 -1.14286
5523.5 -1.85714
5524.5 5.85714
5525.5 3.85714
5526.5 5
5527.5 -1.42857
5528.5 0.714286
5529.5 0.714286
5530.5 -0.714286
5531.5 0.714286
5532.5 0.571428
5533.5 1.42857
5534.5 1.28571
5535.5 0.142857
5536.5 7
5537.5 1.28571
5538.5 1.14286
5539.5 5.57143
5540.5 -0.571429
5541.5 -2.28571
5542.5 2
5543.5 5.85714
5544.5 -0.571429
5545.5 -0.142857
5546.5 0.571428
5547.5 -0.142857
5548.5 -3.57143
5549.5 3
5550.5 0.857143
5551.5 0.714286
5552.5 -0.285714
5553.5 -2.28571
5554.5 3
5555.5 -4.57143
5556.5 4
5557.5 1
5558.5 -0.142857
5559.5 -1.28571
5560.5 3.85714
5561.5 4.71429
5562.5 2
5563.5 -0.428572
5564.5 3.85714
5565.5 1.57143
5566.5 2.57143
5567.5 2.85714
5568.5 4
5569.5 1.85714
5570.5 -0.142857
5571.5 4
5572.5 0.857143
5573.5 3.71429
5574.5 0.714286
5575.5 1.71429
5576.5 4
5577.5 3.85714
5578.5 2.71429
5579.5 -2.42857
5580.5 0.857143
5581.5 2.71429
5582.5 4
5583.5 4.85714
5584.5 4.85714
5585.5 2
5586.5 0.857143
5587.5 0.857143
5588.5 -0.285714
5589.5 5.71429
5590.5 -1.85714
5591.5 -3.57628e-07
5592.5 0.857142
5593.5 3.57143
5594.5 1.42857
5595.5 -5.85714
5596.5 -1.57143
5597.5 -1.42857
5598.5 -0.714286
5599.5 2
5600.5 2.85714
5601.5 1.85714
5602.5 -3.42857
5603.5 -0.285714
5604.5 1
5605.5 3
5606.5 1.85714
5607.5 4
5608.5 0.714286
5609.5 2.85714
5610.5 0.857143
5611.5 4.71429
5612.5 5
5613.5 -0.285714
5614.5 -1.42857
5615.5 0.571428
5616.5 1.57143
5617.5 2.85714
5618.5 1
5619.5 -2.42857
5620.5 -1.28571
5621.5 3
5622.5 0.857143
5623.5 -3.57143
5624.5 0.857143
5625.5 2
5626.5 2.85714
5627.5 -1.14286
5628.5 -1.42857
5629.5 -0.428572
5630.5 -1.14286
5631.5 1.71429
5632.5 -0.142857
5633.5 -0.285714
5634.5 1.85714
5635.5 0.857143
5636.5 3
5637.5 -0.142857
5638.5 1.85714
5639.5 -2.42857
5640.5 2.85714
5641.5 1.42857
5642.5 1
5643.5 0.857143
5644.5 -0.285714
5645.5 -0.285714
5646.5 2.85714
5647.5 -2.28571
5648.5 1
5649.5 -0.142857
5650.5 1
5651.5 -0.428572
5652.5 -0.142857
5653.5 3
5654.5 -0.142857
5655.5 0.857143
5656.5 3
5657.5 0.714286
5658.5 -2.42857
5659.5 3
5660.5 -4.71429
5661.5 -0.142857
5662.5 -1.42857
5663.5 2.85714
5664.5 -0.285714
5665.5 -0.142857
5666.5 1
5667.5 1
5668.5 0.714286
5669.5 0.571428
5670.5 1.85714
5671.5 1.71429
5672.5 1
5673.5 2.85714
5674.5 2.85714
5675.5 -1.14286
5676.5 2
5677.5 0.857143
5678.5 1.85714
5679.5 0.857143
5680.5 2
5681.5 1
5682.5 2
5683.5 1.85714
5684.5 2.85714
5685.5 -0.285714
5686.5 0.571428
5687.5 -3.57143
5688.5 2
5689.5 4
5690.5 -0.428572
5691.5 0
5692.5 1.85714
5693.5 -1.28571
5694.5 0.857143
5695.5 2.85714
5696.5 1
5697.5 -1.14286
5698.5 -2.42857
5699.5 3
5700.5 -0.285714
5701.5 -0.142857
5702.5 0.714286
5703.5 2
5704.5 0.714286
5705.5 -2.28571
5706.5 3
5707.5 2.85714
5708.5 -1.42857
5709.5 3
5710.5 2.71429
5711.5 1.85714
5712.5 1
5713.5 2.71429
5714.5 -1.42857
5715.5 2.71429
5716.5 1.42857
5717.5 -1.57143
5718.5 3.85714
5719.5 1
5720.5 -0.428572
5721.5 -0.142857
5722.5 -2.42857
5723.5 0.714286
5724.5 0.857143
5725.5 0.714286
5726.5 -1.28571
5727.5 0
5728.5 -1.14286
5729.5 -0.285714
5730.5 0.857143
5731.5 6
5732.5 -2.42857
5733.5 -3.57143
5734.5 1
5735.5 -1.14286
5736.5 -0.285714
5737.5 2
5738.5 -2.28571
5739.5 1
5740.5 1.85714
5741.5 -0.285714
5742.5 4
5743.5 2
5744.5 2
5745.5 1.85714
5746.5 1.71429
5747.5 1.85714
5748.5 -1.28571
5749.5 1.85714
5750.5 2
5751.5 -2.28571
5752.5 0.285714
5753.5 -0.142857
5754.5 -1.57143
5755.5 -0.285714
5756.5 -2.57143
5757.5 5
5758.5 2
5759.5 -1.42857
5760.5 -0.428572
5761.5 0.571428
5762.5 0.285714
5763.5 -1.28571
5764.5 -0.285714
5765.5 -2.28571
5766.5 0.857143
5767.5 1.85714
5768.5 0.714286
5769.5 -0.142857
5770.5 -1.14286
5771.5 -3.42857
5772.5 5.85714
5773.5 1.85714
5774.5 1
5775.5 1
5776.5 -6.85714
5777.5 -1.14286
5778.5 1
5779.5 -0.285714
5780.5 -2.57143
5781.5 7
5782.5 -1.28571
5783.5 1.71429
5784.5 0.714286
5785.5 1
5786.5 -1.28571
5787.5 0.857143
5788.5 1.71429
5789.5 -2.42857
5790.5 -0.285714
5791.5 4
5792.5 -1.42857
5793.5 2.57143
5794.5 0
5795.5 0.857143
5796.5 -1.42857
5797.5 -0.428572
5798.5 1.85714
5799.5 3
5800.5 -1.28571
5801.5 2
5802.5 4
5803.5 0.857143
5804.5 2
5805.5 -1.42857
5806.5 -1.42857
5807.5 -1.42857
5808.5 4
5809.5 1.71429
5810.5 0.857143
5811.5 -0.285714
5812.5 0.857143
5813.5 3.85714
5814.5 -0.428572
5815.5 1.85714
5816.5 2
5817.5 -0.285714
5818.5 0.857143
5819.5 4.85714
5820.5 -0.142857
5821.5 3.85714
5822.5 -2.42857
5823.5 0
5824.5 0.857143
5825.5 -2.42857
5826.5 1
5827.5 0
5828.5 -0.428572
5829.5 5.71429
5830.5 0.857143
5831.5 1.71429
5832.5 0.571428
5833.5 -0.142857
5834.5 2.85714
5835.5 2.85714
5836.5 -0.142857
5837.5 2.85714
5838.5 -0.285714
5839.5 -0.571429
5840.5 4
5841.5 -0.285714
5842.5 0.428571
5843.5 -0.285714
5844.5 0.571428
5845.5 -0.142857
5846.5 3
5847.5 2.85714
5848.5 -2.42857
5849.5 1
5850.5 -1.42857
5851.5 1
5852.5 -0.285714
5853.5 0.857143
5854.5 2
5855.5 3
5856.5 2
5857.5 0
5858.5 -0.142857
5859.5 -1.28571
5860.5 4
5861.5 -2.28571
5862.5 1
5863.5 -3.57143
5864.5 -0.428572
5865.5 0
5866.5 1.85714
5867.5 -0.285714
5868.5 -2.57143
5869.5 1.71429
5870.5 1.85714
5871.5 4
5872.5 -1.42857
5873.5 -0.142857
5874.5 -0.285714
5875.5 1
5876.5 -0.285714
5877.5 -2.28571
5878.5 -1.42857
5879.5 -1.14286
5880.5 -0.142857
5881.5 -2.28571
5882.5 3.85714
5883.5 3
5884.5 1
5885.5 -1.28571
5886.5 1.71429
5887.5 -1.42857
5888.5 -0.285714
5889.5 1.85714
5890.5 -0.142857
5891.5 1
5892.5 -1.42857
5893.5 -0.142857
5894.5 -1.28571
5895.5 1.71429
5896.5 1.85714
5897.5 6.71429
5898.5 4.28571
5899.5 -0.285715
5900.5 7
5901.5 -3.42857
5902.5 4.14286
5903.5 -1.71429
5904.5 -2.28571
5905.5 0.857143
5906.5 -1.28571
5907.5 2
5908.5 -2.57143
5909.5 1.71429
5910.5 4.85714
5911.5 6
5912.5 1
5913.5 0.857143
5914.5 2.71429
5915.5 3
5916.5 0.857143
5917.5 -0.285714
5918.5 -2.28571
5919.5 -1.28571
5920.5 0.857143
5921.5 2
5922.5 1.71429
5923.5 -0.142857
5924.5 -0.142857
5925.5 -0.142857
5926.5 -1.28571
5927.5 -0.428572
5928.5 2.85714
5929.5 -0.142857
5930.5 0.857143
5931.5 -3.85714
5932.5 1
5933.5 1
5934.5 -1.28571
5935.5 1
5936.5 -0.285714
5937.5 2
5938.5 1
5939.5 -1.42857
5940.5 -2.57143
5941.5 2
5942.5 2
5943.5 0.857143
5944.5 1.85714
5945.5 2
5946.5 0.857143
5947.5 0
5948.5 2
5949.5 -2.57143
5950.5 2
5951.5 -0.142857
5952.5 0.857143
5953.5 -1.28571
5954.5 0.714286
5955.5 1.71429
5956.5 0.857143
5957.5 -0.428572
5958.5 2
5959.5 -1.28571
5960.5 -2.57143
5961.5 -0.285714
5962.5 0.857143
5963.5 -1.57143
5964.5 6.14286
5965.5 4.42857
5966.5 -6.42857
5967.5 3.42857
5968.5 2.71429
5969.5 3.14286
5970.5 5.14286
5971.5 1.28571
5972.5 1.42857
5973.5 -0.428572
5974.5 -1.28571
5975.5 -0.285714
5976.5 2
5977.5 -0.142857
5978.5 1
5979.5 5
5980.5 0.857143
5981.5 -3.57143
5982.5 0
5983.5 0
5984.5 2
5985.5 3
5986.5 1.71429
5987.5 -3.42857
5988.5 -0.142857
5989.5 4
5990.5 2
5991.5 4.85714
5992.5 3
5993.5 3
5994.5 0.857143
5995.5 0.571428
5996.5 -2.42857
5997.5 5.57143
5998.5 -0.714286
5999.5 1.42857
6000.5 3.42857
6001.5 2.57143
6002.5 1.28571
6003.5 -2.71429
6004.5 1.85714
6005.5 2
6006.5 -2.28571
6007.5 0.857143
6008.5 2
6009.5 -3.42857
6010.5 0.857143
6011.5 4
6012.5 1.85714
6013.5 -2.42857
6014.5 -3.42857
6015.5 0.857143
6016.5 -1.28571
6017.5 4
6018.5 -0.285714
6019.5 -1.42857
6020.5 -1.28571
6021.5 0.857143
6022.5 0.857143
6023.5 -2.42857
6024.5 -1.28571
6025.5 -1.28571
6026.5 1
6027.5 -0.142857
6028.5 0
6029.5 0.857143
6030.5 6
6031.5 1.85714
6032.5 -0.428572
6033.5 0.714286
6034.5 -0.285714
6035.5 0.571428
6036.5 2.57143
6037.5 -3.71429
6038.5 1.71429
6039.5 1.85714
6040.5 1
6041.5 3
6042.5 -0.142857
6043.5 -3.42857
6044.5 -0.142857
6045.5 5
6046.5 -2.28571
6047.5 -4.57143
6048.5 1.85714
6049.5 -1.14286
6050.5 4
6051.5 4.85714
6052.5 -0.142857
6053.5 0
6054.5 1
6055.5 1
6056.5 -0.285714
6057.5 2
6058.5 2.85714
6059.5 -1.14286
6060.5 3
6061.5 0
6062.5 3
6063.5 1
6064.5 0
6065.5 -0.285714
6066.5 -1.28571
6067.5 3
6068.5 3
6069.5 -2.28571
6070.5 1
6071.5 -2.28571
6072.5 -1.28571
6073.5 -0.285714
6074.5 0.857143
6075.5 1
6076.5 0
6077.5 2
6078.5 3
6079.5 -0.142857
6080.5 -0.142857
6081.5 -1.14286
6082.5 -1.14286
6083.5 -0.285714
6084.5 -0.142857
6085.5 -1.14286
6086.5 1
6087.5 -1.14286
6088.5 3.85714
6089.5 4
6090.5 -0.142857
6091.5 0.857143
6092.5 0.857143
6093.5 3
6094.5 -0.285714
6095.5 1.85714
6096.5 0.857143
6097.5 0.857143
6098.5 4
6099.5 0
6100.5 2
6101.5 1.71429
6102.5 -4.85714
6103.5 2
6104.5 0
6105.5 -1.14286
6106.5 3
6107.5 1.85714
6108.5 -0.142857
6109.5 4.71429
6110.5 -2.42857
6111.5 3.71429
6112.5 -3.57143
6113.5 5
6114.5 -0.285714
6115.5 2.85714
6116.5 -3.42857
6117.5 5
6118.5 -0.142857
6119.5 3
6120.5 2
6121.5 2.71429
6122.5 5
6123.5 0.714286
6124.5 3.42857
6125.5 -3.14286
6126.5 3
6127.5 -1.42857
6128.5 1
6129.5 -1.14286
6130.5 1
6131.5 -1.28571
6132.5 -1.14286
6133.5 0.857143
6134.5 5
6135.5 0.714286
6136.5 3
6137.5 1
6138.5 1.85714
6139.5 -0.142857
6140.5 5
6141.5 -1.42857
6142.5 -0.142857
6143.5 0
6144.5 0.857143
6145.5 1
6146.5 -0.142857
6147.5 -1.14286
6148.5 -0.142857
6149.5 1
6150.5 3
6151.5 -1.14286
6152.5 -0.142857
6153.5 1
6154.5 2
6155.5 0
6156.5 2.71429
6157.5 1
6158.5 -0.142857
6159.5 -0.142857
6160.5 1.85714
6161.5 0.857143
6162.5 -3.42857
6163.5 -0.142857
6164.5 0.857143
6165.5 1
6166.5 2
6167.5 -1.14286
6168.5 0.857143
6169.5 0.857143
6170.5 2
6171.5 0
6172.5 -1.28571
6173.5 -0.142857
6174.5 2
6175.5 -1.28571
6176.5 -1.57143
6177.5 0
6178.5 1
6179.5 -1.28571
6180.5 1.85714
6181.5 1.85714
6182.5 2
6183.5 -0.142857
6184.5 -1.28571
6185.5 -0.285714
6186.5 -0.142857
6187.5 -1.28571
6188.5 2
6189.5 -0.142857
6190.5 -0.142857
6191.5 -2.42857
6192.5 0.857143
6193.5 -2.57143
6194.5 4
6195.5 1
6196.5 0
6197.5 -0.142857
6198.5 -1.14286
6199.5 -1.28571
6200.5 1.85714
6201.5 1.85714
6202.5 0.857143
6203.5 0.714286
6204.5 -0.285714
6205.5 -3.42857
6206.5 2
6207.5 1.85714
6208.5 4
6209.5 -1.14286
6210.5 -1.28571
6211.5 0.857143
6212.5 2
6213.5 5
6214.5 3
6215.5 1
6216.5 -2.28571
6217.5 0.714286
6218.5 -0.142857
6219.5 1
6220.5 2
6221.5 2.85714
6222.5 0.857143
6223.5 3.85714
6224.5 1.71429
6225.5 -4.71429
6226.5 2
6227.5 -1.14286
6228.5 1
6229.5 1
6230.5 1
6231.5 0.857143
6232.5 1.85714
6233.5 2
6234.5 -3.42857
6235.5 2.85714
6236.5 -1.14286
6237.5 -0.142857
6238.5 -0.285714
6239.5 0
6240.5 -1.28571
6241.5 -1.14286
6242.5 0
6243.5 4.85714
6244.5 -0.142857
6245.5 0
6246.5 1
6247.5 2
6248.5 0
6249.5 1
6250.5 0.714286
6251.5 -3.42857
6252.5 -3.42857
6253.5 0.857143
6254.5 -1.42857
6255.5 2.85714
6256.5 3
6257.5 0
6258.5 -1.28571
6259.5 1.85714
6260.5 -0.142857
6261.5 2
6262.5 -1.28571
6263.5 -1.28571
6264.5 1
6265.5 0.857143
6266.5 -1.14286
6267.5 -0.142857
6268.5 -0.142857
6269.5 -1.14286
6270.5 0
6271.5 0
6272.5 0.857143
6273.5 1.57143
6274.5 2.85714
6275.5 -1.28571
6276.5 -1.28571
6277.5 -1.14286
6278.5 -0.285714
6279.5 0.714286
6280.5 -1.28571
6281.5 0
6282.5 0.857143
6283.5 2
6284.5 0
6285.5 1
6286.5 0.857143
6287.5 1.85714
6288.5 0
6289.5 0
6290.5 -1.14286
6291.5 -1.14286
6292.5 -0.142857
6293.5 4
6294.5 1
6295.5 1.71429
6296.5 -0.142857
6297.5 -0.142857
6298.5 0
6299.5 2
6300.5 -0.285714
6301.5 0
6302.5 -1.42857
6303.5 1
6304.5 1
6305.5 -2.28571
6306.5 1.85714
6307.5 0
6308.5 -1.14286
6309.5 -2.28571
6310.5 -1.14286
6311.5 1.85714
6312.5 2
6313.5 0
6314.5 -2.42857
6315.5 0
6316.5 0.857143
6317.5 3
6318.5 -0.142857
6319.5 0
6320.5 0
6321.5 2
6322.5 -0.285714
6323.5 2.85714
6324.5 1
6325.5 3
6326.5 -0.142857
6327.5 0.857143
6328.5 -2.57143
6329.5 1
6330.5 1.71429
6331.5 1.85714
6332.5 -0.142857
6333.5 0.857143
6334.5 -0.142857
6335.5 1
6336.5 3
6337.5 -1.14286
6338.5 1.85714
6339.5 -0.285714
6340.5 2
6341.5 4
6342.5 0
6343.5 2
6344.5 -1.14286
6345.5 1
6346.5 2
6347.5 1.85714
6348.5 4
6349.5 1
6350.5 2
6351.5 1
6352.5 2.85714
6353.5 2
6354.5 3
6355.5 0
6356.5 -2.42857
6357.5 0
6358.5 -1.14286
6359.5 1
6360.5 2
6361.5 -0.285714
6362.5 -1.28571
6363.5 0
6364.5 -1.14286
6365.5 3
6366.5 2
6367.5 1
6368.5 -2.28571
6369.5 -1.14286
6370.5 1
6371.5 2
6372.5 1
6373.5 1.85714
6374.5 -0.285714
6375.5 0
6376.5 1
6377.5 1
6378.5 1
6379.5 -0.142857
6380.5 -1.14286
6381.5 0
6382.5 1.85714
6383.5 -0.285714
6384.5 -3.42857
6385.5 0.857143
6386.5 2
6387.5 -1.28571
6388.5 0
6389.5 1
6390.5 -1.14286
6391.5 0
6392.5 1
6393.5 1
6394.5 -0.142857
6395.5 -0.142857
6396.5 0
6397.5 0
6398.5 2
6399.5 -0.142857
6400.5 -1.28571
6401.5 1
6402.5 -2.28571
6403.5 2
6404.5 0
6405.5 -1.14286
6406.5 0
6407.5 1
6408.5 -0.285714
6409.5 1.85714
6410.5 0
6411.5 1
6412.5 3
6413.5 0
6414.5 -0.142857
6415.5 0.857143
6416.5 0
6417.5 0
6418.5 3
6419.5 -1.28571
6420.5 1
6421.5 2
6422.5 -0.142857
6423.5 -1.28571
6424.5 -0.142857
6425.5 2
6426.5 -2.42857
6427.5 0
6428.5 1
6429.5 1
6430.5 2
6431.5 -0.142857
6432.5 2
6433.5 3
6434.5 4
6435.5 1
6436.5 0
6437.5 -1.14286
6438.5 -0.285714
6439.5 -0.285714
6440.5 1
6441.5 -2.28571
6442.5 1
6443.5 1
6444.5 1
6445.5 0
6446.5 0
6447.5 0
6448.5 1.85714
6449.5 -0.142857
6450.5 -1.28571
6451.5 -0.285714
6452.5 -0.142857
6453.5 1
6454.5 2
6455.5 -2.28571
6456.5 1
6457.5 -1.14286
6458.5 0
6459.5 0
6460.5 1
6461.5 -0.142857
6462.5 2
6463.5 1
6464.5 -0.142857
6465.5 1
6466.5 -1.14286
6467.5 -0.142857
6468.5 0.857143
6469.5 2
6470.5 0.571428
6471.5 -1.14286
6472.5 -3.71429
6473.5 -2.57143
6474.5 -0.142857
6475.5 -1
6476.5 -1.14286
6477.5 -3.14286
6478.5 15
6479.5 -3.85714
6480.5 -2.14286
6481.5 11.1429
6482.5 3.57143
6483.5 4.42857
6484.5 -7
6485.5 -2.28571
6486.5 4
6487.5 -1.28571
6488.5 -1.14286
6489.5 1
6490.5 1
6491.5 -0.142857
6492.5 0
6493.5 1
6494.5 -0.142857
6495.5 2
6496.5 1
6497.5 1
6498.5 5
6499.5 -0.142857
6500.5 1.85714
6501.5 2.85714
6502.5 2
6503.5 4.71429
6504.5 6
6505.5 -0.142857
6506.5 1
6507.5 0.857143
6508.5 0
6509.5 0
6510.5 0.857143
6511.5 1.85714
6512.5 1
6513.5 -0.142857
6514.5 0
6515.5 0
6516.5 0
6517.5 -0.142857
6518.5 -1.14286
6519.5 0
6520.5 0
6521.5 0
6522.5 0
6523.5 0
6524.5 0
6525.5 -1.14286
6526.5 1
6527.5 -1.14286
6528.5 -1.14286
6529.5 1
6530.5 0
6531.5 2
6532.5 0
6533.5 1
6534.5 0
6535.5 1
6536.5 -0.142857
6537.5 0.857143
6538.5 -1.14286
6539.5 0
6540.5 -0.142857
6541.5 2
6542.5 0
6543.5 4
6544.5 -1.14286
6545.5 -2.42857
6546.5 2.71429
6547.5 1.85714
6548.5 -0.142857
6549.5 0
6550.5 1
6551.5 1
6552.5 0
6553.5 -0.142857
6554.5 2
6555.5 0
6556.5 -0.142857
6557.5 -0.142857
6558.5 -2.28571
6559.5 2
6560.5 0
6561.5 1
6562.5 0
6563.5 -1.14286
6564.5 -1.28571
6565.5 1
6566.5 1
6567.5 1
6568.5 -0.142857
6569.5 -0.142857
6570.5 0
6571.5 0
6572.5 0
6573.5 1
6574.5 0
6575.5 0
6576.5 0
6577.5 1
6578.5 -0.142857
6579.5 1
6580.5 0
6581.5 2
6582.5 0
6583.5 1
6584.5 -1.14286
6585.5 -1.14286
6586.5 1
6587.5 -1.14286
6588.5 -1.14286
6589.5 -1.28571
6590.5 -1.14286
6591.5 -0.142857
6592.5 0.857143
6593.5 1
6594.5 0
6595.5 2
6596.5 0
6597.5 -1.42857
6598.5 -1.14286
6599.5 1
6600.5 -0.142857
6601.5 -0.142857
6602.5 2
6603.5 0
6604.5 0
6605.5 0
6606.5 0
6607.5 0
6608.5 1
6609.5 -0.142857
6610.5 0
6611.5 0
6612.5 0
6613.5 2
6614.5 2
6615.5 0.857143
6616.5 3
6617.5 1
6618.5 2
6619.5 0
6620.5 0
6621.5 2
6622.5 -0.142857
6623.5 0
6624.5 0
6625.5 0
6626.5 1
6627.5 0.857143
6628.5 0
6629.5 0
6630.5 0
6631.5 0
6632.5 -0.142857
6633.5 1
6634.5 2
6635.5 0
6636.5 0
6637.5 -1.14286
6638.5 0
6639.5 0
6640.5 -2.28571
6641.5 0
6642.5 1
6643.5 2
6644.5 -2.42857
6645.5 0
6646.5 0
6647.5 2
6648.5 0
6649.5 0
6650.5 -0.142857
6651.5 0.857143
6652.5 1
6653.5 1
6654.5 1
6655.5 -1.14286
6656.5 0
6657.5 -1.14286
6658.5 -0.142857
6659.5 1
6660.5 0
6661.5 0
6662.5 -1.14286
6663.5 2
6664.5 0
6665.5 2
6666.5 0
6667.5 -1.14286
6668.5 0
6669.5 0
6670.5 2
6671.5 -1.14286
6672.5 0
6673.5 1
6674.5 1
6675.5 0
6676.5 0
6677.5 0
6678.5 1
6679.5 0
6680.5 -1.14286
6681.5 0
6682.5 0
6683.5 0
6684.5 0
6685.5 0
6686.5 0
6687.5 0
6688.5 1
6689.5 1
6690.5 1
6691.5 2
6692.5 -1.14286
6693.5 2
6694.5 3
6695.5 2
6696.5 2
6697.5 -1.28571
6698.5 0
6699.5 -1.14286
6700.5 1.85714
6701.5 1
6702.5 1
6703.5 -1.14286
6704.5 0
6705.5 0
6706.5 0
6707.5 2
6708.5 1
6709.5 0
6710.5 -0.142857
6711.5 0
6712.5 1
6713.5 1
6714.5 -1.14286
6715.5 0
6716.5 0.857143
6717.5 -1.28571
6718.5 0
6719.5 0
6720.5 1
6721.5 1
6722.5 1
6723.5 0
6724.5 0.857143
6725.5 -1.14286
6726.5 0
6727.5 -1.28571
6728.5 0
6729.5 1
6730.5 0
6731.5 0
6732.5 0
6733.5 0
6734.5 2
6735.5 0
6736.5 -1.14286
6737.5 -0.142857
6738.5 0
6739.5 2
6740.5 0
6741.5 2
6742.5 1
6743.5 1
6744.5 -0.142857
6745.5 1
6746.5 0
6747.5 1
6748.5 1
6749.5 1
6750.5 -1.14286
6751.5 0
6752.5 -1.14286
6753.5 -1.14286
6754.5 0
6755.5 1
6756.5 -2.28571
6757.5 -0.142857
6758.5 1
6759.5 -2.28571
6760.5 0
6761.5 -2.28571
6762.5 0
6763.5 0
6764.5 -1.14286
6765.5 0
6766.5 3
6767.5 -1.14286
6768.5 1
6769.5 -0.142857
6770.5 -0.285714
6771.5 1
6772.5 -2.42857
6773.5 2
6774.5 1
6775.5 0
6776.5 1
6777.5 1
6778.5 2
6779.5 0
6780.5 -1.28571
6781.5 1
6782.5 1
6783.5 1
6784.5 -1.14286
6785.5 0
6786.5 1
6787.5 1
6788.5 0
6789.5 1
6790.5 0
6791.5 -1.14286
6792.5 -0.142857
6793.5 0
6794.5 1
6795.5 0
6796.5 -1.14286
6797.5 0
6798.5 0
6799.5 0
6800.5 0
6801.5 1
6802.5 0
6803.5 0
6804.5 1
6805.5 1
6806.5 2
6807.5 1
6808.5 1
6809.5 1
6810.5 0
6811.5 2
6812.5 0
6813.5 1
6814.5 0
6815.5 1
6816.5 0
6817.5 0
6818.5 -1.14286
6819.5 0
6820.5 0
6821.5 1
6822.5 0
6823.5 1
6824.5 -1.14286
6825.5 1
6826.5 0
6827.5 -1.14286
6828.5 1
6829.5 0
6830.5 0.857143
6831.5 1
6832.5 -1.14286
6833.5 0
6834.5 0
6835.5 1
6836.5 1
6837.5 0
6838.5 -2.28571
6839.5 0.857143
6840.5 0
6841.5 3
6842.5 0.857143
6843.5 -0.142857
6844.5 1
6845.5 1
6846.5 1
6847.5 0
6848.5 0
6849.5 0
6850.5 0
6851.5 -1.14286
6852.5 0
6853.5 0
6854.5 -2.28571
6855.5 1
6856.5 -1.14286
6857.5 0
6858.5 0
6859.5 0
6860.5 0
6861.5 1
6862.5 0
6863.5 -1.14286
6864.5 0
6865.5 0
6866.5 1
6867.5 -0.142857
6868.5 0
6869.5 0
6870.5 -0.142857
6871.5 -1.14286
6872.5 -0.285714
6873.5 0.857143
6874.5 0
6875.5 -1.14286
6876.5 1
6877.5 2
6878.5 0.857143
6879.5 0
6880.5 1
6881.5 -0.142857
6882.5 0
6883.5 1
6884.5 1
6885.5 3
6886.5 0
6887.5 1
6888.5 -1.14286
6889.5 0
6890.5 0
6891.5 0
6892.5 1
6893.5 2
6894.5 0
6895.5 -2.28571
6896.5 0
6897.5 0
6898.5 0
6899.5 0
6900.5 2
6901.5 1
6902.5 3
6903.5 -0.142857
6904.5 1
6905.5 -0.142857
6906.5 -1.14286
6907.5 -0.142857
6908.5 0
6909.5 -0.142857
6910.5 -1.14286
6911.5 -1.14286
6912.5 0
6913.5 0
6914.5 2
6915.5 0
6916.5 0
6917.5 1
6918.5 -1.14286
6919.5 0
6920.5 1
6921.5 0
6922.5 0
6923.5 0
6924.5 1
6925.5 0
6926.5 1
6927.5 -1.14286
6928.5 1
6929.5 0
6930.5 -1.14286
6931.5 0
6932.5 0
6933.5 1
6934.5 1
6935.5 1.85714
6936.5 -2.42857
6937.5 0
6938.5 -1.14286
6939.5 0
6940.5 0
6941.5 -1.14286
6942.5 1
6943.5 1
6944.5 0
6945.5 1
6946.5 1
6947.5 0
6948.5 0
6949.5 0
6950.5 0
6951.5 -1.14286
6952.5 2
6953.5 -0.142857
6954.5 -1.14286
6955.5 -1.14286
6956.5 0
6957.5 0
6958.5 0
6959.5 1
6960.5 1
6961.5 -1.14286
6962.5 1
6963.5 1
6964.5 0
6965.5 0
6966.5 0
6967.5 1
6968.5 2
6969.5 0
6970.5 0
6971.5 2
6972.5 1
6973.5 0
6974.5 0
6975.5 0
6976.5 0
6977.5 0
6978.5 0
6979.5 0
6980.5 1
6981.5 1
6982.5 -1.14286
6983.5 -1.14286
6984.5 1
6985.5 0
6986.5 1
6987.5 -1.28571
6988.5 -1.14286
6989.5 -0.142857
6990.5 0
6991.5 -1.14286
6992.5 -2.28571
6993.5 0
6994.5 0
6995.5 0
6996.5 1
6997.5 0
6998.5 0
6999.5 0
7000.5 0
7001.5 0
7002.5 -1.14286
7003.5 0
7004.5 1
7005.5 0
7006.5 0
7007.5 0
7008.5 -1.14286
7009.5 0
7010.5 0
7011.5 0
7012.5 0
7013.5 2
7014.5 -0.142857
7015.5 0
7016.5 0
7017.5 0
7018.5 0
7019.5 0
7020.5 -0.142857
7021.5 0
7022.5 0
7023.5 0
7024.5 0
7025.5 0
7026.5 0
7027.5 1
7028.5 1
7029.5 -0.142857
7030.5 2
7031.5 1
7032.5 -1.14286
7033.5 -2.28571
7034.5 -0.142857
7035.5 0
7036.5 0
7037.5 0
7038.5 0
7039.5 -2.42857
7040.5 0
7041.5 -1.14286
7042.5 -1.14286
7043.5 1
7044.5 0
7045.5 0
7046.5 0
7047.5 0
7048.5 -3.42857
7049.5 0
7050.5 -1.14286
7051.5 0
7052.5 -1.14286
7053.5 -0.142857
7054.5 0
7055.5 0
7056.5 1
7057.5 0
7058.5 1
7059.5 1
7060.5 -0.142857
7061.5 -1.14286
7062.5 -1.14286
7063.5 -1.14286
7064.5 -0.142857
7065.5 1
7066.5 0
7067.5 1
7068.5 1
7069.5 0
7070.5 0
7071.5 0
7072.5 0
7073.5 0
7074.5 2
7075.5 -1.14286
7076.5 0
7077.5 0
7078.5 0
7079.5 -1.14286
7080.5 -1.14286
7081.5 0
7082.5 0
7083.5 -0.142857
7084.5 0
7085.5 0
7086.5 0.857143
7087.5 0
7088.5 0
7089.5 1
7090.5 0
7091.5 1
7092.5 1
7093.5 1
7094.5 1
7095.5 -1.14286
7096.5 1
7097.5 0
7098.5 0
7099.5 1
7100.5 1
7101.5 -0.285714
7102.5 0
7103.5 0
7104.5 -1.14286
7105.5 0
7106.5 1
7107.5 -1.14286
7108.5 -1.14286
7109.5 1
7110.5 0
7111.5 -1.14286
7112.5 0
7113.5 0
7114.5 0
7115.5 0
7116.5 0
7117.5 -0.142857
7118.5 -0.142857
7119.5 0
7120.5 0
7121.5 -1.14286
7122.5 0
7123.5 0
7124.5 0
7125.5 0
7126.5 -3.42857
7127.5 0
7128.5 0
7129.5 0
7130.5 1
7131.5 0
7132.5 2
7133.5 0
7134.5 2
7135.5 -0.142857
7136.5 0
7137.5 -1.14286
7138.5 1
7139.5 -2.28571
7140.5 0
7141.5 0
7142.5 0
7143.5 1
7144.5 1
7145.5 2
7146.5 -0.142857
7147.5 0
7148.5 0
7149.5 0
7150.5 1
7151.5 1
7152.5 1
7153.5 -1.14286
7154.5 0
7155.5 1
7156.5 0
7157.5 1
7158.5 -1.14286
7159.5 1
7160.5 1
7161.5 0
7162.5 0
7163.5 0
7164.5 -1.14286
7165.5 1
7166.5 0
7167.5 0
7168.5 -0.142857
7169.5 0
7170.5 -1.14286
7171.5 0
7172.5 0
7173.5 1
7174.5 0
7175.5 1
7176.5 1
7177.5 1
7178.5 0
7179.5 -2.28571
7180.5 1
7181.5 0
7182.5 0
7183.5 1
7184.5 0
7185.5 0
7186.5 0
7187.5 0
7188.5 -0.142857
7189.5 0
7190.5 0
7191.5 0
7192.5 0
7193.5 -0.142857
7194.5 -1.14286
7195.5 -1.14286
7196.5 -1.14286
7197.5 -1.14286
7198.5 2
7199.5 -1.14286
7200.5 0
7201.5 1
7202.5 0
7203.5 0
7204.5 1
7205.5 2
7206.5 0.857143
7207.5 -0.142857
7208.5 0
7209.5 1
7210.5 -0.142857
7211.5 1
7212.5 -0.142857
7213.5 1
7214.5 1
7215.5 2
7216.5 0
7217.5 0
7218.5 0
7219.5 0
7220.5 0
7221.5 0
7222.5 0
7223.5 1
7224.5 1
7225.5 0
7226.5 0
7227.5 1
7228.5 -1.14286
7229.5 1
7230.5 0
7231.5 0
7232.5 -1.14286
7233.5 0
7234.5 0
7235.5 -1.14286
7236.5 0
7237.5 -0.142857
7238.5 1
7239.5 0
7240.5 0
7241.5 0
7242.5 0
7243.5 0
7244.5 0
7245.5 -1.14286
7246.5 0
7247.5 -1.14286
7248.5 0
7249.5 0
7250.5 -1.14286
7251.5 0
7252.5 -1.28571
7253.5 1
7254.5 1
7255.5 0
7256.5 0
7257.5 0
7258.5 1
7259.5 0.857143
7260.5 1
7261.5 0
7262.5 0.857143
7263.5 -2.28571
7264.5 2
7265.5 0
7266.5 -0.142857
7267.5 0
7268.5 0
7269.5 1
7270.5 0
7271.5 -1.14286
7272.5 1
7273.5 1
7274.5 1
7275.5 1
7276.5 0
7277.5 -0.142857
7278.5 0
7279.5 -0.142857
7280.5 1
7281.5 -2.28571
7282.5 0
7283.5 0
7284.5 0
7285.5 0
7286.5 0
7287.5 1
7288.5 0
7289.5 0
7290.5 0
7291.5 1
7292.5 0
7293.5 0
7294.5 0
7295.5 0
7296.5 0
7297.5 -0.142857
7298.5 0
7299.5 1
7300.5 0
7301.5 0
7302.5 1
7303.5 0
7304.5 0
7305.5 0
7306.5 0
7307.5 0
7308.5 1
7309.5 1
7310.5 -3.42857
7311.5 0
7312.5 0
7313.5 0.857143
7314.5 0
7315.5 -0.142857
7316.5 -0.142857
7317.5 0
7318.5 0
7319.5 -2.28571
7320.5 0
7321.5 -1.14286
7322.5 0
7323.5 0
7324.5 1
7325.5 -0.142857
7326.5 0
7327.5 1
7328.5 1
7329.5 0
7330.5 0
7331.5 0
7332.5 0
7333.5 0
7334.5 1
7335.5 0
7336.5 0
7337.5 -1.14286
7338.5 0
7339.5 0
7340.5 0
7341.5 2
7342.5 0
7343.5 0
7344.5 -1.14286
7345.5 -0.142857
7346.5 0
7347.5 1
7348.5 0
7349.5 0
7350.5 0
7351.5 -0.142857
7352.5 0
7353.5 2
7354.5 0
7355.5 0
7356.5 -0.142857
7357.5 1
7358.5 1
7359.5 0
7360.5 -0.142857
7361.5 -1.14286
7362.5 0
7363.5 -1.14286
7364.5 0
7365.5 1
7366.5 1
7367.5 0
7368.5 0
7369.5 1
7370.5 0
7371.5 0
7372.5 1
7373.5 0
7374.5 1
7375.5 0
7376.5 0
7377.5 0
7378.5 1
7379.5 1
7380.5 -2.28571
7381.5 0
7382.5 1
7383.5 1
7384.5 -0.142857
7385.5 0
7386.5 2
7387.5 3
7388.5 0
7389.5 0
7390.5 0
7391.5 0
7392.5 0
7393.5 -1.14286
7394.5 0
7395.5 0
7396.5 1
7397.5 0
7398.5 0
7399.5 1
7400.5 0
7401.5 0
7402.5 0
7403.5 1
7404.5 0
7405.5 0
7406.5 1
7407.5 1
7408.5 0
7409.5 0
7410.5 0.857143
7411.5 -0.142857
7412.5 2
7413.5 -1.14286
7414.5 1
7415.5 0.428571
7416.5 0.714286
7417.5 0.857143
7418.5 -1.14286
7419.5 0
7420.5 2
7421.5 2
7422.5 0
7423.5 0
7424.5 0
7425.5 0
7426.5 0
7427.5 0
7428.5 0
7429.5 0
7430.5 0
7431.5 0
7432.5 0
7433.5 0
7434.5 0
7435.5 0
7436.5 0
7437.5 -1.14286
7438.5 0
7439.5 0
7440.5 0
7441.5 0
7442.5 2
7443.5 0
7444.5 0
7445.5 0
7446.5 0
7447.5 0
7448.5 0
7449.5 1
7450.5 -1.14286
7451.5 0
7452.5 -1.14286
7453.5 1
7454.5 0
7455.5 0
7456.5 -1.14286
7457.5 1
7458.5 1
7459.5 0
7460.5 1
7461.5 -0.142857
7462.5 -1.14286
7463.5 -1.14286
7464.5 0
7465.5 0
7466.5 0
7467.5 0
7468.5 -1.14286
7469.5 0
7470.5 0
7471.5 -0.142857
7472.5 0
7473.5 0
7474.5 0
7475.5 0
7476.5 -1.14286
7477.5 0
7478.5 0
7479.5 0
7480.5 -1.14286
7481.5 1
7482.5 0
7483.5 1
7484.5 1
7485.5 0
7486.5 0
7487.5 0
7488.5 0
7489.5 0
7490.5 0
7491.5 1
7492.5 1
7493.5 0
7494.5 -1.14286
7495.5 0
7496.5 0
7497.5 0
7498.5 -1.14286
7499.5 0
7500.5 0
7501.5 0
7502.5 0
7503.5 1
7504.5 0
7505.5 1
7506.5 0
7507.5 1
7508.5 -1.14286
7509.5 1
7510.5 0
7511.5 0
7512.5 0.857143
7513.5 0
7514.5 0
7515.5 0
7516.5 2
7517.5 1
7518.5 0
7519.5 0
7520.5 0
7521.5 0
7522.5 0
7523.5 1
7524.5 0
7525.5 0
7526.5 0
7527.5 -1.14286
7528.5 0
7529.5 0
7530.5 0
7531.5 -1.14286
7532.5 0
7533.5 0
7534.5 0
7535.5 0
7536.5 0
7537.5 0
7538.5 0
7539.5 0
7540.5 0
7541.5 0
7542.5 0
7543.5 0
7544.5 0
7545.5 0
7546.5 1
7547.5 0
7548.5 1
7549.5 0
7550.5 1
7551.5 0
7552.5 0
7553.5 0
7554.5 0
7555.5 1
7556.5 -3.42857
7557.5 1
7558.5 -1.14286
7559.5 0
7560.5 0
7561.5 0
7562.5 -1.14286
7563.5 0
7564.5 0
7565.5 -1.14286
7566.5 0
7567.5 0
7568.5 1
7569.5 -1.14286
7570.5 0
7571.5 0
7572.5 0
7573.5 0
7574.5 -0.142857
7575.5 0
7576.5 -1.14286
7577.5 0
7578.5 0
7579.5 0
7580.5 1
7581.5 -1.14286
7582.5 0
7583.5 0
7584.5 0
7585.5 0
7586.5 0
7587.5 2
7588.5 0
7589.5 -1.14286
7590.5 1
7591.5 0
7592.5 -0.142857
7593.5 0
7594.5 0
7595.5 1
7596.5 -1.14286
7597.5 -1.14286
7598.5 0
7599.5 0
7600.5 0
7601.5 1
7602.5 0
7603.5 0
7604.5 0
7605.5 -0.142857
7606.5 0
7607.5 0
7608.5 0
7609.5 0
7610.5 0
7611.5 -1.14286
7612.5 0
7613.5 -1.14286
7614.5 0
7615.5 -1.14286
7616.5 -0.142857
7617.5 0
7618.5 0
7619.5 0
7620.5 0
7621.5 0
7622.5 1
7623.5 0
7624.5 -0.142857
7625.5 0
7626.5 0
7627.5 0
7628.5 0
7629.5 0
7630.5 1
7631.5 1
7632.5 0
7633.5 2
7634.5 -2.28571
7635.5 -1.14286
7636.5 0
7637.5 1
7638.5 0
7639.5 1
7640.5 0
7641.5 0
7642.5 0
7643.5 -0.142857
7644.5 -0.142857
7645.5 -1.14286
7646.5 -1.14286
7647.5 1
7648.5 1
7649.5 1
7650.5 -0.142857
7651.5 0
7652.5 0
7653.5 -1.14286
7654.5 0
7655.5 0
7656.5 0
7657.5 1
7658.5 0
7659.5 0
7660.5 0
7661.5 0
7662.5 1
7663.5 0
7664.5 0
7665.5 1
7666.5 1
7667.5 0
7668.5 1
7669.5 -1.14286
7670.5 0
7671.5 0
7672.5 0
7673.5 1
7674.5 1
7675.5 0
7676.5 0
7677.5 0
7678.5 0
7679.5 -1.14286
7680.5 0
7681.5 0
7682.5 0
7683.5 1
7684.5 0
7685.5 0
7686.5 0
7687.5 -1.14286
7688.5 0
7689.5 0
7690.5 0
7691.5 0
7692.5 0
7693.5 0
7694.5 0
7695.5 1
7696.5 0
7697.5 -1.14286
7698.5 0
7699.5 0
7700.5 -1.14286
7701.5 0
7702.5 1
7703.5 0
7704.5 0
7705.5 0
7706.5 0
7707.5 -1.14286
7708.5 1
7709.5 0
7710.5 0
7711.5 0
7712.5 0
7713.5 0
7714.5 0
7715.5 1
7716.5 0
7717.5 0
7718.5 0
7719.5 -1.14286
7720.5 0
7721.5 1
7722.5 0
7723.5 0
7724.5 1
7725.5 -1.14286
7726.5 -0.142857
7727.5 0
7728.5 0
7729.5 -1.14286
7730.5 -1.14286
7731.5 -1.14286
7732.5 0
7733.5 0
7734.5 1
7735.5 0
7736.5 0
7737.5 0
7738.5 0
7739.5 0
7740.5 0
7741.5 0
7742.5 0
7743.5 0
7744.5 0
7745.5 0
7746.5 0
7747.5 1
7748.5 0
7749.5 -1.14286
7750.5 0
7751.5 0
7752.5 0
7753.5 0
7754.5 0
7755.5 1
7756.5 -1.14286
7757.5 1
7758.5 1
7759.5 0
7760.5 1
7761.5 0
7762.5 1
7763.5 0
7764.5 0
7765.5 -1.28571
7766.5 1
7767.5 0
7768.5 -1.14286
7769.5 2
7770.5 -0.142857
7771.5 1
7772.5 0.714286
7773.5 -1.28571
7774.5 1.71429
7775.5 0
7776.5 -1.14286
7777.5 -0.142857
7778.5 1
7779.5 1
7780.5 0
7781.5 0
7782.5 -1.14286
7783.5 1
7784.5 0
7785.5 0
7786.5 0
7787.5 0
7788.5 -1.14286
7789.5 0
7790.5 0
7791.5 0
7792.5 1
7793.5 0
7794.5 0
7795.5 1
7796.5 -1.14286
7797.5 0
7798.5 0
7799.5 0
7800.5 1
7801.5 0
7802.5 0
7803.5 1
7804.5 0
7805.5 0
7806.5 0
7807.5 0
7808.5 0
7809.5 1
7810.5 0
7811.5 -1.14286
7812.5 0
7813.5 0
7814.5 0
7815.5 -1.14286
7816.5 0
7817.5 0
7818.5 -1.14286
7819.5 1
7820.5 0
7821.5 0
7822.5 0
7823.5 0
7824.5 1
7825.5 0
7826.5 0
7827.5 0
7828.5 1
7829.5 -1.14286
7830.5 -2.28571
7831.5 0
7832.5 -0.142857
7833.5 0
7834.5 1
7835.5 0
7836.5 0
7837.5 0
7838.5 0
7839.5 0
7840.5 1
7841.5 0
7842.5 0
7843.5 0
7844.5 -1.14286
7845.5 -1.14286
7846.5 1
7847.5 -1.14286
7848.5 -1.14286
7849.5 0
7850.5 0
7851.5 0
7852.5 0
7853.5 0
7854.5 0
7855.5 0
7856.5 -1.14286
7857.5 0
7858.5 0
7859.5 0
7860.5 0
7861.5 1
7862.5 0
7863.5 0
7864.5 0
7865.5 0
7866.5 -0.142857
7867.5 0
7868.5 0
7869.5 0
7870.5 -1.14286
7871.5 -1.14286
7872.5 0
7873.5 0
7874.5 0
7875.5 0
7876.5 0
7877.5 -1.14286
7878.5 1
7879.5 0
7880.5 0
7881.5 0
7882.5 -1.14286
7883.5 0
7884.5 0
7885.5 0
7886.5 -1.14286
7887.5 0
7888.5 0
7889.5 0
7890.5 0
7891.5 0
7892.5 0
7893.5 -1.14286
7894.5 0
7895.5 0
7896.5 -1.14286
7897.5 1
7898.5 0
7899.5 0
7900.5 0
7901.5 -1.14286
7902.5 0
7903.5 0
7904.5 0
7905.5 0
7906.5 0
7907.5 0
7908.5 0
7909.5 0
7910.5 -1.14286
7911.5 0
7912.5 0
7913.5 0
7914.5 0
7915.5 -1.14286
7916.5 0
7917.5 0
7918.5 1
7919.5 1
7920.5 0
7921.5 0
7922.5 0
7923.5 0
7924.5 0
7925.5 0
7926.5 0
7927.5 0
7928.5 0
7929.5 1
7930.5 0
7931.5 0
7932.5 0
7933.5 0
7934.5 1
7935.5 -1.14286
7936.5 0
7937.5 0
7938.5 -1.14286
7939.5 0
7940.5 -1.14286
7941.5 0
7942.5 0
7943.5 0
7944.5 0
7945.5 0
7946.5 0
7947.5 0
7948.5 0
7949.5 -1.14286
7950.5 0
7951.5 0
7952.5 0
7953.5 0
7954.5 0
7955.5 0
7956.5 0
7957.5 1
7958.5 1
7959.5 0
7960.5 0
7961.5 0
7962.5 1
7963.5 1
7964.5 -1.14286
7965.5 0
7966.5 0
7967.5 0
7968.5 -1.14286
7969.5 0
7970.5 0
7971.5 0
7972.5 0
7973.5 0
7974.5 0
7975.5 1
7976.5 1
7977.5 0.857143
7978.5 1
7979.5 -1.14286
7980.5 0
7981.5 0
7982.5 -1.14286
7983.5 0
7984.5 0
7985.5 0
7986.5 0
7987.5 0
7988.5 0
7989.5 0
7990.5 0
7991.5 0
7992.5 0
7993.5 0
7994.5 0
7995.5 0
7996.5 0
7997.5 0
7998.5 0
7999.5 0
8000.5 1
8001.5 0
8002.5 0
8003.5 1
8004.5 0
8005.5 0
8006.5 0
8007.5 1
8008.5 0
8009.5 0
8010.5 0
8011.5 1
8012.5 0
8013.5 0
8014.5 0
8015.5 0
8016.5 0
8017.5 -1.14286
8018.5 -0.142857
8019.5 0
8020.5 0
8021.5 0
8022.5 0
8023.5 0
8024.5 -1.14286
8025.5 0
8026.5 0
8027.5 1
8028.5 -1.14286
8029.5 1
8030.5 0
8031.5 0
8032.5 0
8033.5 0
8034.5 0
8035.5 0
8036.5 0
8037.5 -2.28571
8038.5 -1.14286
8039.5 0
8040.5 0
8041.5 0
8042.5 1
8043.5 0
8044.5 0
8045.5 0
8046.5 0
8047.5 0
8048.5 0
8049.5 1
8050.5 0
8051.5 -1.14286
8052.5 0
8053.5 0
8054.5 0
8055.5 0
8056.5 1
8057.5 1
8058.5 0
8059.5 0
8060.5 0
8061.5 0
8062.5 0
8063.5 0
8064.5 1
8065.5 0
8066.5 0
8067.5 0
8068.5 0
8069.5 0
8070.5 0
8071.5 0
8072.5 1
8073.5 0
8074.5 0
8075.5 1
8076.5 1
8077.5 -1.14286
8078.5 -1.14286
8079.5 1
8080.5 0
8081.5 0
8082.5 0
8083.5 2
8084.5 -1.14286
8085.5 0
8086.5 1
8087.5 2
8088.5 0
8089.5 0
8090.5 0
8091.5 0
8092.5 0
8093.5 0
8094.5 -1.14286
8095.5 0
8096.5 2
8097.5 0
8098.5 0
8099.5 0
8100.5 0
8101.5 0
8102.5 0
8103.5 0
8104.5 0
8105.5 1
8106.5 0
8107.5 0
8108.5 0
8109.5 0
8110.5 0
8111.5 0
8112.5 0
8113.5 0
8114.5 1
8115.5 -1.14286
8116.5 0
8117.5 1
8118.5 0
8119.5 0
8120.5 1
8121.5 0
8122.5 0
8123.5 0
8124.5 0
8125.5 0
8126.5 0
8127.5 0
8128.5 0
8129.5 0
8130.5 0
8131.5 0
8132.5 0
8133.5 0
8134.5 0
8135.5 0
8136.5 0
8137.5 0
8138.5 -1.14286
8139.5 0
8140.5 0
8141.5 0
8142.5 0
8143.5 0
8144.5 -1.14286
8145.5 0
8146.5 0
8147.5 -1.14286
8148.5 0
8149.5 1
8150.5 0
8151.5 0
8152.5 0
8153.5 0
8154.5 0
8155.5 0
8156.5 0
8157.5 0
8158.5 0
8159.5 0
8160.5 0
8161.5 0
8162.5 0
8163.5 0
8164.5 0
8165.5 0
8166.5 1
8167.5 0
8168.5 0
8169.5 0
8170.5 1
8171.5 0
8172.5 0
8173.5 0
8174.5 0
8175.5 0
8176.5 0
8177.5 0
8178.5 0
8179.5 1
8180.5 0
8181.5 0
8182.5 1
8183.5 0
8184.5 0
8185.5 -1.14286
8186.5 1
8187.5 0
8188.5 -0.142857
8189.5 0
8190.5 0
8191.5 0
8192.5 0
8193.5 0
8194.5 0
8195.5 0
8196.5 0
8197.5 0
8198.5 0
8199.5 0
8200.5 0
8201.5 0
8202.5 0
8203.5 0
8204.5 0
8205.5 0
8206.5 0
8207.5 1
8208.5 -1.14286
8209.5 1
8210.5 0
8211.5 0
8212.5 0
8213.5 0
8214.5 0
8215.5 0
8216.5 0
8217.5 0
8218.5 0
8219.5 0
8220.5 0
8221.5 0
8222.5 1
8223.5 0
8224.5 -0.142857
8225.5 0
8226.5 0
8227.5 0
8228.5 1
8229.5 0
8230.5 -1.14286
8231.5 0
8232.5 0
8233.5 0
8234.5 0
8235.5 0
8236.5 1
8237.5 0
8238.5 0
8239.5 0
8240.5 -1.14286
8241.5 0
8242.5 0
8243.5 0
8244.5 0
8245.5 -1.14286
8246.5 0
8247.5 0
8248.5 0
8249.5 0
8250.5 0
8251.5 -1.14286
8252.5 0
8253.5 0
8254.5 0
8255.5 0
8256.5 0
8257.5 0
8258.5 0
8259.5 0
8260.5 0
8261.5 0
8262.5 0
8263.5 2
8264.5 0
8265.5 -1.14286
8266.5 0
8267.5 0
8268.5 0
8269.5 0
8270.5 0
8271.5 -1.14286
8272.5 0
8273.5 0
8274.5 0
8275.5 0
8276.5 0
8277.5 0
8278.5 0
8279.5 0
8280.5 0
8281.5 1
8282.5 0
8283.5 -1.14286
8284.5 0
8285.5 0
8286.5 0
8287.5 0
8288.5 0
8289.5 0
8290.5 -0.142857
8291.5 0
8292.5 0
8293.5 0
8294.5 1
8295.5 0
8296.5 0
8297.5 1
8298.5 0
8299.5 0
8300.5 0
8301.5 1
8302.5 0
8303.5 0
8304.5 0
8305.5 0
8306.5 0
8307.5 0
8308.5 0
8309.5 0
8310.5 0
8311.5 1
8312.5 -1.14286
8313.5 0
8314.5 0
8315.5 0
8316.5 0
8317.5 0
8318.5 -1.14286
8319.5 0
8320.5 0
8321.5 0
8322.5 -1.14286
8323.5 0
8324.5 0
8325.5 0
8326.5 -1.14286
8327.5 0
8328.5 0
8329.5 0
8330.5 0
8331.5 0
8332.5 0
8333.5 0
8334.5 0
8335.5 0
8336.5 0
8337.5 0
8338.5 0
8339.5 1
8340.5 1
8341.5 1
8342.5 0
8343.5 0
8344.5 -1.14286
8345.5 0
8346.5 0
8347.5 0
8348.5 0
8349.5 0
8350.5 0
8351.5 0
8352.5 0
8353.5 0
8354.5 0
8355.5 0
8356.5 0
8357.5 -1.14286
8358.5 -1.14286
8359.5 0
8360.5 0
8361.5 0
8362.5 0
8363.5 1
8364.5 0
8365.5 0
8366.5 0
8367.5 0
8368.5 0
8369.5 1
8370.5 0
8371.5 0
8372.5 0
8373.5 0
8374.5 0
8375.5 -1.14286
8376.5 0
8377.5 1
8378.5 0
8379.5 0
8380.5 0
8381.5 0
8382.5 0
8383.5 0
8384.5 0
8385.5 0
8386.5 0
8387.5 0
8388.5 1
8389.5 0
8390.5 0
8391.5 -1.14286
8392.5 0
8393.5 0
8394.5 0
8395.5 0
8396.5 0
8397.5 0
8398.5 0
8399.5 0
8400.5 0
8401.5 0
8402.5 0
8403.5 1
8404.5 0
8405.5 0
8406.5 0
8407.5 0
8408.5 1
8409.5 -1.14286
8410.5 0
8411.5 0
8412.5 0
8413.5 0
8414.5 0
8415.5 0
8416.5 0
8417.5 -1.14286
8418.5 0
8419.5 0
8420.5 1
8421.5 -1.14286
8422.5 0
8423.5 0
8424.5 0
8425.5 1
8426.5 0
8427.5 0
8428.5 0
8429.5 -1.14286
8430.5 0
8431.5 1
8432.5 0
8433.5 0
8434.5 0
8435.5 0
8436.5 0
8437.5 0
8438.5 0
8439.5 0
8440.5 0
8441.5 0
8442.5 0
8443.5 0
8444.5 0
8445.5 0
8446.5 0
8447.5 0
8448.5 0
8449.5 0
8450.5 0
8451.5 0
8452.5 1
8453.5 0
8454.5 0
8455.5 0
8456.5 0
8457.5 0
8458.5 0
8459.5 0
8460.5 0
8461.5 0
8462.5 0
8463.5 -1.14286
8464.5 0
8465.5 1
8466.5 1
8467.5 1
8468.5 0
8469.5 0
8470.5 1
8471.5 0
8472.5 0
8473.5 0
8474.5 0
8475.5 1
8476.5 0
8477.5 -1.14286
8478.5 0
8479.5 0
8480.5 0
8481.5 -1.14286
8482.5 0
8483.5 1
8484.5 0
8485.5 0
8486.5 0
8487.5 0
8488.5 0
8489.5 0
8490.5 0
8491.5 0
8492.5 0
8493.5 0
8494.5 0
8495.5 0
8496.5 0
8497.5 0
8498.5 -2.28571
8499.5 0
8500.5 0
8501.5 -1.14286
8502.5 0
8503.5 1
8504.5 0
8505.5 1
8506.5 0
8507.5 1
8508.5 0
8509.5 0
8510.5 0
8511.5 0
8512.5 0
8513.5 0
8514.5 0
8515.5 0
8516.5 0
8517.5 0
8518.5 0
8519.5 0
8520.5 0
8521.5 0
8522.5 0
8523.5 0
8524.5 0
8525.5 0
8526.5 0
8527.5 0
8528.5 0
8529.5 0
8530.5 0
8531.5 0
8532.5 0
8533.5 0
8534.5 0
8535.5 0
8536.5 0
8537.5 0
8538.5 0
8539.5 0
8540.5 1
8541.5 0
8542.5 0
8543.5 0
8544.5 0
8545.5 0
8546.5 0
8547.5 0
8548.5 0
8549.5 0
8550.5 0
8551.5 0
8552.5 0
8553.5 0
8554.5 0
8555.5 0
8556.5 0
8557.5 0
8558.5 0
8559.5 0
8560.5 0
8561.5 0
8562.5 0
8563.5 -0.142857
8564.5 0
8565.5 0
8566.5 0
8567.5 0
8568.5 0
8569.5 1
8570.5 0
8571.5 0
8572.5 0
8573.5 0
8574.5 0
8575.5 0
8576.5 0
8577.5 -1.14286
8578.5 1
8579.5 0
8580.5 0
8581.5 0
8582.5 0
8583.5 0
8584.5 0
8585.5 0
8586.5 1
8587.5 0
8588.5 0
8589.5 0
8590.5 0
8591.5 0
8592.5 0
8593.5 1
8594.5 0
8595.5 0
8596.5 0
8597.5 0
8598.5 0
8599.5 -2.28571
8600.5 0
8601.5 0
8602.5 0
8603.5 0
8604.5 0
8605.5 0
8606.5 0
8607.5 0
8608.5 0
8609.5 0
8610.5 0
8611.5 0
8612.5 0
8613.5 0
8614.5 0
8615.5 0
8616.5 0
8617.5 0
8618.5 0
8619.5 0
8620.5 0
8621.5 0
8622.5 0
8623.5 0
8624.5 -2.28571
8625.5 0
8626.5 0
8627.5 0
8628.5 1
8629.5 0
8630.5 0
8631.5 0
8632.5 0
8633.5 0
8634.5 0
8635.5 0
8636.5 0
8637.5 1
8638.5 0
8639.5 0
8640.5 0
8641.5 1
8642.5 0
8643.5 0
8644.5 0
8645.5 0
8646.5 0
8647.5 0
8648.5 0
8649.5 0
8650.5 -0.142857
8651.5 0
8652.5 -1.14286
8653.5 0
8654.5 0
8655.5 0
8656.5 0
8657.5 0
8658.5 0
8659.5 0
8660.5 0
8661.5 0
8662.5 0
8663.5 0
8664.5 0
8665.5 0
8666.5 -1.14286
8667.5 0
8668.5 0
8669.5 0
8670.5 0
8671.5 0
8672.5 -1.14286
8673.5 0
8674.5 0
8675.5 0
8676.5 1
8677.5 0
8678.5 0
8679.5 0
8680.5 0
8681.5 0
8682.5 0
8683.5 0
8684.5 0
8685.5 0
8686.5 0
8687.5 0
8688.5 0
8689.5 0
8690.5 0
8691.5 0
8692.5 0
8693.5 0
8694.5 1
8695.5 0
8696.5 0
8697.5 1
8698.5 1
8699.5 0
8700.5 0
8701.5 0
8702.5 0
8703.5 0
8704.5 0
8705.5 0
8706.5 0
8707.5 0
8708.5 0
8709.5 0
8710.5 0
8711.5 0
8712.5 0
8713.5 -1.14286
8714.5 1
8715.5 -1.14286
8716.5 0
8717.5 0
8718.5 0
8719.5 -1.14286
8720.5 0
8721.5 1
8722.5 -1.14286
8723.5 0
8724.5 0
8725.5 0
8726.5 0
8727.5 0
8728.5 1
8729.5 0
8730.5 0
8731.5 0
8732.5 0
8733.5 0
8734.5 0
8735.5 0
8736.5 0
8737.5 1
8738.5 0
8739.5 0
8740.5 0
8741.5 0
8742.5 0
8743.5 0
8744.5 0
8745.5 0
8746.5 0
8747.5 -1.14286
8748.5 0
8749.5 0
8750.5 0
8751.5 0
8752.5 0
8753.5 0
8754.5 -1.14286
8755.5 0
8756.5 0
8757.5 0
8758.5 0
8759.5 0
8760.5 -1.14286
8761.5 0
8762.5 0
8763.5 0
8764.5 0
8765.5 0
8766.5 0
8767.5 0
8768.5 0
8769.5 -1.14286
8770.5 0
8771.5 0
8772.5 0
8773.5 0
8774.5 0
8775.5 0
8776.5 0
8777.5 0
8778.5 0
8779.5 0
8780.5 0
8781.5 0
8782.5 0
8783.5 -1.14286
8784.5 -1.14286
8785.5 0
8786.5 0
8787.5 -1.14286
8788.5 0
8789.5 0
8790.5 0
8791.5 0
8792.5 -1.14286
8793.5 0
8794.5 0
8795.5 0
8796.5 0
8797.5 0
8798.5 0
8799.5 0
8800.5 0
8801.5 1
8802.5 0
8803.5 -1.14286
8804.5 0
8805.5 0
8806.5 0
8807.5 1
8808.5 0
8809.5 0
8810.5 0
8811.5 1
8812.5 0
8813.5 0
8814.5 0
8815.5 0
8816.5 0
8817.5 0
8818.5 1
8819.5 0
8820.5 0
8821.5 -1.14286
8822.5 0
8823.5 0
8824.5 0
8825.5 0
8826.5 0
8827.5 0
8828.5 1
8829.5 0
8830.5 0
8831.5 0
8832.5 0
8833.5 0
8834.5 0
8835.5 0
8836.5 0
8837.5 0
8838.5 0
8839.5 0
8840.5 0
8841.5 0
8842.5 -1.14286
8843.5 0
8844.5 0
8845.5 0
8846.5 0
8847.5 -1.14286
8848.5 2
8849.5 1
8850.5 0
8851.5 -1.14286
8852.5 0
8853.5 0
8854.5 1
8855.5 0
8856.5 0
8857.5 0
8858.5 0
8859.5 0
8860.5 0
8861.5 0
8862.5 0
8863.5 0
8864.5 0
8865.5 0
8866.5 0
8867.5 0
8868.5 0
8869.5 0
8870.5 0
8871.5 0
8872.5 0
8873.5 0
8874.5 0
8875.5 1
8876.5 0
8877.5 0
8878.5 0
8879.5 0
8880.5 0
8881.5 0
8882.5 0
8883.5 0
8884.5 -1.14286
8885.5 0
8886.5 0
8887.5 0
8888.5 0
8889.5 0
8890.5 0
8891.5 1
8892.5 0
8893.5 0
8894.5 0
8895.5 0
8896.5 -1.14286
8897.5 0
8898.5 0
8899.5 0
8900.5 0
8901.5 0
8902.5 0
8903.5 0
8904.5 0
8905.5 0
8906.5 0
8907.5 0
8908.5 0
8909.5 0
8910.5 0
8911.5 0
8912.5 -1.14286
8913.5 0
8914.5 0
8915.5 -1.14286
8916.5 0
8917.5 0
8918.5 0
8919.5 1
8920.5 0
8921.5 0
8922.5 0
8923.5 0
8924.5 -1.14286
8925.5 0
8926.5 1
8927.5 0
8928.5 0
8929.5 -1.14286
8930.5 1
8931.5 0
8932.5 0
8933.5 0
8934.5 0
8935.5 0
8936.5 0
8937.5 0
8938.5 0
8939.5 0
8940.5 0
8941.5 0
8942.5 0
8943.5 0
8944.5 0
8945.5 0
8946.5 0
8947.5 0
8948.5 -1.14286
8949.5 1
8950.5 0
8951.5 0
8952.5 0
8953.5 0
8954.5 0
8955.5 0
8956.5 0
8957.5 1
8958.5 0
8959.5 0
8960.5 0
8961.5 1
8962.5 0
8963.5 2
8964.5 1
8965.5 0
8966.5 0
8967.5 0
8968.5 0
8969.5 0
8970.5 0
8971.5 0
8972.5 0
8973.5 0
8974.5 0
8975.5 0
8976.5 1
8977.5 0
8978.5 0
8979.5 1
8980.5 0
8981.5 0
8982.5 1
8983.5 0
8984.5 0
8985.5 0
8986.5 0
8987.5 0
8988.5 0
8989.5 -1.14286
8990.5 0
8991.5 0
8992.5 0
8993.5 0
8994.5 0
8995.5 0
8996.5 0
8997.5 0
8998.5 0
8999.5 0
9000.5 0
9001.5 1
9002.5 0
9003.5 1
9004.5 0
9005.5 0
9006.5 0
9007.5 0
9008.5 1
9009.5 0
9010.5 1
9011.5 0
9012.5 0
9013.5 -1.14286
9014.5 0
9015.5 0
9016.5 0
9017.5 0
9018.5 0
9019.5 0
9020.5 0
9021.5 0
9022.5 0
9023.5 -1.14286
9024.5 1
9025.5 0
9026.5 -1.14286
9027.5 0
9028.5 0
9029.5 0
9030.5 0
9031.5 0
9032.5 0
9033.5 0
9034.5 0
9035.5 0
9036.5 0
9037.5 0
9038.5 0
9039.5 -1.14286
9040.5 0
9041.5 0
9042.5 0
9043.5 -1.14286
9044.5 0
9045.5 0
9046.5 0
9047.5 0
9048.5 0
9049.5 0
9050.5 0
9051.5 0
9052.5 0
9053.5 0
9054.5 0
9055.5 0
9056.5 0
9057.5 0
9058.5 0
9059.5 0
9060.5 0
9061.5 0
9062.5 0
9063.5 0
9064.5 0
9065.5 0
9066.5 0
9067.5 -1.14286
9068.5 0
9069.5 -1.14286
9070.5 0
9071.5 0
9072.5 0
9073.5 0
9074.5 0
9075.5 0
9076.5 0
9077.5 0
9078.5 0
9079.5 0
9080.5 0
9081.5 0
9082.5 0
9083.5 0
9084.5 0
9085.5 0
9086.5 0
9087.5 0
9088.5 0
9089.5 0
9090.5 -1.14286
9091.5 0
9092.5 0
9093.5 0
9094.5 0
9095.5 0
9096.5 0
9097.5 0
9098.5 0
9099.5 0
9100.5 -1.14286
9101.5 0
9102.5 1
9103.5 0
9104.5 0
9105.5 0
9106.5 0
9107.5 0
9108.5 0
9109.5 0
9110.5 0
9111.5 0
9112.5 0
9113.5 0
9114.5 0
9115.5 0
9116.5 0
9117.5 0
9118.5 0
9119.5 -1.14286
9120.5 0
9121.5 0
9122.5 0
9123.5 0
9124.5 0
9125.5 0
9126.5 0
9127.5 0
9128.5 0
9129.5 0
9130.5 -1.14286
9131.5 1
9132.5 0
9133.5 0
9134.5 0
9135.5 0
9136.5 0
9137.5 0
9138.5 0
9139.5 -1.14286
9140.5 0
9141.5 0
9142.5 0
9143.5 -1.14286
9144.5 0
9145.5 0
9146.5 1
9147.5 0
9148.5 0
9149.5 -1.14286
9150.5 0
9151.5 0
9152.5 0
9153.5 0
9154.5 0
9155.5 0
9156.5 0
9157.5 0
9158.5 0
9159.5 0
9160.5 -1.14286
9161.5 0
9162.5 0
9163.5 1
9164.5 1
9165.5 0
9166.5 0
9167.5 0
9168.5 0
9169.5 1
9170.5 0
9171.5 0
9172.5 0
9173.5 0
9174.5 0
9175.5 0
9176.5 0
9177.5 0
9178.5 0
9179.5 0
9180.5 0
9181.5 0
9182.5 -1.14286
9183.5 0
9184.5 0
9185.5 0
9186.5 0
9187.5 0
9188.5 0
9189.5 0
9190.5 0
9191.5 0
9192.5 0
9193.5 -1.14286
9194.5 0
9195.5 -1.14286
9196.5 0
9197.5 -1.14286
9198.5 0
9199.5 0
9200.5 0
9201.5 1
9202.5 0
9203.5 0
9204.5 0
9205.5 -1.14286
9206.5 0
9207.5 0
9208.5 1
9209.5 0
9210.5 -1.14286
9211.5 -1.14286
9212.5 0
9213.5 0
9214.5 0
9215.5 0
9216.5 0
9217.5 1
9218.5 0
9219.5 0
9220.5 0
9221.5 2
9222.5 0
9223.5 0
9224.5 0
9225.5 0
9226.5 0
9227.5 1
9228.5 0
9229.5 0
9230.5 -1.14286
9231.5 0
9232.5 0
9233.5 0
9234.5 0
9235.5 -1.14286
9236.5 0
9237.5 0
9238.5 -1.14286
9239.5 0
9240.5 -1.14286
9241.5 0
9242.5 0
9243.5 0
9244.5 0
9245.5 0
9246.5 0
9247.5 0
9248.5 0
9249.5 0
9250.5 1
9251.5 0
9252.5 0
9253.5 0
9254.5 0
9255.5 0
9256.5 0
9257.5 0
9258.5 0
9259.5 0
9260.5 0
9261.5 1
9262.5 1
9263.5 -1.14286
9264.5 0
9265.5 0
9266.5 0
9267.5 0
9268.5 0
9269.5 0
9270.5 0
9271.5 0
9272.5 1
9273.5 0
9274.5 0
9275.5 0
9276.5 0
9277.5 -1.14286
9278.5 0
9279.5 0
9280.5 1
9281.5 0
9282.5 1
9283.5 0
9284.5 0
9285.5 0
9286.5 0
9287.5 0
9288.5 0
9289.5 0
9290.5 0
9291.5 0
9292.5 0
9293.5 0
9294.5 0
9295.5 0
9296.5 0
9297.5 0
9298.5 0
9299.5 0
9300.5 1
9301.5 0
9302.5 0
9303.5 0
9304.5 0
9305.5 0
9306.5 0
9307.5 0
9308.5 0
9309.5 0
9310.5 0
9311.5 0
9312.5 0
9313.5 0
9314.5 0
9315.5 0
9316.5 0
9317.5 0
9318.5 0
9319.5 0
9320.5 0
9321.5 0
9322.5 0
9323.5 0
9324.5 0
9325.5 0
9326.5 0
9327.5 -1.14286
9328.5 0
9329.5 0
9330.5 0
9331.5 0
9332.5 0
9333.5 0
9334.5 0
9335.5 0
9336.5 0
9337.5 0
9338.5 0
9339.5 0
9340.5 0
9341.5 0
9342.5 0
9343.5 0
9344.5 0
9345.5 0
9346.5 0
9347.5 0
9348.5 0
9349.5 0
9350.5 0
9351.5 0
9352.5 0
9353.5 0
9354.5 0
9355.5 0
9356.5 0
9357.5 0
9358.5 0
9359.5 -1.14286
9360.5 0
9361.5 0
9362.5 0
9363.5 0
9364.5 0
9365.5 0
9366.5 0
9367.5 0
9368.5 0
9369.5 1
9370.5 0
9371.5 -1.14286
9372.5 0
9373.5 0
9374.5 -1.14286
9375.5 0
9376.5 -1.14286
9377.5 0
9378.5 -1.14286
9379.5 0
9380.5 0
9381.5 0
9382.5 0
9383.5 0
9384.5 0
9385.5 0
9386.5 0
9387.5 0
9388.5 0
9389.5 0
9390.5 0
9391.5 0
9392.5 0
9393.5 0
9394.5 0
9395.5 -1.14286
9396.5 0
9397.5 0
9398.5 -1.14286
9399.5 0
9400.5 0
9401.5 -1.14286
9402.5 0
9403.5 0
9404.5 0
9405.5 0
9406.5 0
9407.5 0
9408.5 0
9409.5 0
9410.5 0
9411.5 0
9412.5 0
9413.5 0
9414.5 1
9415.5 0
9416.5 0
9417.5 1
9418.5 0
9419.5 0
9420.5 0
9421.5 0
9422.5 0
9423.5 0
9424.5 0
9425.5 0
9426.5 0
9427.5 0
9428.5 1
9429.5 0
9430.5 0
9431.5 0
9432.5 0
9433.5 0
9434.5 0
9435.5 -1.14286
9436.5 0
9437.5 0
9438.5 0
9439.5 0
9440.5 0
9441.5 0
9442.5 0
9443.5 0
9444.5 0
9445.5 0
9446.5 0
9447.5 0
9448.5 0
9449.5 0
9450.5 0
9451.5 0
9452.5 0
9453.5 0
9454.5 0
9455.5 0
9456.5 1
9457.5 0
9458.5 0
9459.5 1
9460.5 0
9461.5 0
9462.5 0
9463.5 0
9464.5 0
9465.5 0
9466.5 0
9467.5 -0.142857
9468.5 0
9469.5 0
9470.5 0
9471.5 0
9472.5 0
9473.5 0
9474.5 1
9475.5 0
9476.5 0
9477.5 1
9478.5 0
9479.5 0
9480.5 0
9481.5 0
9482.5 0
9483.5 0
9484.5 0
9485.5 0
9486.5 0
9487.5 0
9488.5 0
9489.5 0
9490.5 0
9491.5 0
9492.5 0
9493.5 1
9494.5 0
9495.5 0
9496.5 0
9497.5 0
9498.5 0
9499.5 0
9500.5 0
9501.5 0
9502.5 0
9503.5 0
9504.5 0
9505.5 0
9506.5 0
9507.5 0
9508.5 0
9509.5 0
9510.5 0
9511.5 0
9512.5 0
9513.5 0
9514.5 0
9515.5 0
9516.5 0
9517.5 0
9518.5 0
9519.5 0
9520.5 0
9521.5 0
9522.5 0
9523.5 0
9524.5 1
9525.5 0
9526.5 0
9527.5 0
9528.5 1
9529.5 0
9530.5 0
9531.5 0
9532.5 0
9533.5 0
9534.5 0
9535.5 0
9536.5 0
9537.5 0
9538.5 0
9539.5 0
9540.5 0
9541.5 0
9542.5 0
9543.5 0
9544.5 0
9545.5 0
9546.5 0
9547.5 0
9548.5 0
9549.5 0
9550.5 0
9551.5 0
9552.5 0
9553.5 0
9554.5 0
9555.5 0
9556.5 0
9557.5 0
9558.5 0
9559.5 0
9560.5 0
9561.5 0
9562.5 0
9563.5 0
9564.5 0
9565.5 0
9566.5 0
9567.5 0
9568.5 0
9569.5 0
9570.5 0
9571.5 0
9572.5 0
9573.5 0
9574.5 0
9575.5 0
9576.5 0
9577.5 0
9578.5 0
9579.5 0
9580.5 0
9581.5 0
9582.5 0
9583.5 0
9584.5 0
9585.5 1
9586.5 0
9587.5 0
9588.5 0
9589.5 0
9590.5 0
9591.5 0
9592.5 0
9593.5 0
9594.5 0
9595.5 0
9596.5 0
9597.5 0
9598.5 0
9599.5 0
9600.5 0
9601.5 0
9602.5 0
9603.5 0
9604.5 0
9605.5 0
9606.5 0
9607.5 0
9608.5 0
9609.5 0
9610.5 0
9611.5 0
9612.5 -1.14286
9613.5 0
9614.5 1
9615.5 1
9616.5 0
9617.5 0
9618.5 0
9619.5 1
9620.5 0
9621.5 0
9622.5 1
9623.5 0
9624.5 0
9625.5 0
9626.5 0
9627.5 1
9628.5 0
9629.5 0
9630.5 0
9631.5 0
9632.5 0
9633.5 0
9634.5 0
9635.5 0
9636.5 0
9637.5 0
9638.5 0
9639.5 0
9640.5 -1.14286
9641.5 0
9642.5 0
9643.5 0
9644.5 0
9645.5 0
9646.5 0
9647.5 0
9648.5 0
9649.5 0
9650.5 0
9651.5 0
9652.5 0
9653.5 0
9654.5 0
9655.5 0
9656.5 0
9657.5 -1.14286
9658.5 0
9659.5 0
9660.5 -1.14286
9661.5 0
9662.5 0
9663.5 -2.28571
9664.5 0
9665.5 0
9666.5 0
9667.5 0
9668.5 0
9669.5 0
9670.5 0
9671.5 0
9672.5 0
9673.5 -1.14286
9674.5 0
9675.5 0
9676.5 0
9677.5 0
9678.5 0
9679.5 0
9680.5 0
9681.5 0
9682.5 0
9683.5 0
9684.5 0
9685.5 0
9686.5 0
9687.5 0
9688.5 0
9689.5 0
9690.5 0
9691.5 0
9692.5 0
9693.5 0
9694.5 0
9695.5 0
9696.5 0
9697.5 0
9698.5 0
9699.5 0
9700.5 0
9701.5 0
9702.5 0
9703.5 0
9704.5 0
9705.5 0
9706.5 0
9707.5 0
9708.5 0
9709.5 0
9710.5 0
9711.5 0
9712.5 0
9713.5 0
9714.5 0
9715.5 0
9716.5 0
9717.5 0
9718.5 0
9719.5 0
9720.5 0
9721.5 0
9722.5 0
9723.5 0
9724.5 0
9725.5 0
9726.5 0
9727.5 0
9728.5 0
9729.5 0
9730.5 0
9731.5 0
9732.5 0
9733.5 0
9734.5 0
9735.5 0
9736.5 0
9737.5 0
9738.5 0
9739.5 0
9740.5 0
9741.5 0
9742.5 0
9743.5 0
9744.5 0
9745.5 0
9746.5 0
9747.5 0
9748.5 0
9749.5 0
9750.5 0
9751.5 0
9752.5 0
9753.5 0
9754.5 0
9755.5 0
9756.5 0
9757.5 0
9758.5 0
9759.5 0
9760.5 0
9761.5 0
9762.5 0
9763.5 0
9764.5 0
9765.5 0
9766.5 0
9767.5 0
9768.5 0
9769.5 0
9770.5 0
9771.5 0
9772.5 0
9773.5 0
9774.5 1
9775.5 0
9776.5 0
9777.5 0
9778.5 0
9779.5 0
9780.5 0
9781.5 0
9782.5 1
9783.5 0
9784.5 0
9785.5 0
9786.5 0
9787.5 0
9788.5 0
9789.5 0
9790.5 0
9791.5 0
9792.5 0
9793.5 0
9794.5 0
9795.5 0
9796.5 0
9797.5 0
9798.5 0
9799.5 0
9800.5 0
9801.5 0
9802.5 0
9803.5 0
9804.5 0
9805.5 1
9806.5 0
9807.5 0
9808.5 0
9809.5 0
9810.5 0
9811.5 0
9812.5 0
9813.5 0
9814.5 0
9815.5 0
9816.5 0
9817.5 0
9818.5 0
9819.5 0
9820.5 0
9821.5 0
9822.5 1
9823.5 0
9824.5 0
9825.5 0
9826.5 0
9827.5 0
9828.5 0
9829.5 0
9830.5 0
9831.5 0
9832.5 0
9833.5 0
9834.5 0
9835.5 0
9836.5 0
9837.5 0
9838.5 0
9839.5 0
9840.5 0
9841.5 0
9842.5 0
9843.5 0
9844.5 0
9845.5 0
9846.5 0
9847.5 0
9848.5 0
9849.5 0
9850.5 0
9851.5 0
9852.5 1
9853.5 0
9854.5 0
9855.5 0
9856.5 0
9857.5 0
9858.5 0
9859.5 0
9860.5 0
9861.5 0
9862.5 0
9863.5 0
9864.5 0
9865.5 0
9866.5 0
9867.5 0
9868.5 0
9869.5 0
9870.5 0
9871.5 0
9872.5 0
9873.5 0
9874.5 0
9875.5 0
9876.5 0
9877.5 0
9878.5 0
9879.5 0
9880.5 0
9881.5 0
9882.5 0
9883.5 0
9884.5 0
9885.5 0
9886.5 0
9887.5 0
9888.5 0
9889.5 0
9890.5 0
9891.5 0
9892.5 0
9893.5 0
9894.5 0
9895.5 0
9896.5 0
9897.5 0
9898.5 0
9899.5 0
9900.5 0
9901.5 0
9902.5 0
9903.5 0
9904.5 0
9905.5 0
9906.5 0
9907.5 0
9908.5 0
9909.5 0
9910.5 0
9911.5 0
9912.5 0
9913.5 0
9914.5 0
9915.5 0
9916.5 0
9917.5 0
9918.5 0
9919.5 0
9920.5 0
9921.5 0
9922.5 0
9923.5 0
9924.5 0
9925.5 0
9926.5 0
9927.5 0
9928.5 0
9929.5 0
9930.5 0
9931.5 0
9932.5 0
9933.5 0
9934.5 0
9935.5 1
9936.5 0
9937.5 0
9938.5 0
9939.5 0
9940.5 0
9941.5 0
9942.5 0
9943.5 0
9944.5 0
9945.5 0
9946.5 0
9947.5 0
9948.5 0
9949.5 0
9950.5 0
9951.5 0
9952.5 0
9953.5 0
9954.5 0
9955.5 0
9956.5 0
9957.5 0
9958.5 0
9959.5 0
9960.5 0
9961.5 0
9962.5 0
9963.5 0
9964.5 0
9965.5 0
9966.5 0
9967.5 0
9968.5 0
9969.5 0
9970.5 0
9971.5 0
9972.5 0
9973.5 0
9974.5 0
9975.5 0
9976.5 0
9977.5 0
9978.5 0
9979.5 0
9980.5 0
9981.5 0
9982.5 0
9983.5 0
9984.5 0
9985.5 0
9986.5 0
9987.5 0
9988.5 0
9989.5 0
9990.5 0
9991.5 0
9992.5 0
9993.5 0
9994.5 0
9995.5 0
9996.5 0
9997.5 0
9998.5 0
9999.5 0
10000.5 0
10001.5 0
10002.5 0
10003.5 0
10004.5 0
10005.5 0
10006.5 0
10007.5 0
10008.5 0
10009.5 0
10010.5 0
10011.5 0
10012.5 0
10013.5 0
10014.5 0
10015.5 0
10016.5 1
10017.5 0
10018.5 0
10019.5 0
10020.5 0
10021.5 0
10022.5 0
10023.5 0
10024.5 0
10025.5 0
10026.5 0
10027.5 0
10028.5 0
10029.5 0
10030.5 0
10031.5 0
10032.5 0
10033.5 0
10034.5 0
10035.5 0
10036.5 0
10037.5 0
10038.5 0
10039.5 0
10040.5 0
10041.5 0
10042.5 0
10043.5 0
10044.5 0
10045.5 0
10046.5 0
10047.5 0
10048.5 0
10049.5 0
10050.5 0
10051.5 0
10052.5 0
10053.5 0
10054.5 0
10055.5 0
10056.5 0
10057.5 0
10058.5 0
10059.5 0
10060.5 0
10061.5 0
10062.5 0
10063.5 0
10064.5 0
10065.5 0
10066.5 0
10067.5 0
10068.5 0
10069.5 0
10070.5 0
10071.5 0
10072.5 0
10073.5 0
10074.5 0
10075.5 0
10076.5 0
10077.5 0
10078.5 0
10079.5 0
10080.5 0
10081.5 0
10082.5 0
10083.5 0
10084.5 0
10085.5 0
10086.5 0
10087.5 0
10088.5 0
10089.5 0
10090.5 0
10091.5 1
10092.5 0
10093.5 0
10094.5 0
10095.5 0
10096.5 0
10097.5 0
10098.5 0
10099.5 0
10100.5 0
10101.5 0
10102.5 0
10103.5 0
10104.5 0
10105.5 0
10106.5 0
10107.5 0
10108.5 0
10109.5 0
10110.5 0
10111.5 0
10112.5 0
10113.5 0
10114.5 0
10115.5 0
10116.5 0
10117.5 0
10118.5 0
10119.5 0
10120.5 0
10121.5 0
10122.5 0
10123.5 0
10124.5 0
10125.5 0
10126.5 0
10127.5 0
10128.5 0
10129.5 0
10130.5 0
10131.5 0
10132.5 0
10133.5 0
10134.5 0
10135.5 0
10136.5 0
10137.5 0
10138.5 0
10139.5 0
10140.5 0
10141.5 0
10142.5 0
10143.5 0
10144.5 0
10145.5 0
10146.5 0
10147.5 0
10148.5 0
10149.5 0
10150.5 0
10151.5 0
10152.5 0
10153.5 0
10154.5 0
10155.5 0
10156.5 0
10157.5 0
10158.5 0
10159.5 0
10160.5 0
10161.5 0
10162.5 0
10163.5 0
10164.5 0
10165.5 0
10166.5 0
10167.5 0
10168.5 0
10169.5 0
10170.5 0
10171.5 0
10172.5 0
10173.5 0
10174.5 0
10175.5 0
10176.5 0
10177.5 0
10178.5 0
10179.5 0
10180.5 0
10181.5 0
10182.5 0
10183.5 0
10184.5 0
10185.5 0
10186.5 0
10187.5 0
10188.5 0
10189.5 0
10190.5 0
10191.5 0
10192.5 0
10193.5 0
10194.5 0
10195.5 0
10196.5 0
10197.5 0
10198.5 0
10199.5 0
10200.5 0
10201.5 0
10202.5 0
10203.5 0
10204.5 0
10205.5 0
10206.5 0
10207.5 0
10208.5 0
10209.5 0
10210.5 0
10211.5 0
10212.5 0
10213.5 0
10214.5 0
10215.5 0
10216.5 0
10217.5 0
10218.5 0
10219.5 0
10220.5 0
10221.5 0
10222.5 0
10223.5 0
10224.5 0
10225.5 0
10226.5 0
10227.5 0
10228.5 0
10229.5 0
10230.5 0
10231.5 0
10232.5 0
10233.5 0
10234.5 0
10235.5 0
10236.5 0
10237.5 0
10238.5 0
10239.5 0
10240.5 0
10241.5 0
10242.5 0
10243.5 0
10244.5 0
10245.5 0
10246.5 0
10247.5 0
10248.5 -1.14286
10249.5 0
10250.5 0
10251.5 0
10252.5 0
10253.5 0
10254.5 0
10255.5 0
10256.5 0
10257.5 0
10258.5 0
10259.5 0
10260.5 0
10261.5 0
10262.5 0
10263.5 0
10264.5 0
10265.5 0
10266.5 0
10267.5 0
10268.5 0
10269.5 0
10270.5 0
10271.5 0
10272.5 0
10273.5 0
10274.5 0
10275.5 0
10276.5 0
10277.5 0
10278.5 0
10279.5 0
10280.5 0
10281.5 0
10282.5 0
10283.5 0
10284.5 0
10285.5 0
10286.5 0
10287.5 0
10288.5 0
10289.5 0
10290.5 0
10291.5 0
10292.5 0
10293.5 0
10294.5 0
10295.5 0
10296.5 0
10297.5 0
10298.5 0
10299.5 0
10300.5 0
10301.5 0
10302.5 0
10303.5 0
10304.5 0
10305.5 0
10306.5 0
10307.5 0
10308.5 0
10309.5 0
10310.5 0
10311.5 0
10312.5 0
10313.5 0
10314.5 0
10315.5 0
10316.5 0
10317.5 0
10318.5 0
10319.5 0
10320.5 0
10321.5 0
10322.5 0
10323.5 0
10324.5 0
10325.5 0
10326.5 0
10327.5 0
10328.5 0
10329.5 0
10330.5 0
10331.5 0
10332.5 0
10333.5 0
10334.5 0
10335.5 0
10336.5 0
10337.5 0
10338.5 0
10339.5 0
10340.5 0
10341.5 0
10342.5 0
10343.5 0
10344.5 0
10345.5 0
10346.5 0
10347.5 0
10348.5 0
10349.5 0
10350.5 0
10351.5 0
10352.5 0
10353.5 0
10354.5 0
10355.5 0
10356.5 0
10357.5 0
10358.5 0
10359.5 0
10360.5 0
10361.5 0
10362.5 0
10363.5 0
10364.5 0
10365.5 -1.14286
10366.5 0
10367.5 0
10368.5 0
10369.5 0
10370.5 0
10371.5 0
10372.5 0
10373.5 0
10374.5 0
10375.5 0
10376.5 0
10377.5 0
10378.5 0
10379.5 0
10380.5 0
10381.5 0
10382.5 0
10383.5 0
10384.5 0
10385.5 -0.142857
10386.5 0
10387.5 0
10388.5 0
10389.5 0
10390.5 0
10391.5 0
10392.5 0
10393.5 0
10394.5 0
10395.5 0
10396.5 0
10397.5 0
10398.5 0
10399.5 0
10400.5 0
10401.5 0
10402.5 0
10403.5 0
10404.5 0
10405.5 0
10406.5 0
10407.5 0
10408.5 0
10409.5 0
10410.5 0
10411.5 0
10412.5 0
10413.5 0
10414.5 0
10415.5 0
10416.5 0
10417.5 0
10418.5 0
10419.5 0
10420.5 0
10421.5 0
10422.5 0
10423.5 0
10424.5 0
10425.5 0
10426.5 0
10427.5 0
10428.5 0
10429.5 0
10430.5 0
10431.5 0
10432.5 0
10433.5 0
10434.5 0
10435.5 0
10436.5 0
10437.5 0
10438.5 0
10439.5 0
10440.5 0
10441.5 0
10442.5 0
10443.5 0
10444.5 0
10445.5 0
10446.5 0
10447.5 0
10448.5 0
10449.5 0
10450.5 0
10451.5 0
10452.5 0
10453.5 0
10454.5 0
10455.5 0
10456.5 0
10457.5 0
10458.5 0
10459.5 1
10460.5 0
10461.5 0
10462.5 0
10463.5 0
10464.5 1
10465.5 0
10466.5 0
10467.5 0
10468.5 0
10469.5 0
10470.5 0
10471.5 0
10472.5 0
10473.5 0
10474.5 0
10475.5 0
10476.5 0
10477.5 0
10478.5 0
10479.5 0
10480.5 0
10481.5 0
10482.5 0
10483.5 0
10484.5 0
10485.5 0
10486.5 0
10487.5 0
10488.5 0
10489.5 0
10490.5 0
10491.5 0
10492.5 0
10493.5 0
10494.5 0
10495.5 0
10496.5 0
10497.5 0
10498.5 0
10499.5 0
10500.5 0
10501.5 0
10502.5 0
10503.5 0
10504.5 0
10505.5 0
10506.5 0
10507.5 0
10508.5 0
10509.5 0
10510.5 0
10511.5 0
10512.5 0
10513.5 0
10514.5 0
10515.5 0
10516.5 0
10517.5 0
10518.5 0
10519.5 0
10520.5 0
10521.5 0
10522.5 0
10523.5 0
10524.5 0
10525.5 0
10526.5 0
10527.5 0
10528.5 0
10529.5 0
10530.5 0
10531.5 0
10532.5 0
10533.5 0
10534.5 0
10535.5 0
10536.5 0
10537.5 0
10538.5 0
10539.5 0
10540.5 0
10541.5 0
10542.5 0
10543.5 0
10544.5 0
10545.5 1
10546.5 0
10547.5 0
10548.5 0
10549.5 0
10550.5 0
10551.5 0
10552.5 0
10553.5 0
10554.5 0
10555.5 0
10556.5 0
10557.5 0
10558.5 0
10559.5 0
10560.5 0
10561.5 0
10562.5 0
10563.5 0
10564.5 0
10565.5 0
10566.5 0
10567.5 0
10568.5 0
10569.5 0
10570.5 0
10571.5 0
10572.5 0
10573.5 0
10574.5 0
10575.5 0
10576.5 0
10577.5 0
10578.5 0
10579.5 0
10580.5 0
10581.5 0
10582.5 0
10583.5 0
10584.5 0
10585.5 -1.14286
10586.5 0
10587.5 0
10588.5 0
10589.5 0
10590.5 0
10591.5 0
10592.5 0
10593.5 0
10594.5 0
10595.5 0
10596.5 0
10597.5 0
10598.5 0
10599.5 0
10600.5 0
10601.5 0
10602.5 0
10603.5 0
10604.5 0
10605.5 0
10606.5 0
10607.5 0
10608.5 0
10609.5 0
10610.5 0
10611.5 0
10612.5 0
10613.5 0
10614.5 0
10615.5 0
10616.5 0
10617.5 0
10618.5 0
10619.5 0
10620.5 0
10621.5 0
10622.5 0
10623.5 0
10624.5 0
10625.5 0
10626.5 0
10627.5 0
10628.5 0
10629.5 1
10630.5 0
10631.5 0
10632.5 0
10633.5 0
10634.5 0
10635.5 0
10636.5 0
10637.5 0
10638.5 0
10639.5 0
10640.5 0
10641.5 0
10642.5 0
10643.5 0
10644.5 0
10645.5 0
10646.5 0
10647.5 0
10648.5 0
10649.5 0
10650.5 0
10651.5 0
10652.5 0
10653.5 0
10654.5 0
10655.5 0
10656.5 0
10657.5 0
10658.5 0
10659.5 0
10660.5 0
10661.5 0
10662.5 0
10663.5 0
10664.5 0
10665.5 0
10666.5 0
10667.5 0
10668.5 0
10669.5 0
10670.5 0
10671.5 0
10672.5 0
10673.5 0
10674.5 0
10675.5 0
10676.5 0
10677.5 0
10678.5 0
10679.5 0
10680.5 0
10681.5 0
10682.5 0
10683.5 0
10684.5 0
10685.5 0
10686.5 0
10687.5 0
10688.5 0
10689.5 0
10690.5 0
10691.5 0
10692.5 0
10693.5 0
10694.5 0
10695.5 0
10696.5 0
10697.5 0
10698.5 0
10699.5 0
10700.5 0
10701.5 0
10702.5 0
10703.5 0
10704.5 0
10705.5 0
10706.5 0
10707.5 0
10708.5 0
10709.5 0
10710.5 0
10711.5 0
10712.5 0
10713.5 0
10714.5 0
10715.5 0
10716.5 0
10717.5 0
10718.5 0
10719.5 0
10720.5 0
10721.5 0
10722.5 0
10723.5 0
10724.5 0
10725.5 0
10726.5 0
10727.5 0
10728.5 0
10729.5 0
10730.5 0
10731.5 0
10732.5 0
10733.5 0
10734.5 0
10735.5 0
10736.5 0
10737.5 0
10738.5 0
10739.5 0
10740.5 0
10741.5 0
10742.5 0
10743.5 1
10744.5 0
10745.5 0
10746.5 0
10747.5 0
10748.5 0
10749.5 0
10750.5 0
10751.5 0
10752.5 0
10753.5 0
10754.5 0
10755.5 0
10756.5 0
10757.5 0
10758.5 0
10759.5 0
10760.5 0
10761.5 0
10762.5 0
10763.5 0
10764.5 0
10765.5 0
10766.5 0
10767.5 0
10768.5 0
10769.5 0
10770.5 0
10771.5 0
10772.5 0
10773.5 0
10774.5 0
10775.5 0
10776.5 0
10777.5 0
10778.5 0
10779.5 0
10780.5 0
10781.5 0
10782.5 0
10783.5 0
10784.5 0
10785.5 0
10786.5 0
10787.5 0
10788.5 0
10789.5 0
10790.5 0
10791.5 0
10792.5 0
10793.5 0
10794.5 0
10795.5 0
10796.5 0
10797.5 0
10798.5 0
10799.5 0
10800.5 0
10801.5 0
10802.5 0
10803.5 0
10804.5 0
10805.5 0
10806.5 0
10807.5 0
10808.5 0
10809.5 0
10810.5 0
10811.5 0
10812.5 0
10813.5 0
10814.5 0
10815.5 0
10816.5 0
10817.5 0
10818.5 0
10819.5 0
10820.5 0
10821.5 0
10822.5 0
10823.5 0
10824.5 0
10825.5 0
10826.5 0
10827.5 0
10828.5 0
10829.5 0
10830.5 0
10831.5 0
10832.5 0
10833.5 0
10834.5 0
10835.5 0
10836.5 0
10837.5 0
10838.5 0
10839.5 0
10840.5 0
10841.5 0
10842.5 0
10843.5 0
10844.5 0
10845.5 0
10846.5 0
10847.5 0
10848.5 0
10849.5 0
10850.5 0
10851.5 0
10852.5 0
10853.5 0
10854.5 0
10855.5 0
10856.5 0
10857.5 0
10858.5 0
10859.5 0
10860.5 0
10861.5 0
10862.5 0
10863.5 0
10864.5 0
10865.5 0
10866.5 0
10867.5 0
10868.5 0
10869.5 0
10870.5 0
10871.5 0
10872.5 0
10873.5 0
10874.5 0
10875.5 0
10876.5 0
10877.5 0
10878.5 0
10879.5 0
10880.5 0
10881.5 0
10882.5 0
10883.5 0
10884.5 0
10885.5 0
10886.5 0
10887.5 0
10888.5 0
10889.5 0
10890.5 0
10891.5 0
10892.5 0
10893.5 0
10894.5 0
10895.5 0
10896.5 0
10897.5 0
10898.5 0
10899.5 0
10900.5 0
10901.5 0
10902.5 0
10903.5 0
10904.5 0
10905.5 0
10906.5 0
10907.5 0
10908.5 0
10909.5 0
10910.5 0
10911.5 0
10912.5 0
10913.5 0
10914.5 0
10915.5 0
10916.5 0
10917.5 0
10918.5 0
10919.5 0
10920.5 0
10921.5 0
10922.5 0
10923.5 0
10924.5 0
10925.5 0
10926.5 0
10927.5 0
10928.5 0
10929.5 0
10930.5 0
10931.5 0
10932.5 0
10933.5 0
10934.5 0
10935.5 0
10936.5 0
10937.5 0
10938.5 0
10939.5 0
10940.5 0
10941.5 0
10942.5 0
10943.5 0
10944.5 0
10945.5 0
10946.5 0
10947.5 0
10948.5 0
10949.5 0
10950.5 0
10951.5 0
10952.5 0
10953.5 0
10954.5 0
10955.5 0
10956.5 0
10957.5 0
10958.5 0
10959.5 0
10960.5 0
10961.5 0
10962.5 0
10963.5 0
10964.5 0
10965.5 0
10966.5 0
10967.5 0
10968.5 0
10969.5 0
10970.5 0
10971.5 0
10972.5 0
10973.5 0
10974.5 0
10975.5 0
10976.5 0
10977.5 0
10978.5 0
10979.5 0
10980.5 0
10981.5 0
10982.5 0
10983.5 0
10984.5 0
10985.5 0
10986.5 0
10987.5 0
10988.5 0
10989.5 0
10990.5 0
10991.5 0
10992.5 0
10993.5 0
10994.5 0
10995.5 0
10996.5 0
10997.5 0
10998.5 0
10999.5 0
11000.5 0
11001.5 0
11002.5 0
11003.5 0
11004.5 0
11005.5 0
11006.5 0
11007.5 0
11008.5 0
11009.5 0
11010.5 0
11011.5 0
11012.5 0
11013.5 0
11014.5 0
11015.5 0
11016.5 0
11017.5 0
11018.5 0
11019.5 0
11020.5 0
11021.5 0
11022.5 0
11023.5 0
11024.5 0
11025.5 0
11026.5 0
11027.5 0
11028.5 0
11029.5 0
11030.5 -1.14286
11031.5 0
11032.5 0
11033.5 0
11034.5 0
11035.5 0
11036.5 0
11037.5 0
11038.5 0
11039.5 0
11040.5 0
11041.5 0
11042.5 0
11043.5 0
11044.5 0
11045.5 0
11046.5 0
11047.5 0
11048.5 0
11049.5 0
11050.5 0
11051.5 0
11052.5 0
11053.5 0
11054.5 0
11055.5 0
11056.5 0
11057.5 0
11058.5 0
11059.5 0
11060.5 0
11061.5 0
11062.5 0
11063.5 0
11064.5 0
11065.5 0
11066.5 0
11067.5 0
11068.5 0
11069.5 0
11070.5 0
11071.5 0
11072.5 0
11073.5 0
11074.5 0
11075.5 0
11076.5 0
11077.5 0
11078.5 0
11079.5 0
11080.5 0
11081.5 0
11082.5 0
11083.5 0
11084.5 0
11085.5 0
11086.5 0
11087.5 0
11088.5 0
11089.5 0
11090.5 0
11091.5 0
11092.5 0
11093.5 0
11094.5 0
11095.5 0
11096.5 0
11097.5 0
11098.5 0
11099.5 0
11100.5 0
11101.5 0
11102.5 0
11103.5 0
11104.5 0
11105.5 0
11106.5 0
11107.5 0
11108.5 0
11109.5 0
11110.5 0
11111.5 0
11112.5 0
11113.5 0
11114.5 0
11115.5 0
11116.5 0
11117.5 0
11118.5 0
11119.5 0
11120.5 0
11121.5 0
11122.5 0
11123.5 0
11124.5 0
11125.5 0
11126.5 0
11127.5 0
11128.5 0
11129.5 0
11130.5 0
11131.5 0
11132.5 0
11133.5 0
11134.5 0
11135.5 0
11136.5 0
11137.5 0
11138.5 0
11139.5 0
11140.5 0
11141.5 0
11142.5 0
11143.5 0
11144.5 0
11145.5 0
11146.5 0
11147.5 0
11148.5 0
11149.5 0
11150.5 0
11151.5 0
11152.5 0
11153.5 0
11154.5 0
11155.5 0
11156.5 0
11157.5 0
11158.5 0
11159.5 0
11160.5 0
11161.5 0
11162.5 0
11163.5 0
11164.5 0
11165.5 0
11166.5 0
11167.5 0
11168.5 0
11169.5 0
11170.5 0
11171.5 0
11172.5 0
11173.5 0
11174.5 0
11175.5 0
11176.5 0
11177.5 0
11178.5 0
11179.5 0
11180.5 0
11181.5 0
11182.5 0
11183.5 0
11184.5 0
11185.5 0
11186.5 0
11187.5 1
11188.5 0
11189.5 0
11190.5 0
11191.5 0
11192.5 0
11193.5 0
11194.5 0
11195.5 0
11196.5 0
11197.5 0
11198.5 0
11199.5 0
11200.5 0
11201.5 0
11202.5 0
11203.5 0
11204.5 0
11205.5 0
11206.5 0
11207.5 0
11208.5 0
11209.5 0
11210.5 0
11211.5 0
11212.5 0
11213.5 0
11214.5 0
11215.5 0
11216.5 0
11217.5 0
11218.5 0
11219.5 0
11220.5 0
11221.5 0
11222.5 0
11223.5 0
11224.5 0
11225.5 0
11226.5 0
11227.5 0
11228.5 0
11229.5 0
11230.5 0
11231.5 0
11232.5 0
11233.5 0
11234.5 0
11235.5 0
11236.5 0
11237.5 0
11238.5 0
11239.5 0
11240.5 0
11241.5 0
11242.5 0
11243.5 0
11244.5 0
11245.5 0
11246.5 0
11247.5 0
11248.5 0
11249.5 0
11250.5 0
11251.5 0
11252.5 0
11253.5 0
11254.5 0
11255.5 0
11256.5 -1.14286
11257.5 0
11258.5 0
11259.5 0
11260.5 0
11261.5 0
11262.5 0
11263.5 0
11264.5 0
11265.5 0
11266.5 0
11267.5 0
11268.5 0
11269.5 0
11270.5 0
11271.5 -1.14286
11272.5 0
11273.5 0
11274.5 0
11275.5 0
11276.5 0
11277.5 0
11278.5 0
11279.5 0
11280.5 0
11281.5 0
11282.5 0
11283.5 0
11284.5 0
11285.5 0
11286.5 0
11287.5 0
11288.5 0
11289.5 0
11290.5 0
11291.5 0
11292.5 0
11293.5 0
11294.5 0
11295.5 0
11296.5 0
11297.5 0
11298.5 0
11299.5 0
11300.5 0
11301.5 0
11302.5 0
11303.5 0
11304.5 0
11305.5 0
11306.5 0
11307.5 0
11308.5 0
11309.5 0
11310.5 0
11311.5 0
11312.5 0
11313.5 0
11314.5 0
11315.5 0
11316.5 0
11317.5 0
11318.5 0
11319.5 0
11320.5 0
11321.5 0
11322.5 0
11323.5 0
11324.5 0
11325.5 0
11326.5 0
11327.5 -1.14286
11328.5 0
11329.5 0
11330.5 0
11331.5 0
11332.5 0
11333.5 0
11334.5 0
11335.5 0
11336.5 0
11337.5 0
11338.5 0
11339.5 0
11340.5 0
11341.5 0
11342.5 0
11343.5 0
11344.5 0
11345.5 0
11346.5 0
11347.5 0
11348.5 0
11349.5 0
11350.5 0
11351.5 0
11352.5 0
11353.5 0
11354.5 0
11355.5 0
11356.5 0
11357.5 0
11358.5 0
11359.5 0
11360.5 0
11361.5 0
11362.5 0
11363.5 0
11364.5 0
11365.5 0
11366.5 0
11367.5 0
11368.5 0
11369.5 0
11370.5 0
11371.5 0
11372.5 0
11373.5 0
11374.5 0
11375.5 0
11376.5 0
11377.5 0
11378.5 0
11379.5 0
11380.5 0
11381.5 0
11382.5 0
11383.5 0
11384.5 0
11385.5 0
11386.5 0
11387.5 0
11388.5 0
11389.5 0
11390.5 0
11391.5 0
11392.5 0
11393.5 0
11394.5 0
11395.5 0
11396.5 0
11397.5 0
11398.5 0
11399.5 0
11400.5 0
11401.5 0
11402.5 0
11403.5 0
11404.5 0
11405.5 0
11406.5 0
11407.5 0
11408.5 0
11409.5 0
11410.5 0
11411.5 0
11412.5 0
11413.5 0
11414.5 0
11415.5 0
11416.5 0
11417.5 0
11418.5 0
11419.5 0
11420.5 0
11421.5 0
11422.5 0
11423.5 0
11424.5 0
11425.5 0
11426.5 0
11427.5 0
11428.5 1
11429.5 0
11430.5 0
11431.5 0
11432.5 0
11433.5 0
11434.5 0
11435.5 0
11436.5 0
11437.5 -1.14286
11438.5 0
11439.5 0
11440.5 0
11441.5 0
11442.5 0
11443.5 0
11444.5 0
11445.5 0
11446.5 0
11447.5 0
11448.5 0
11449.5 0
11450.5 0
11451.5 0
11452.5 0
11453.5 0
11454.5 0
11455.5 0
11456.5 0
11457.5 0
11458.5 0
11459.5 0
11460.5 0
11461.5 0
11462.5 0
11463.5 0
11464.5 0
11465.5 0
11466.5 0
11467.5 0
11468.5 0
11469.5 0
11470.5 0
11471.5 0
11472.5 0
11473.5 0
11474.5 0
11475.5 0
11476.5 0
11477.5 0
11478.5 0
11479.5 0
11480.5 0
11481.5 0
11482.5 0
11483.5 0
11484.5 0
11485.5 0
11486.5 0
11487.5 0
11488.5 0
11489.5 0
11490.5 0
11491.5 0
11492.5 0
11493.5 1
11494.5 0
11495.5 0
11496.5 0
11497.5 0
11498.5 0
11499.5 0
11500.5 0
11501.5 0
11502.5 0
11503.5 0
11504.5 0
11505.5 0
11506.5 0
11507.5 0
11508.5 0
11509.5 0
11510.5 0
11511.5 0
11512.5 0
11513.5 0
11514.5 0
11515.5 0
11516.5 0
11517.5 0
11518.5 0
11519.5 0
11520.5 0
11521.5 0
11522.5 0
11523.5 0
11524.5 0
11525.5 0
11526.5 0
11527.5 0
11528.5 0
11529.5 0
11530.5 0
11531.5 0
11532.5 0
11533.5 0
11534.5 0
11535.5 0
11536.5 0
11537.5 0
11538.5 0
11539.5 0
11540.5 0
11541.5 0
11542.5 0
11543.5 0
11544.5 0
11545.5 0
11546.5 0
11547.5 0
11548.5 0
11549.5 0
11550.5 0
11551.5 0
11552.5 0
11553.5 0
11554.5 0
11555.5 0
11556.5 0
11557.5 0
11558.5 0
11559.5 0
11560.5 0
11561.5 0
11562.5 0
11563.5 0
11564.5 0
11565.5 0
11566.5 0
11567.5 0
11568.5 0
11569.5 0
11570.5 0
11571.5 0
11572.5 0
11573.5 0
11574.5 0
11575.5 0
11576.5 0
11577.5 0
11578.5 0
11579.5 0
11580.5 0
11581.5 0
11582.5 0
11583.5 0
11584.5 0
11585.5 0
11586.5 0
11587.5 0
11588.5 0
11589.5 0
11590.5 0
11591.5 0
11592.5 0
11593.5 0
11594.5 0
11595.5 0
11596.5 0
11597.5 0
11598.5 0
11599.5 0
11600.5 0
11601.5 0
11602.5 0
11603.5 0
11604.5 0
11605.5 0
11606.5 0
11607.5 0
11608.5 0
11609.5 0
11610.5 0
11611.5 0
11612.5 0
11613.5 0
11614.5 0
11615.5 0
11616.5 0
11617.5 0
11618.5 0
11619.5 0
11620.5 0
11621.5 0
11622.5 0
11623.5 0
11624.5 0
11625.5 0
11626.5 0
11627.5 0
11628.5 0
11629.5 0
11630.5 0
11631.5 0
11632.5 0
11633.5 0
11634.5 0
11635.5 0
11636.5 0
11637.5 0
11638.5 0
11639.5 0
11640.5 0
11641.5 0
11642.5 0
11643.5 0
11644.5 0
11645.5 0
11646.5 0
11647.5 0
11648.5 0
11649.5 0
11650.5 0
11651.5 0
11652.5 0
11653.5 0
11654.5 0
11655.5 0
11656.5 0
11657.5 0
11658.5 0
11659.5 0
11660.5 -1.14286
11661.5 0
11662.5 0
11663.5 0
11664.5 0
11665.5 0
11666.5 0
11667.5 0
11668.5 0
11669.5 0
11670.5 0
11671.5 0
11672.5 0
11673.5 0
11674.5 0
11675.5 0
11676.5 0
11677.5 0
11678.5 0
11679.5 0
11680.5 0
11681.5 0
11682.5 0
11683.5 0
11684.5 0
11685.5 0
11686.5 0
11687.5 0
11688.5 0
11689.5 0
11690.5 0
11691.5 0
11692.5 0
11693.5 0
11694.5 0
11695.5 0
11696.5 0
11697.5 0
11698.5 0
11699.5 0
11700.5 0
11701.5 0
11702.5 0
11703.5 0
11704.5 0
11705.5 0
11706.5 0
11707.5 0
11708.5 0
11709.5 0
11710.5 0
11711.5 0
11712.5 0
11713.5 0
11714.5 0
11715.5 0
11716.5 0
11717.5 0
11718.5 0
11719.5 0
11720.5 0
11721.5 0
11722.5 0
11723.5 0
11724.5 0
11725.5 0
11726.5 0
11727.5 0
11728.5 0
11729.5 0
11730.5 0
11731.5 0
11732.5 0
11733.5 1
11734.5 0
11735.5 0
11736.5 0
11737.5 0
11738.5 0
11739.5 0
11740.5 0
11741.5 0
11742.5 0
11743.5 -1.14286
11744.5 0
11745.5 0
11746.5 0
11747.5 0
11748.5 0
11749.5 0
11750.5 0
11751.5 0
11752.5 0
11753.5 0
11754.5 0
11755.5 0
11756.5 0
11757.5 0
11758.5 0
11759.5 0
11760.5 0
11761.5 0
11762.5 0
11763.5 0
11764.5 0
11765.5 0
11766.5 0
11767.5 0
11768.5 0
11769.5 0
11770.5 0
11771.5 0
11772.5 0
11773.5 0
11774.5 0
11775.5 0
11776.5 0
11777.5 0
11778.5 0
11779.5 0
11780.5 0
11781.5 0
11782.5 0
11783.5 0
11784.5 1
11785.5 0
11786.5 0
11787.5 0
11788.5 0
11789.5 0
11790.5 0
11791.5 0
11792.5 0
11793.5 0
11794.5 0
11795.5 0
11796.5 0
11797.5 0
11798.5 0
11799.5 0
11800.5 0
11801.5 0
11802.5 0
11803.5 0
11804.5 0
11805.5 0
11806.5 0
11807.5 0
11808.5 0
11809.5 0
11810.5 0
11811.5 0
11812.5 0
11813.5 0
11814.5 0
11815.5 0
11816.5 0
11817.5 0
11818.5 0
11819.5 0
11820.5 0
11821.5 0
11822.5 0
11823.5 0
11824.5 0
11825.5 0
11826.5 0
11827.5 0
11828.5 0
11829.5 0
11830.5 0
11831.5 0
11832.5 0
11833.5 0
11834.5 0
11835.5 0
11836.5 0
11837.5 0
11838.5 0
11839.5 0
11840.5 0
11841.5 0
11842.5 0
11843.5 0
11844.5 0
11845.5 0
11846.5 0
11847.5 0
11848.5 0
11849.5 0
11850.5 0
11851.5 0
11852.5 0
11853.5 0
11854.5 0
11855.5 0
11856.5 0
11857.5 0
11858.5 0
11859.5 0
11860.5 0
11861.5 0
11862.5 0
11863.5 0
11864.5 0
11865.5 0
11866.5 0
11867.5 0
11868.5 0
11869.5 0
11870.5 0
11871.5 0
11872.5 0
11873.5 0
11874.5 0
11875.5 0
11876.5 0
11877.5 0
11878.5 0
11879.5 0
11880.5 0
11881.5 0
11882.5 0
11883.5 0
11884.5 0
11885.5 0
11886.5 0
11887.5 0
11888.5 0
11889.5 0
11890.5 0
11891.5 0
11892.5 0
11893.5 0
11894.5 0
11895.5 0
11896.5 0
11897.5 0
11898.5 0
11899.5 0
11900.5 0
11901.5 0
11902.5 0
11903.5 0
11904.5 0
11905.5 0
11906.5 0
11907.5 0
11908.5 0
11909.5 0
11910.5 0
11911.5 0
11912.5 0
11913.5 0
11914.5 0
11915.5 0
11916.5 0
11917.5 0
11918.5 0
11919.5 0
11920.5 0
11921.5 0
11922.5 0
11923.5 0
11924.5 0
11925.5 0
11926.5 0
11927.5 0
11928.5 0
11929.5 0
11930.5 0
11931.5 0
11932.5 0
11933.5 0
11934.5 0
11935.5 0
11936.5 0
11937.5 0
11938.5 0
11939.5 0
11940.5 0
11941.5 0
11942.5 0
11943.5 0
11944.5 0
11945.5 0
11946.5 0
11947.5 0
11948.5 0
11949.5 0
11950.5 0
11951.5 0
11952.5 0
11953.5 0
11954.5 0
11955.5 0
11956.5 0
11957.5 0
11958.5 0
11959.5 0
11960.5 0
11961.5 0
11962.5 0
11963.5 0
11964.5 0
11965.5 0
11966.5 0
11967.5 0
11968.5 0
11969.5 0
11970.5 0
11971.5 0
11972.5 0
11973.5 0
11974.5 0
11975.5 0
11976.5 0
11977.5 0
11978.5 0
11979.5 0
11980.5 0
11981.5 0
11982.5 0
11983.5 0
11984.5 0
11985.5 0
11986.5 0
11987.5 0
11988.5 0
11989.5 0
11990.5 0
11991.5 0
11992.5 0
11993.5 0
11994.5 0
11995.5 0
11996.5 0
11997.5 0
11998.5 0
11999.5 1
