# EGG_ProjY_E1182.0(3.0)_B1177.5(1.5)_B1195.0(1.0)_B1186.0(1.0)
# X axis : Energy (keV) [Y axis]
# Y axis : Counts/1 keV
# N Bins : 12000
# X Min : 0
# X Max : 12000
# X value at the center of the bins
0.5 0
1.5 0
2.5 0
3.5 0
4.5 0
5.5 28
6.5 40.8571
7.5 21.7143
8.5 11.8571
9.5 18
10.5 18.5714
11.5 2.85714
12.5 25.8571
13.5 69
14.5 39
15.5 41.8571
16.5 91.8571
17.5 103
18.5 149.143
19.5 219.286
20.5 294.571
21.5 452
22.5 492.286
23.5 544.571
24.5 572
25.5 724.286
26.5 739.429
27.5 861.429
28.5 797.143
29.5 1154
30.5 1095.71
31.5 1274.71
32.5 1224.71
33.5 1259.86
34.5 1366
35.5 1359.29
36.5 1513.14
37.5 1631.71
38.5 1804.71
39.5 1966.43
40.5 1762.43
41.5 2310.57
42.5 2989.14
43.5 2331
44.5 1990
45.5 1743.86
46.5 1747.43
47.5 1758.29
48.5 2022.14
49.5 1935.71
50.5 1814.86
51.5 1812.43
52.5 1838.86
53.5 1681.14
54.5 1652
55.5 1785.71
56.5 1733.71
57.5 2199
58.5 2746.86
59.5 2856
60.5 2323.14
61.5 1922.29
62.5 1887
63.5 1944.86
64.5 1998
65.5 2161.43
66.5 2273.14
67.5 2521.71
68.5 2164.86
69.5 2028.14
70.5 1824
71.5 2152.86
72.5 2107.29
73.5 2465.14
74.5 3468.57
75.5 3441.57
76.5 4072
77.5 4456.71
78.5 3553
79.5 2662.43
80.5 2496.86
81.5 2113.57
82.5 2125.71
83.5 2021
84.5 2194
85.5 2155.57
86.5 2634.14
87.5 3391.43
88.5 2590.43
89.5 2650
90.5 2383.57
91.5 2205.86
92.5 1923.29
93.5 1954.86
94.5 1966
95.5 1912.14
96.5 2111
97.5 1981.43
98.5 1974.71
99.5 1962.43
100.5 2164
101.5 2095.86
102.5 2026.57
103.5 2190
104.5 1987.86
105.5 1938.71
106.5 2227.29
107.5 1928
108.5 2298.57
109.5 2253
110.5 2382.86
111.5 2586.29
112.5 2458.71
113.5 2446.57
114.5 2274.29
115.5 2345
116.5 2248.57
117.5 2148.29
118.5 2277.14
119.5 2377.43
120.5 2598.57
121.5 2617.14
122.5 2703.29
123.5 2537
124.5 2854.43
125.5 2698.29
126.5 2771.57
127.5 2647.71
128.5 2794.14
129.5 2624.14
130.5 2396
131.5 2357.14
132.5 2616.57
133.5 2619.14
134.5 2808.14
135.5 2650.71
136.5 2592.86
137.5 2764.71
138.5 2555
139.5 2814.29
140.5 2757.29
141.5 2816.71
142.5 2681.71
143.5 2602.29
144.5 2653.71
145.5 2943.14
146.5 2643.14
147.5 2896.29
148.5 2788.14
149.5 2625.57
150.5 2494
151.5 2698
152.5 2634.14
153.5 2869.86
154.5 2320.43
155.5 2654.43
156.5 2632.71
157.5 2766.29
158.5 2672.71
159.5 2854.29
160.5 2728
161.5 2817.86
162.5 2764.29
163.5 2805.71
164.5 2803.57
165.5 2627.57
166.5 2724.86
167.5 2591.29
168.5 2702.57
169.5 3068.71
170.5 2947.14
171.5 2606
172.5 2760.71
173.5 2702.43
174.5 2755
175.5 2455.14
176.5 2950.86
177.5 3232.29
178.5 2961.29
179.5 2558.43
180.5 3106.14
181.5 2683
182.5 2743
183.5 2694.43
184.5 3005
185.5 2840.43
186.5 2912.86
187.5 3055.29
188.5 3142.86
189.5 3088.14
190.5 3151.57
191.5 3379.57
192.5 3000.14
193.5 3038.29
194.5 3353.43
195.5 3309
196.5 3006
197.5 3478.14
198.5 4337
199.5 5474.86
200.5 5148.14
201.5 6172.43
202.5 6505.86
203.5 4358.29
204.5 3393.43
205.5 3572.29
206.5 3724.14
207.5 3454.57
208.5 3281
209.5 3390.71
210.5 3040.14
211.5 3275.57
212.5 3218
213.5 3475.57
214.5 3436.43
215.5 3350
216.5 3040
217.5 3433.57
218.5 3381.71
219.5 3036.86
220.5 3137.57
221.5 3012.57
222.5 3190.43
223.5 3189
224.5 3195.57
225.5 2966.29
226.5 3211.43
227.5 3296.29
228.5 2830
229.5 2934.57
230.5 3022
231.5 2627.29
232.5 2840.14
233.5 2692
234.5 2581.86
235.5 3006.14
236.5 3134
237.5 3164.86
238.5 3027.29
239.5 2839.43
240.5 2710.57
241.5 2637.14
242.5 2730.29
243.5 2959.71
244.5 3642.29
245.5 4076.14
246.5 4004.43
247.5 3526.43
248.5 3333.57
249.5 2873.71
250.5 2294.29
251.5 2348.14
252.5 2316.86
253.5 2460.86
254.5 2705.57
255.5 2809.29
256.5 2643.86
257.5 2710.43
258.5 2622
259.5 2723.43
260.5 2936.29
261.5 2624.57
262.5 2514.14
263.5 2484.86
264.5 2452.14
265.5 2545.57
266.5 2514.14
267.5 2434
268.5 2746.43
269.5 2773.86
270.5 2450.29
271.5 2359.43
272.5 2518.71
273.5 2402.29
274.5 2722.29
275.5 2632.71
276.5 2400.29
277.5 2733
278.5 2656.14
279.5 2613.29
280.5 2735.29
281.5 2847.29
282.5 2474.57
283.5 2418
284.5 2438.57
285.5 2089.43
286.5 2458.71
287.5 2441.14
288.5 2545.57
289.5 2641.29
290.5 2457
291.5 2575.29
292.5 2417.43
293.5 2352.71
294.5 2281.43
295.5 2211.71
296.5 2575.71
297.5 2850.14
298.5 3037.29
299.5 2899
300.5 2728.71
301.5 2276.86
302.5 1478
303.5 1035.29
304.5 1119
305.5 1118.71
306.5 1799.14
307.5 2301.71
308.5 2525.43
309.5 2392.29
310.5 2126.57
311.5 1555.43
312.5 1683.71
313.5 1936.29
314.5 2992.86
315.5 4192
316.5 4728.43
317.5 5049.29
318.5 4454.86
319.5 3382.71
320.5 2127.57
321.5 945.143
322.5 749.857
323.5 1340.71
324.5 1770.14
325.5 2234.57
326.5 2233
327.5 2150.29
328.5 2304.29
329.5 2360.86
330.5 2294.14
331.5 2180.86
332.5 2024.86
333.5 2161.57
334.5 2290.43
335.5 2270.29
336.5 2157.86
337.5 2204.43
338.5 2279.71
339.5 2115.86
340.5 2328
341.5 2199.29
342.5 2044
343.5 2051
344.5 2049
345.5 1950.71
346.5 1982.86
347.5 2010.43
348.5 2036.14
349.5 1939.29
350.5 2164.57
351.5 1989.29
352.5 2161.29
353.5 2038
354.5 2077.71
355.5 2351.14
356.5 2388.29
357.5 2289.57
358.5 2329.29
359.5 2346.86
360.5 2005.86
361.5 2186.14
362.5 2027
363.5 1783.86
364.5 1994.71
365.5 1935.43
366.5 2007.71
367.5 1967.71
368.5 2048.71
369.5 2100
370.5 1888
371.5 1985.14
372.5 2057.14
373.5 2254.14
374.5 1955.86
375.5 1971.14
376.5 2044
377.5 1877.57
378.5 2053.43
379.5 2031.14
380.5 1778.86
381.5 1874.29
382.5 2087.14
383.5 1997
384.5 2103.57
385.5 2160.29
386.5 2071.71
387.5 2082.43
388.5 1839.43
389.5 1852.14
390.5 2162.43
391.5 1982
392.5 1953
393.5 2142.71
394.5 2074.29
395.5 1910.71
396.5 2058.71
397.5 2154.71
398.5 1831.14
399.5 1825.57
400.5 1938.86
401.5 1921.71
402.5 2176
403.5 2329.71
404.5 2627.86
405.5 2204
406.5 2401.57
407.5 2164.57
408.5 2013.29
409.5 1886.86
410.5 1728
411.5 1993.86
412.5 1775.86
413.5 2005.29
414.5 2051
415.5 1961.71
416.5 2066.29
417.5 1865
418.5 2102.43
419.5 2137.29
420.5 2110.14
421.5 2119.86
422.5 2264.43
423.5 2168.86
424.5 2019
425.5 1758.86
426.5 1909.14
427.5 2073.86
428.5 1928.71
429.5 1977.43
430.5 1995.71
431.5 2089.57
432.5 2159
433.5 1987.29
434.5 2048
435.5 1924
436.5 1520.86
437.5 1139.57
438.5 1033.86
439.5 1518.86
440.5 2066
441.5 2178.43
442.5 2095
443.5 1977.86
444.5 1729.86
445.5 1637
446.5 1336.57
447.5 1638.86
448.5 2747.86
449.5 3488.29
450.5 3921.29
451.5 3921.86
452.5 3586.43
453.5 2585
454.5 1542.71
455.5 938.857
456.5 1088.57
457.5 1422.14
458.5 1777.57
459.5 1900.14
460.5 1871
461.5 1748.14
462.5 1745.43
463.5 1910.57
464.5 2169.57
465.5 2262.43
466.5 2203.71
467.5 2109
468.5 1838.43
469.5 1733.14
470.5 1456
471.5 1599.71
472.5 1679
473.5 2103.57
474.5 2177
475.5 3138.43
476.5 3589.86
477.5 2567.71
478.5 2059.43
479.5 2377.14
480.5 1926.57
481.5 1845.71
482.5 1810.71
483.5 1833.29
484.5 1771.43
485.5 1697
486.5 1782.86
487.5 1730.86
488.5 1904.29
489.5 1664.29
490.5 1823
491.5 1754.43
492.5 1523.57
493.5 1693.71
494.5 1642
495.5 1865.43
496.5 1728.14
497.5 1730.86
498.5 1705.57
499.5 1709.14
500.5 1624.29
501.5 1852.29
502.5 1667.29
503.5 1718.29
504.5 2001
505.5 1670.86
506.5 1986.43
507.5 2198.71
508.5 3181.14
509.5 3784.14
510.5 5600.86
511.5 5609.43
512.5 4449
513.5 3026.57
514.5 2060.43
515.5 1704.86
516.5 1714.14
517.5 1663.86
518.5 1713.71
519.5 1621.29
520.5 1658.14
521.5 1684
522.5 1551
523.5 1574
524.5 1647.57
525.5 1763.57
526.5 1511.86
527.5 1732.71
528.5 1421
529.5 1389.43
530.5 1568
531.5 1500.57
532.5 1502
533.5 1523
534.5 1603.71
535.5 1631.71
536.5 1628
537.5 1555.14
538.5 1523.14
539.5 1485.57
540.5 1756.71
541.5 1780.14
542.5 1794.57
543.5 1967.57
544.5 1963.57
545.5 1819.57
546.5 1549.14
547.5 1384.14
548.5 1697.57
549.5 1363.14
550.5 1606.43
551.5 1691.71
552.5 1687.57
553.5 1639.86
554.5 1641
555.5 1575
556.5 1660.57
557.5 1806
558.5 1602
559.5 1690.43
560.5 1653
561.5 1503.14
562.5 1722.71
563.5 1701.14
564.5 1634.86
565.5 1793.43
566.5 1665.86
567.5 1588.29
568.5 1532.29
569.5 1615.57
570.5 1687
571.5 1608
572.5 1470.57
573.5 1597.14
574.5 1421.29
575.5 1427.57
576.5 1419.29
577.5 1482.43
578.5 1526.43
579.5 1499.71
580.5 1601.43
581.5 1534.43
582.5 1231.86
583.5 1219.43
584.5 1345.29
585.5 1433.71
586.5 1384.57
587.5 1404
588.5 1395.57
589.5 1544.43
590.5 1499.71
591.5 1646
592.5 1544.29
593.5 1491
594.5 1753.29
595.5 1868.86
596.5 1947.43
597.5 1781.71
598.5 1759.71
599.5 1677.14
600.5 1505.71
601.5 1480.57
602.5 1426.14
603.5 1546
604.5 2360.43
605.5 3240.14
606.5 2382.86
607.5 1847.43
608.5 1647.14
609.5 1413
610.5 1488
611.5 1443.86
612.5 1518
613.5 1539.57
614.5 1456.57
615.5 1494.71
616.5 1517.43
617.5 1577.29
618.5 1530.29
619.5 1579.43
620.5 1493
621.5 1445
622.5 1492.29
623.5 1662.57
624.5 1696
625.5 2176
626.5 5931.14
627.5 23676.9
628.5 44232.7
629.5 29841.9
630.5 9174.43
631.5 2946
632.5 1642.86
633.5 1368.57
634.5 1632.29
635.5 1573.14
636.5 1672.29
637.5 1591.86
638.5 1316
639.5 1467.29
640.5 1554.43
641.5 1422.57
642.5 1456.71
643.5 1309.29
644.5 1466.14
645.5 1487.14
646.5 1416.14
647.5 1399.43
648.5 1294.86
649.5 1529.57
650.5 1640
651.5 1531.86
652.5 1429.86
653.5 1479.43
654.5 1201.71
655.5 865.857
656.5 717.429
657.5 1224.57
658.5 1339.43
659.5 1413.43
660.5 1477.14
661.5 1512.86
662.5 1531
663.5 1555
664.5 1474
665.5 1520.43
666.5 1557.29
667.5 1528.71
668.5 1518.14
669.5 1461.57
670.5 1462
671.5 1412.29
672.5 1394.71
673.5 1259.57
674.5 1217.71
675.5 1205.43
676.5 1342.57
677.5 1921.57
678.5 2397.57
679.5 2033.71
680.5 1572.14
681.5 1395.86
682.5 1469.29
683.5 1352.57
684.5 1296.29
685.5 1149
686.5 1256
687.5 1265.57
688.5 1159.71
689.5 1314.43
690.5 1499.86
691.5 1179.86
692.5 1087.57
693.5 1120.43
694.5 1209
695.5 1112.86
696.5 1091.14
697.5 1013.43
698.5 1095.14
699.5 1076.57
700.5 1388.43
701.5 1503.29
702.5 1486.43
703.5 1724.43
704.5 1667.43
705.5 1535.14
706.5 1183.57
707.5 1227.43
708.5 1126.14
709.5 1112.86
710.5 986.286
711.5 1073.43
712.5 1220.29
713.5 1323
714.5 1137.43
715.5 1231.29
716.5 1270.86
717.5 1258.29
718.5 1253.86
719.5 1239.71
720.5 1108.14
721.5 1167
722.5 1276.57
723.5 1250
724.5 1302.43
725.5 1163.57
726.5 1273.14
727.5 1325
728.5 1329.86
729.5 1296.71
730.5 1330.57
731.5 1215.14
732.5 1355.71
733.5 1394.86
734.5 1194
735.5 1215.14
736.5 1284.86
737.5 1275.71
738.5 1360.86
739.5 1170.43
740.5 1319.29
741.5 1280
742.5 1257.14
743.5 998.571
744.5 1088.71
745.5 1228.43
746.5 1244.14
747.5 1529
748.5 1344.43
749.5 1198.43
750.5 1362.29
751.5 1359.29
752.5 1370.29
753.5 1320.43
754.5 1196.57
755.5 1150.71
756.5 1292.43
757.5 1513.43
758.5 2386.71
759.5 7205
760.5 18987
761.5 21036
762.5 9814.14
763.5 3151.57
764.5 1628.86
765.5 1200.29
766.5 1190.29
767.5 917.429
768.5 832.429
769.5 1062.43
770.5 1294.14
771.5 1211.71
772.5 1240.14
773.5 1126.14
774.5 1346.71
775.5 1330.14
776.5 1269.29
777.5 1262.86
778.5 1299.86
779.5 1106.57
780.5 1312.14
781.5 1180.14
782.5 1147.29
783.5 1334.43
784.5 1529.57
785.5 1557.14
786.5 1449.57
787.5 1358.43
788.5 1325.43
789.5 1222
790.5 1323.57
791.5 1276.43
792.5 1373.71
793.5 1396.29
794.5 1381.43
795.5 1183.71
796.5 1338
797.5 1310.43
798.5 1338.29
799.5 1256.86
800.5 1336
801.5 1198
802.5 1054.29
803.5 1088.86
804.5 1059.86
805.5 866.286
806.5 835.857
807.5 724
808.5 1075
809.5 1354.43
810.5 1260
811.5 1232.29
812.5 1392.71
813.5 1173
814.5 1282.71
815.5 1065.43
816.5 1162.57
817.5 1070.71
818.5 1258.71
819.5 1559.43
820.5 1482.29
821.5 1306
822.5 1230.29
823.5 1173.14
824.5 1035.57
825.5 1340.43
826.5 1194.86
827.5 1163.71
828.5 1194.86
829.5 1005.14
830.5 1249.43
831.5 1085
832.5 1230
833.5 1285.57
834.5 1210.86
835.5 1114.29
836.5 1255.14
837.5 1167.86
838.5 1268.86
839.5 1266.43
840.5 1098.29
841.5 1236.86
842.5 1184.14
843.5 1197.29
844.5 1186.86
845.5 1066
846.5 1245.86
847.5 1273
848.5 1221.14
849.5 1166.43
850.5 1204
851.5 1185.86
852.5 1231.71
853.5 1251.43
854.5 1224.71
855.5 1225.14
856.5 1214.14
857.5 1102.43
858.5 1168.71
859.5 1316.86
860.5 1195.29
861.5 1223.71
862.5 1287.43
863.5 1294.86
864.5 1307.43
865.5 1545.86
866.5 3139.57
867.5 10934.4
868.5 30235.4
869.5 36710.3
870.5 19106.7
871.5 5474.57
872.5 2053.29
873.5 1367.43
874.5 1323.71
875.5 1378.43
876.5 1121.43
877.5 1131.43
878.5 1043.57
879.5 1083.57
880.5 1191.43
881.5 1187.86
882.5 1208.57
883.5 1199.86
884.5 1139.57
885.5 1138
886.5 1153.57
887.5 1138.29
888.5 1020
889.5 1209
890.5 1269.14
891.5 1283.86
892.5 1328.71
893.5 1323.71
894.5 1249.86
895.5 1255
896.5 1268.29
897.5 1319.43
898.5 1345.14
899.5 1336.29
900.5 1238.14
901.5 1234.43
902.5 1325.43
903.5 1289.14
904.5 1320
905.5 1348.57
906.5 1451.14
907.5 1452.43
908.5 1400
909.5 1545.43
910.5 1345.14
911.5 1376.29
912.5 1411.29
913.5 1475.57
914.5 1446.29
915.5 1404.71
916.5 1394.14
917.5 1268.57
918.5 1359.29
919.5 1341.43
920.5 1188.86
921.5 1208.86
922.5 1152
923.5 1200
924.5 1355.29
925.5 1170.57
926.5 1311.57
927.5 1385.86
928.5 1203
929.5 1136.14
930.5 1271.71
931.5 1238.86
932.5 1285.43
933.5 1197.86
934.5 1209
935.5 1360.29
936.5 1235.71
937.5 1285.43
938.5 1385.14
939.5 1206.57
940.5 1342.29
941.5 1321.14
942.5 1241
943.5 1238
944.5 1324.86
945.5 1172.71
946.5 1110.29
947.5 1068.29
948.5 1216.14
949.5 1142
950.5 1074.86
951.5 1011.29
952.5 1084
953.5 1063.57
954.5 878.571
955.5 808.143
956.5 859.143
957.5 883.143
958.5 940
959.5 1003.71
960.5 1049.14
961.5 796.714
962.5 917.143
963.5 917.429
964.5 960.143
965.5 926
966.5 981.143
967.5 980.714
968.5 1091.71
969.5 995
970.5 932
971.5 853.571
972.5 859.286
973.5 739.286
974.5 761.429
975.5 777.857
976.5 840.286
977.5 914.429
978.5 1004.29
979.5 849.286
980.5 816.286
981.5 936.286
982.5 846.714
983.5 824.714
984.5 790.286
985.5 809.714
986.5 768.857
987.5 903
988.5 809.571
989.5 871.143
990.5 944.714
991.5 930.857
992.5 945.857
993.5 895.571
994.5 872.571
995.5 1176.43
996.5 1099.86
997.5 1113.71
998.5 1370.86
999.5 4228
1000.5 13678.6
1001.5 27693.1
1002.5 25123.3
1003.5 9813.71
1004.5 2442.71
1005.5 1206.43
1006.5 774.429
1007.5 499.571
1008.5 584.571
1009.5 630.857
1010.5 728
1011.5 649.429
1012.5 667.429
1013.5 656.857
1014.5 704.714
1015.5 614.857
1016.5 596.286
1017.5 610.714
1018.5 619.571
1019.5 586.714
1020.5 636.571
1021.5 587.429
1022.5 704.857
1023.5 759.857
1024.5 849
1025.5 602
1026.5 280
1027.5 129.571
1028.5 247.429
1029.5 341.714
1030.5 316.857
1031.5 470.571
1032.5 432.571
1033.5 491.857
1034.5 166.286
1035.5 208.286
1036.5 366.143
1037.5 544.714
1038.5 1139.57
1039.5 1466.29
1040.5 1636
1041.5 1492.14
1042.5 1097
1043.5 743.143
1044.5 402.286
1045.5 -90.1429
1046.5 170.143
1047.5 173.714
1048.5 278.857
1049.5 552.143
1050.5 506.143
1051.5 406.857
1052.5 581.143
1053.5 472.857
1054.5 494.429
1055.5 461.286
1056.5 488
1057.5 475
1058.5 586.143
1059.5 665.571
1060.5 649.143
1061.5 606.143
1062.5 345.714
1063.5 415
1064.5 486.571
1065.5 413.714
1066.5 465.857
1067.5 427.429
1068.5 391
1069.5 376.571
1070.5 433.571
1071.5 486.143
1072.5 488.571
1073.5 802.571
1074.5 841.714
1075.5 503.429
1076.5 518.143
1077.5 441.286
1078.5 462
1079.5 473.857
1080.5 540.286
1081.5 460.429
1082.5 445.857
1083.5 406.571
1084.5 414.857
1085.5 408.143
1086.5 425.143
1087.5 392.143
1088.5 459.286
1089.5 447.714
1090.5 468
1091.5 366.429
1092.5 436.429
1093.5 476
1094.5 451.429
1095.5 394.714
1096.5 484.857
1097.5 380.571
1098.5 431.429
1099.5 494.857
1100.5 435
1101.5 482.286
1102.5 335.429
1103.5 371.429
1104.5 467.429
1105.5 398.857
1106.5 488.857
1107.5 428.286
1108.5 541.714
1109.5 407.571
1110.5 420.429
1111.5 444.143
1112.5 484.429
1113.5 605.571
1114.5 690.714
1115.5 555.571
1116.5 478.571
1117.5 486.714
1118.5 448
1119.5 448.857
1120.5 367.429
1121.5 557.857
1122.5 1157.43
1123.5 4599.14
1124.5 16112.9
1125.5 38919
1126.5 43370.7
1127.5 19853.4
1128.5 4494.86
1129.5 977.571
1130.5 614.571
1131.5 394
1132.5 362.286
1133.5 306.857
1134.5 306.571
1135.5 311.286
1136.5 284.857
1137.5 338.714
1138.5 289.143
1139.5 253.857
1140.5 313.143
1141.5 338.429
1142.5 329
1143.5 380.429
1144.5 258.714
1145.5 249.429
1146.5 352
1147.5 256
1148.5 399.571
1149.5 319.571
1150.5 411.286
1151.5 378.571
1152.5 510.143
1153.5 1645
1154.5 6931.71
1155.5 23747
1156.5 52849.9
1157.5 53934
1158.5 22333.6
1159.5 4654
1160.5 1007.86
1161.5 477.571
1162.5 350.714
1163.5 271.857
1164.5 246.143
1165.5 103.857
1166.5 103.286
1167.5 49.2857
1168.5 236.857
1169.5 192.857
1170.5 186
1171.5 214.571
1172.5 260.286
1173.5 191.571
1174.5 194.286
1175.5 168.714
1176.5 203.857
1177.5 228.857
1178.5 232.286
1179.5 197
1180.5 208.857
1181.5 183.571
1182.5 235.857
1183.5 273
1184.5 270.857
1185.5 -34.5714
1186.5 130.714
1187.5 83.7143
1188.5 164.143
1189.5 222.571
1190.5 223.143
1191.5 141.857
1192.5 193.857
1193.5 141.857
1194.5 169
1195.5 97
1196.5 218.429
1197.5 129.857
1198.5 102.571
1199.5 167.286
1200.5 126.429
1201.5 189.286
1202.5 96.1428
1203.5 267.429
1204.5 241.857
1205.5 213.571
1206.5 246.571
1207.5 195
1208.5 209
1209.5 137.571
1210.5 188.571
1211.5 88.5714
1212.5 197.143
1213.5 157
1214.5 138.143
1215.5 139.571
1216.5 172.143
1217.5 180.857
1218.5 216.143
1219.5 178.286
1220.5 154.857
1221.5 79.1428
1222.5 152.714
1223.5 114
1224.5 154.286
1225.5 195.429
1226.5 178.857
1227.5 172
1228.5 207.143
1229.5 148.286
1230.5 197.714
1231.5 107.429
1232.5 143.571
1233.5 180.571
1234.5 241.857
1235.5 206
1236.5 152.143
1237.5 141.143
1238.5 107.571
1239.5 172
1240.5 191.857
1241.5 203.571
1242.5 208.857
1243.5 181
1244.5 268.143
1245.5 179.143
1246.5 155.143
1247.5 246.714
1248.5 275.714
1249.5 219.429
1250.5 173.286
1251.5 173.571
1252.5 163
1253.5 243.571
1254.5 142.857
1255.5 224.571
1256.5 152.286
1257.5 129
1258.5 135.143
1259.5 92.7143
1260.5 201.429
1261.5 146.857
1262.5 164
1263.5 195.714
1264.5 112.571
1265.5 60.4286
1266.5 174.571
1267.5 226.286
1268.5 287.714
1269.5 379.286
1270.5 365.143
1271.5 245
1272.5 195.714
1273.5 145.714
1274.5 194.143
1275.5 164.286
1276.5 183.857
1277.5 139.429
1278.5 104.286
1279.5 259
1280.5 140.714
1281.5 203.571
1282.5 201.143
1283.5 204.143
1284.5 248.286
1285.5 183.714
1286.5 134.714
1287.5 264.143
1288.5 171.143
1289.5 183.857
1290.5 123.143
1291.5 209.429
1292.5 217
1293.5 113.143
1294.5 157
1295.5 140.571
1296.5 140.714
1297.5 110
1298.5 156.143
1299.5 209.857
1300.5 234.714
1301.5 82.7143
1302.5 228.857
1303.5 144.571
1304.5 192
1305.5 123.429
1306.5 138.571
1307.5 216.857
1308.5 218.571
1309.5 152.857
1310.5 133
1311.5 121.143
1312.5 40.8571
1313.5 156.714
1314.5 188
1315.5 221.143
1316.5 204
1317.5 164.286
1318.5 165.571
1319.5 124.857
1320.5 223.571
1321.5 123
1322.5 107.429
1323.5 171.714
1324.5 278.857
1325.5 203.857
1326.5 175.286
1327.5 191.857
1328.5 128.571
1329.5 215.571
1330.5 182
1331.5 168.571
1332.5 148.714
1333.5 209.857
1334.5 203.429
1335.5 200.857
1336.5 185.429
1337.5 229.571
1338.5 191.286
1339.5 194.714
1340.5 163.286
1341.5 182.857
1342.5 181.286
1343.5 156.429
1344.5 187
1345.5 213.857
1346.5 158.857
1347.5 259.857
1348.5 165.286
1349.5 192.429
1350.5 99
1351.5 110.857
1352.5 53.7143
1353.5 150.429
1354.5 152.286
1355.5 169
1356.5 138.286
1357.5 248.429
1358.5 190.143
1359.5 212.571
1360.5 205.857
1361.5 168.143
1362.5 182
1363.5 184.143
1364.5 168.286
1365.5 138.571
1366.5 166.286
1367.5 236.714
1368.5 228
1369.5 254.429
1370.5 153.286
1371.5 245.857
1372.5 217.429
1373.5 225.857
1374.5 300.429
1375.5 292
1376.5 206.714
1377.5 283
1378.5 198
1379.5 144.143
1380.5 139.143
1381.5 143.143
1382.5 191.286
1383.5 184.857
1384.5 168.714
1385.5 193.429
1386.5 125.714
1387.5 182.429
1388.5 178.571
1389.5 127.714
1390.5 174.857
1391.5 187.714
1392.5 155
1393.5 183.571
1394.5 233.286
1395.5 257.429
1396.5 199.857
1397.5 115.429
1398.5 150.571
1399.5 144.286
1400.5 236.571
1401.5 172.571
1402.5 203.857
1403.5 194.714
1404.5 129.571
1405.5 149.286
1406.5 175.571
1407.5 340.857
1408.5 362.714
1409.5 359.429
1410.5 175.429
1411.5 192
1412.5 129.143
1413.5 173.429
1414.5 140.286
1415.5 135.571
1416.5 120
1417.5 156
1418.5 153.286
1419.5 189.429
1420.5 123.714
1421.5 178.571
1422.5 233.429
1423.5 259.429
1424.5 156.429
1425.5 195.429
1426.5 242
1427.5 298.571
1428.5 263.714
1429.5 274.429
1430.5 212.429
1431.5 202.714
1432.5 160
1433.5 152.857
1434.5 187.571
1435.5 216.714
1436.5 184
1437.5 190.429
1438.5 177.714
1439.5 205.429
1440.5 248.286
1441.5 103.714
1442.5 234.429
1443.5 158.714
1444.5 159.143
1445.5 171.143
1446.5 210.429
1447.5 147.571
1448.5 79.8571
1449.5 158.714
1450.5 229.714
1451.5 156.286
1452.5 157.286
1453.5 132.714
1454.5 142
1455.5 85
1456.5 203.286
1457.5 209.429
1458.5 155.857
1459.5 171.429
1460.5 182.571
1461.5 239.286
1462.5 216.857
1463.5 157.571
1464.5 171.571
1465.5 247
1466.5 435.143
1467.5 807.429
1468.5 1160.86
1469.5 1021.43
1470.5 470.143
1471.5 246.286
1472.5 283.857
1473.5 256.429
1474.5 257.286
1475.5 270.571
1476.5 115.429
1477.5 176.143
1478.5 173
1479.5 242.143
1480.5 258.714
1481.5 277.429
1482.5 288.714
1483.5 261.429
1484.5 203.857
1485.5 174.429
1486.5 224.286
1487.5 187.286
1488.5 78
1489.5 206.571
1490.5 178.429
1491.5 185.429
1492.5 163.571
1493.5 189.429
1494.5 185
1495.5 204.143
1496.5 216.143
1497.5 134
1498.5 166.143
1499.5 97.1428
1500.5 235.429
1501.5 168.857
1502.5 119.286
1503.5 194.714
1504.5 207.143
1505.5 162.429
1506.5 186.571
1507.5 95
1508.5 184
1509.5 86.5714
1510.5 185.286
1511.5 198.429
1512.5 142.286
1513.5 237.571
1514.5 245.429
1515.5 214.143
1516.5 149.857
1517.5 176
1518.5 167.429
1519.5 154.714
1520.5 172.714
1521.5 188.143
1522.5 159.857
1523.5 93.7143
1524.5 159.714
1525.5 180.714
1526.5 144
1527.5 118.857
1528.5 207.429
1529.5 233.857
1530.5 161.286
1531.5 161.714
1532.5 167.286
1533.5 109.143
1534.5 58.8571
1535.5 186.429
1536.5 145.286
1537.5 186.143
1538.5 157.857
1539.5 173.143
1540.5 161.429
1541.5 216.286
1542.5 192.714
1543.5 78.7143
1544.5 163
1545.5 180.143
1546.5 148.571
1547.5 184.857
1548.5 157.286
1549.5 227.571
1550.5 181.857
1551.5 189.571
1552.5 213
1553.5 191
1554.5 165.286
1555.5 193.571
1556.5 136
1557.5 199
1558.5 215.429
1559.5 189.714
1560.5 184.429
1561.5 182.714
1562.5 182.143
1563.5 193.286
1564.5 246.714
1565.5 185.143
1566.5 140.714
1567.5 152.429
1568.5 182.571
1569.5 221.429
1570.5 242.143
1571.5 400.714
1572.5 547.714
1573.5 422.143
1574.5 219.714
1575.5 188.857
1576.5 172.714
1577.5 248.286
1578.5 207.286
1579.5 218.714
1580.5 194.857
1581.5 202.714
1582.5 133.714
1583.5 179.857
1584.5 169
1585.5 245
1586.5 212.714
1587.5 160.571
1588.5 229.714
1589.5 247.714
1590.5 149.286
1591.5 130.429
1592.5 222.143
1593.5 194.857
1594.5 176.857
1595.5 229
1596.5 187
1597.5 204.714
1598.5 135.143
1599.5 222.857
1600.5 237.714
1601.5 140.143
1602.5 149.143
1603.5 174.714
1604.5 287
1605.5 181
1606.5 216
1607.5 205
1608.5 209.286
1609.5 144.714
1610.5 148.571
1611.5 201.571
1612.5 215.571
1613.5 227.286
1614.5 209
1615.5 225.857
1616.5 204.143
1617.5 227.286
1618.5 210.429
1619.5 195.143
1620.5 183
1621.5 199.857
1622.5 290.714
1623.5 233.429
1624.5 257.857
1625.5 242.286
1626.5 250.429
1627.5 315.429
1628.5 917
1629.5 1845.43
1630.5 2475.43
1631.5 1723.14
1632.5 798.857
1633.5 368.714
1634.5 293
1635.5 282.286
1636.5 178.571
1637.5 226.571
1638.5 151.714
1639.5 98.2857
1640.5 221.286
1641.5 164.429
1642.5 167
1643.5 105
1644.5 184.857
1645.5 223.429
1646.5 194.571
1647.5 73.4286
1648.5 136.429
1649.5 190.286
1650.5 236.286
1651.5 257.429
1652.5 194.857
1653.5 256.571
1654.5 219.429
1655.5 250
1656.5 53.8571
1657.5 -1.00001
1658.5 -259.143
1659.5 7.71427
1660.5 102.857
1661.5 117.286
1662.5 169.429
1663.5 183
1664.5 204
1665.5 256.429
1666.5 200.143
1667.5 109
1668.5 180.857
1669.5 200
1670.5 199.571
1671.5 131
1672.5 123.429
1673.5 124.571
1674.5 139
1675.5 100.286
1676.5 93.7143
1677.5 137.429
1678.5 156.571
1679.5 149.857
1680.5 173.571
1681.5 150
1682.5 202.286
1683.5 153.143
1684.5 144.286
1685.5 237
1686.5 170.571
1687.5 163
1688.5 169.857
1689.5 188.571
1690.5 109.714
1691.5 212.286
1692.5 251.714
1693.5 168.571
1694.5 150.286
1695.5 253.571
1696.5 183.714
1697.5 144.857
1698.5 218.571
1699.5 238.429
1700.5 101.571
1701.5 174.571
1702.5 223.429
1703.5 128.286
1704.5 92.7143
1705.5 138.857
1706.5 154.286
1707.5 203.714
1708.5 196
1709.5 199.857
1710.5 173.857
1711.5 172.857
1712.5 220.429
1713.5 222
1714.5 360.857
1715.5 457
1716.5 376.286
1717.5 174.571
1718.5 123.571
1719.5 77.7143
1720.5 95.2857
1721.5 154.571
1722.5 130
1723.5 255
1724.5 175
1725.5 152.429
1726.5 148.857
1727.5 268.429
1728.5 168.571
1729.5 165.857
1730.5 186.429
1731.5 134.571
1732.5 141.714
1733.5 80.2857
1734.5 158.857
1735.5 134.286
1736.5 136
1737.5 134.429
1738.5 114
1739.5 163.143
1740.5 91.2857
1741.5 48
1742.5 64.1428
1743.5 32.5714
1744.5 97.1429
1745.5 155.429
1746.5 107.714
1747.5 160.286
1748.5 118.714
1749.5 152.714
1750.5 214.143
1751.5 404.714
1752.5 547.286
1753.5 512
1754.5 314.429
1755.5 241.429
1756.5 171.857
1757.5 166.714
1758.5 81.5714
1759.5 182.143
1760.5 119
1761.5 87.4286
1762.5 144.571
1763.5 197.714
1764.5 97.1429
1765.5 166.714
1766.5 131.286
1767.5 76.5714
1768.5 144.714
1769.5 140.143
1770.5 114.143
1771.5 75.7143
1772.5 80.2857
1773.5 140.571
1774.5 170.286
1775.5 265.143
1776.5 182.286
1777.5 159
1778.5 194.143
1779.5 130.714
1780.5 159.714
1781.5 152.286
1782.5 146.429
1783.5 186.429
1784.5 163
1785.5 176
1786.5 164.429
1787.5 85
1788.5 201.714
1789.5 140.714
1790.5 120.714
1791.5 97.4286
1792.5 132.714
1793.5 121
1794.5 147.857
1795.5 44.2857
1796.5 103.714
1797.5 122.857
1798.5 120
1799.5 60.4286
1800.5 133.571
1801.5 82.5714
1802.5 153.429
1803.5 173.286
1804.5 151.143
1805.5 190.714
1806.5 74.7143
1807.5 -2.57144
1808.5 -146.714
1809.5 44.2857
1810.5 89
1811.5 69.2857
1812.5 106.286
1813.5 170.857
1814.5 125
1815.5 124.714
1816.5 158.857
1817.5 248.714
1818.5 208.429
1819.5 133.429
1820.5 176.571
1821.5 140.143
1822.5 175.857
1823.5 204.714
1824.5 193
1825.5 191.857
1826.5 131
1827.5 117
1828.5 94.8571
1829.5 111.714
1830.5 138.571
1831.5 125.571
1832.5 185.143
1833.5 120.714
1834.5 176
1835.5 121.714
1836.5 97.4286
1837.5 166.286
1838.5 135
1839.5 76.7143
1840.5 179.571
1841.5 123
1842.5 123.571
1843.5 117.286
1844.5 157.571
1845.5 171
1846.5 214
1847.5 169.571
1848.5 151
1849.5 149.857
1850.5 121.143
1851.5 150
1852.5 140.429
1853.5 122.286
1854.5 138
1855.5 69
1856.5 81.1429
1857.5 146.571
1858.5 154.857
1859.5 54.8571
1860.5 162.143
1861.5 89.2857
1862.5 166.714
1863.5 155.571
1864.5 96.1429
1865.5 95.5714
1866.5 108.286
1867.5 139.286
1868.5 170.571
1869.5 32.1429
1870.5 31.1429
1871.5 47.2857
1872.5 14.8571
1873.5 91
1874.5 146.857
1875.5 115.571
1876.5 125.429
1877.5 137.286
1878.5 126.571
1879.5 144.286
1880.5 164.571
1881.5 105.714
1882.5 175.857
1883.5 518.143
1884.5 1739.57
1885.5 4391.14
1886.5 8461.29
1887.5 8621.14
1888.5 4706.43
1889.5 1422.71
1890.5 387.857
1891.5 228.143
1892.5 163.857
1893.5 120.286
1894.5 144.571
1895.5 141.429
1896.5 158.571
1897.5 126.714
1898.5 150.571
1899.5 134.857
1900.5 116.857
1901.5 124.857
1902.5 101.429
1903.5 57.7143
1904.5 69
1905.5 89.1429
1906.5 143.857
1907.5 112.714
1908.5 107.143
1909.5 60
1910.5 73.7143
1911.5 89.2857
1912.5 128.143
1913.5 136.429
1914.5 45.2857
1915.5 107.857
1916.5 133.143
1917.5 178.286
1918.5 143.857
1919.5 153.857
1920.5 105
1921.5 120.571
1922.5 74.8571
1923.5 65.2857
1924.5 107.714
1925.5 151.571
1926.5 87.1429
1927.5 150.143
1928.5 137.429
1929.5 130
1930.5 52.7143
1931.5 62
1932.5 104.286
1933.5 106.714
1934.5 15.7143
1935.5 130.143
1936.5 67.7143
1937.5 83.7143
1938.5 28.8571
1939.5 115.429
1940.5 140.429
1941.5 112
1942.5 51.8571
1943.5 46.5714
1944.5 57.5714
1945.5 62.8571
1946.5 73.5714
1947.5 69.5714
1948.5 85
1949.5 105.714
1950.5 171.286
1951.5 47.7143
1952.5 89
1953.5 150.286
1954.5 84.1429
1955.5 115.143
1956.5 119.429
1957.5 105.286
1958.5 125.429
1959.5 149.571
1960.5 72.2857
1961.5 66.5714
1962.5 128.857
1963.5 69.1429
1964.5 66.7143
1965.5 83.8571
1966.5 65
1967.5 123.429
1968.5 144
1969.5 89.4286
1970.5 28.4286
1971.5 124.429
1972.5 89.7143
1973.5 59.7143
1974.5 57.8571
1975.5 93.5714
1976.5 78.2857
1977.5 74.7143
1978.5 21.4286
1979.5 35.4286
1980.5 60.1429
1981.5 -8.14286
1982.5 88.5714
1983.5 88.7143
1984.5 158.429
1985.5 93.4286
1986.5 67.4286
1987.5 92.4286
1988.5 135.286
1989.5 38.8571
1990.5 107.429
1991.5 94.2857
1992.5 70
1993.5 17.8571
1994.5 177.286
1995.5 78.8571
1996.5 154.857
1997.5 141.429
1998.5 136.857
1999.5 141
2000.5 182.429
2001.5 86.2857
2002.5 146.143
2003.5 125
2004.5 114.286
2005.5 108
2006.5 149.714
2007.5 142.857
2008.5 105.286
2009.5 150.143
2010.5 65.1429
2011.5 115.714
2012.5 129.286
2013.5 96.1429
2014.5 65.8571
2015.5 40.5714
2016.5 48.7143
2017.5 82.7143
2018.5 120.286
2019.5 74.2857
2020.5 104.857
2021.5 141.429
2022.5 61.7143
2023.5 116.571
2024.5 107.286
2025.5 137.571
2026.5 171
2027.5 95.4286
2028.5 101.286
2029.5 99.4286
2030.5 64.1429
2031.5 65.8571
2032.5 110.714
2033.5 93.8571
2034.5 119
2035.5 80.4286
2036.5 112.286
2037.5 89.4286
2038.5 45.4286
2039.5 108.857
2040.5 78
2041.5 113.571
2042.5 103.571
2043.5 91.4286
2044.5 48.5714
2045.5 89.8571
2046.5 135.714
2047.5 38.7143
2048.5 53.8571
2049.5 59.4286
2050.5 149.857
2051.5 130.571
2052.5 70.7143
2053.5 127.571
2054.5 105.714
2055.5 140.429
2056.5 174.143
2057.5 175.143
2058.5 155
2059.5 120.143
2060.5 121.714
2061.5 61
2062.5 105.286
2063.5 42.4286
2064.5 142.429
2065.5 64
2066.5 55.2857
2067.5 108.714
2068.5 67.7143
2069.5 111.857
2070.5 54.1429
2071.5 8.28571
2072.5 81.1429
2073.5 177.571
2074.5 218.143
2075.5 516
2076.5 837.429
2077.5 1043.57
2078.5 659.857
2079.5 277.571
2080.5 115.143
2081.5 85
2082.5 26.1429
2083.5 57.4286
2084.5 97.5714
2085.5 79.4286
2086.5 127
2087.5 133.571
2088.5 66.5714
2089.5 65.4286
2090.5 57
2091.5 55
2092.5 32.1429
2093.5 71.2857
2094.5 112.143
2095.5 17.7143
2096.5 91.2857
2097.5 93.7143
2098.5 101
2099.5 110.714
2100.5 97.4286
2101.5 79.5714
2102.5 86.1429
2103.5 14.8571
2104.5 31.5714
2105.5 60.5714
2106.5 65.8571
2107.5 40.8571
2108.5 48.2857
2109.5 39
2110.5 47.1429
2111.5 101.429
2112.5 57.2857
2113.5 4.57142
2114.5 20.2857
2115.5 52.8571
2116.5 52.1429
2117.5 89.8571
2118.5 98.4286
2119.5 48.1429
2120.5 39.7143
2121.5 79.8571
2122.5 61.1429
2123.5 67.4286
2124.5 96.7143
2125.5 49.7143
2126.5 131.429
2127.5 114.143
2128.5 158.857
2129.5 155.714
2130.5 176.714
2131.5 116.143
2132.5 86.5714
2133.5 136.143
2134.5 78.4286
2135.5 93.1429
2136.5 133.857
2137.5 95
2138.5 91.1429
2139.5 188.143
2140.5 65
2141.5 83.4286
2142.5 108.714
2143.5 93.4286
2144.5 -13.4286
2145.5 120
2146.5 71.8571
2147.5 119.286
2148.5 215.857
2149.5 537.286
2150.5 608.286
2151.5 461
2152.5 152.714
2153.5 72.4286
2154.5 91.7143
2155.5 105.143
2156.5 150.143
2157.5 154
2158.5 175.571
2159.5 83.1429
2160.5 61.2857
2161.5 65.2857
2162.5 22.4286
2163.5 84.1429
2164.5 92.4286
2165.5 82.5714
2166.5 46.7143
2167.5 100.286
2168.5 89.4286
2169.5 106.857
2170.5 77.5714
2171.5 51.7143
2172.5 77.1429
2173.5 27.2857
2174.5 54.8571
2175.5 86.1429
2176.5 61.5714
2177.5 65.4286
2178.5 78.4286
2179.5 132.857
2180.5 47.5714
2181.5 85.7143
2182.5 120.857
2183.5 266.286
2184.5 287.571
2185.5 187.714
2186.5 170.429
2187.5 104.857
2188.5 121.714
2189.5 158
2190.5 159.143
2191.5 203.571
2192.5 139.571
2193.5 123.143
2194.5 109.714
2195.5 85.1429
2196.5 59
2197.5 106.429
2198.5 111.143
2199.5 142
2200.5 29
2201.5 71.7143
2202.5 34.4286
2203.5 60.2857
2204.5 43.4286
2205.5 89.1429
2206.5 71.2857
2207.5 74.5714
2208.5 32.1429
2209.5 83.4286
2210.5 46.2857
2211.5 40
2212.5 27.1429
2213.5 81.7143
2214.5 57.8571
2215.5 153.286
2216.5 57.7143
2217.5 73.1429
2218.5 106.429
2219.5 134.714
2220.5 84.8571
2221.5 169
2222.5 184.571
2223.5 301.714
2224.5 314.714
2225.5 322.571
2226.5 151.143
2227.5 80.7143
2228.5 68.8571
2229.5 59.8571
2230.5 37.4286
2231.5 14.5714
2232.5 2.85714
2233.5 30.7143
2234.5 70.2857
2235.5 72.7143
2236.5 82.8571
2237.5 40.5714
2238.5 62
2239.5 49.2857
2240.5 58.4286
2241.5 38.2857
2242.5 140.714
2243.5 117.429
2244.5 104.571
2245.5 95.5714
2246.5 72.4286
2247.5 141
2248.5 55.7143
2249.5 132.571
2250.5 98.2857
2251.5 61.2857
2252.5 51.2857
2253.5 140.857
2254.5 58.2857
2255.5 65.7143
2256.5 65.4286
2257.5 70.8571
2258.5 29.1429
2259.5 109.429
2260.5 67.1429
2261.5 98.2857
2262.5 97.1429
2263.5 68.4286
2264.5 154
2265.5 53.7143
2266.5 147
2267.5 88.1429
2268.5 78.5714
2269.5 111
2270.5 51.8571
2271.5 42.7143
2272.5 104
2273.5 76.5714
2274.5 57.2857
2275.5 1.28571
2276.5 51.5714
2277.5 61.5714
2278.5 85
2279.5 85.4286
2280.5 116.429
2281.5 65
2282.5 77.7143
2283.5 88.1429
2284.5 120.286
2285.5 76
2286.5 46
2287.5 78.5714
2288.5 32.8571
2289.5 73.1429
2290.5 88.1429
2291.5 66.1429
2292.5 90.8571
2293.5 41.5714
2294.5 62
2295.5 35.5714
2296.5 -9.28572
2297.5 82
2298.5 43.7143
2299.5 80.2857
2300.5 51.2857
2301.5 80.2857
2302.5 32.8571
2303.5 52.8571
2304.5 94.5714
2305.5 30.2857
2306.5 95
2307.5 86.2857
2308.5 107.714
2309.5 101.571
2310.5 78.2857
2311.5 76.7143
2312.5 88.4286
2313.5 110.143
2314.5 80.8571
2315.5 47.7143
2316.5 119.429
2317.5 95.8571
2318.5 55.4286
2319.5 69.2857
2320.5 88.5714
2321.5 84.8571
2322.5 10.1429
2323.5 126.857
2324.5 42.4286
2325.5 96
2326.5 38.2857
2327.5 132.714
2328.5 82.4286
2329.5 72.1429
2330.5 128.571
2331.5 71.2857
2332.5 92.4286
2333.5 74.5714
2334.5 75.2857
2335.5 115.857
2336.5 31.5714
2337.5 59.7143
2338.5 69.7143
2339.5 51.7143
2340.5 4.42857
2341.5 15.4286
2342.5 30.5714
2343.5 56.7143
2344.5 -35.5714
2345.5 49.5714
2346.5 52.2857
2347.5 65.8571
2348.5 92.8571
2349.5 104.143
2350.5 27.2857
2351.5 91.8571
2352.5 85.5714
2353.5 69.7143
2354.5 73.2857
2355.5 62.8571
2356.5 74.2857
2357.5 70.5714
2358.5 79.7143
2359.5 49.5714
2360.5 65
2361.5 28.7143
2362.5 56.7143
2363.5 66.4286
2364.5 51.4286
2365.5 101.143
2366.5 64.1429
2367.5 21.5714
2368.5 61.8571
2369.5 105.571
2370.5 88
2371.5 72
2372.5 96.2857
2373.5 78
2374.5 45.2857
2375.5 47.8571
2376.5 21.8571
2377.5 33.5714
2378.5 26.5714
2379.5 2.57142
2380.5 65.8571
2381.5 38.5714
2382.5 54
2383.5 45.5714
2384.5 82.4286
2385.5 84.8571
2386.5 89.2857
2387.5 115.714
2388.5 62.2857
2389.5 54.8571
2390.5 49.1429
2391.5 55.1429
2392.5 54.1429
2393.5 30
2394.5 45.1429
2395.5 80.4286
2396.5 109.429
2397.5 90.1429
2398.5 89.4286
2399.5 75.4286
2400.5 46.8571
2401.5 58.8571
2402.5 68.7143
2403.5 55.8571
2404.5 87.5714
2405.5 39.7143
2406.5 113.429
2407.5 72.2857
2408.5 62.5714
2409.5 39.8571
2410.5 115.286
2411.5 132.429
2412.5 126.143
2413.5 84.1429
2414.5 115
2415.5 61.8571
2416.5 60.5714
2417.5 68.1429
2418.5 70.2857
2419.5 50.7143
2420.5 79.8571
2421.5 24.2857
2422.5 124.571
2423.5 109
2424.5 166
2425.5 105.857
2426.5 92
2427.5 74.5714
2428.5 82
2429.5 67.5714
2430.5 124.714
2431.5 70.7143
2432.5 65.7143
2433.5 75.2857
2434.5 79.4286
2435.5 80.4286
2436.5 81.7143
2437.5 57.2857
2438.5 91.5714
2439.5 60.8571
2440.5 71.8571
2441.5 88.4286
2442.5 2.14285
2443.5 58.5714
2444.5 72.1429
2445.5 92.2857
2446.5 95
2447.5 10.2857
2448.5 53.2857
2449.5 -7.85715
2450.5 35
2451.5 22.7143
2452.5 25
2453.5 38.5714
2454.5 11.5714
2455.5 5.57143
2456.5 112.857
2457.5 108.143
2458.5 98
2459.5 97.1429
2460.5 109.143
2461.5 -4.42857
2462.5 36.7143
2463.5 83.8571
2464.5 104.857
2465.5 87.2857
2466.5 90
2467.5 97.4286
2468.5 123.714
2469.5 126.286
2470.5 98.4286
2471.5 87
2472.5 57.2857
2473.5 76.7143
2474.5 67.5714
2475.5 98.2857
2476.5 42.5714
2477.5 112.571
2478.5 70
2479.5 46.2857
2480.5 77.1429
2481.5 67.5714
2482.5 78.2857
2483.5 46.4286
2484.5 71.7143
2485.5 55
2486.5 61.8571
2487.5 78.2857
2488.5 64.1429
2489.5 64.1429
2490.5 83.5714
2491.5 77.5714
2492.5 49.2857
2493.5 35.4286
2494.5 12.7143
2495.5 38.4286
2496.5 23.5714
2497.5 52.7143
2498.5 38.7143
2499.5 77.2857
2500.5 152.143
2501.5 97.7143
2502.5 87.1429
2503.5 95.2857
2504.5 91.5714
2505.5 22.2857
2506.5 91.8571
2507.5 114.571
2508.5 64.2857
2509.5 119
2510.5 135.571
2511.5 109.143
2512.5 181.286
2513.5 64.5714
2514.5 67.2857
2515.5 35.7143
2516.5 38.5714
2517.5 174.571
2518.5 84
2519.5 112.286
2520.5 152.714
2521.5 68.4286
2522.5 44.2857
2523.5 20.2857
2524.5 97.2857
2525.5 108.571
2526.5 91.2857
2527.5 105.286
2528.5 41.7143
2529.5 56.5714
2530.5 66.4286
2531.5 77.2857
2532.5 89.2857
2533.5 77.4286
2534.5 49.1429
2535.5 71.1429
2536.5 7.57142
2537.5 112.857
2538.5 66.1429
2539.5 101
2540.5 95.2857
2541.5 62
2542.5 88.7143
2543.5 40.8571
2544.5 36.2857
2545.5 117.286
2546.5 26.8571
2547.5 114.714
2548.5 48
2549.5 102.286
2550.5 88.1429
2551.5 92.2857
2552.5 92.2857
2553.5 36.2857
2554.5 81
2555.5 73.1429
2556.5 30
2557.5 70.5714
2558.5 52.5714
2559.5 49.7143
2560.5 9.71428
2561.5 54.4286
2562.5 1.28571
2563.5 88.1429
2564.5 119.429
2565.5 82.5714
2566.5 129.143
2567.5 99.4286
2568.5 103.286
2569.5 86.4286
2570.5 84.7143
2571.5 -1.85715
2572.5 74.7143
2573.5 59.1429
2574.5 68.2857
2575.5 65.5714
2576.5 67.4286
2577.5 62.8571
2578.5 35.8571
2579.5 30.1429
2580.5 69.2857
2581.5 85.7143
2582.5 8.71428
2583.5 85.8571
2584.5 38.5714
2585.5 70.2857
2586.5 16.4286
2587.5 103.571
2588.5 33.4286
2589.5 64.4286
2590.5 64
2591.5 10.2857
2592.5 65.4286
2593.5 29.7143
2594.5 66.7143
2595.5 41
2596.5 20.5714
2597.5 45.8571
2598.5 74.1429
2599.5 39.8571
2600.5 114.286
2601.5 89.4286
2602.5 65.8571
2603.5 90.8571
2604.5 14.7143
2605.5 75.1429
2606.5 57.8571
2607.5 115.143
2608.5 99.5714
2609.5 87.5714
2610.5 152.286
2611.5 103.571
2612.5 63.5714
2613.5 81.1429
2614.5 68
2615.5 45.5714
2616.5 81.2857
2617.5 42.4286
2618.5 44
2619.5 88.2857
2620.5 63.5714
2621.5 44.4286
2622.5 83.5714
2623.5 34
2624.5 103.714
2625.5 17.1429
2626.5 48.4286
2627.5 50.8571
2628.5 57
2629.5 88
2630.5 118.714
2631.5 79.1429
2632.5 77.1429
2633.5 65.4286
2634.5 58
2635.5 36.5714
2636.5 58.8571
2637.5 49.4286
2638.5 100.857
2639.5 79.7143
2640.5 67.4286
2641.5 111.143
2642.5 111.571
2643.5 105.143
2644.5 26.4286
2645.5 93.8571
2646.5 36.1429
2647.5 26.7143
2648.5 88.1429
2649.5 21
2650.5 72.8571
2651.5 57.1429
2652.5 151.571
2653.5 100.857
2654.5 62.7143
2655.5 106
2656.5 26.7143
2657.5 26.7143
2658.5 61.2857
2659.5 20.2857
2660.5 41.1429
2661.5 113.286
2662.5 85.8571
2663.5 -1.57143
2664.5 -4.71429
2665.5 104.714
2666.5 122
2667.5 82.2857
2668.5 108.143
2669.5 76.8571
2670.5 35.5714
2671.5 30.2857
2672.5 57
2673.5 72
2674.5 114.143
2675.5 91.4286
2676.5 80
2677.5 98.7143
2678.5 100.714
2679.5 73.7143
2680.5 37.7143
2681.5 12.2857
2682.5 98.4286
2683.5 76.4286
2684.5 14.5714
2685.5 45.8571
2686.5 41.4286
2687.5 34.5714
2688.5 90.7143
2689.5 19.1429
2690.5 66.8571
2691.5 61.8571
2692.5 73.7143
2693.5 81.4286
2694.5 56.2857
2695.5 75.4286
2696.5 66.5714
2697.5 66.2857
2698.5 41.4286
2699.5 29.7143
2700.5 40.7143
2701.5 106.286
2702.5 54.7143
2703.5 66.2857
2704.5 24.2857
2705.5 60.7143
2706.5 74
2707.5 79
2708.5 107.286
2709.5 56.2857
2710.5 72
2711.5 95
2712.5 43.7143
2713.5 89
2714.5 59.1429
2715.5 53.2857
2716.5 89.1429
2717.5 97.4286
2718.5 93.8571
2719.5 123.857
2720.5 113.857
2721.5 61.8571
2722.5 44.4286
2723.5 51.1429
2724.5 48.1429
2725.5 73.1429
2726.5 94.1429
2727.5 76.5714
2728.5 61.1429
2729.5 85
2730.5 66.4286
2731.5 79.2857
2732.5 88.8571
2733.5 39.2857
2734.5 65.7143
2735.5 58.7143
2736.5 14.5714
2737.5 83.5714
2738.5 111.857
2739.5 51.4286
2740.5 48.8571
2741.5 38.7143
2742.5 45.7143
2743.5 115.286
2744.5 39.8571
2745.5 84.7143
2746.5 85.5714
2747.5 91.4286
2748.5 131.143
2749.5 79.8571
2750.5 86
2751.5 97.2857
2752.5 80.8571
2753.5 64.8571
2754.5 137.143
2755.5 57.5714
2756.5 114.857
2757.5 124.143
2758.5 84.7143
2759.5 85
2760.5 47.5714
2761.5 71.1429
2762.5 48.5714
2763.5 147
2764.5 185
2765.5 152.571
2766.5 150
2767.5 115.429
2768.5 84.7143
2769.5 20.1429
2770.5 59.2857
2771.5 39.1429
2772.5 85.2857
2773.5 164.714
2774.5 192.571
2775.5 203.286
2776.5 174.429
2777.5 122.857
2778.5 105.714
2779.5 42.5714
2780.5 58.2857
2781.5 69.7143
2782.5 68.5714
2783.5 67.8571
2784.5 39.7143
2785.5 101.429
2786.5 15.5714
2787.5 57.8571
2788.5 79.7143
2789.5 45.1429
2790.5 93.4286
2791.5 55.4286
2792.5 68.2857
2793.5 75.7143
2794.5 36.4286
2795.5 31.2857
2796.5 67.8571
2797.5 9.42857
2798.5 68.1429
2799.5 82.5714
2800.5 19.5714
2801.5 44
2802.5 89.7143
2803.5 8.14285
2804.5 82.1429
2805.5 101.714
2806.5 56.8571
2807.5 90.1429
2808.5 91.4286
2809.5 91.1429
2810.5 57.4286
2811.5 10
2812.5 105.714
2813.5 85
2814.5 101.571
2815.5 91.2857
2816.5 138.143
2817.5 49.2857
2818.5 96.1429
2819.5 64.5714
2820.5 41.8571
2821.5 64.7143
2822.5 57.2857
2823.5 17.2857
2824.5 39.2857
2825.5 55.2857
2826.5 33.4286
2827.5 23.4286
2828.5 64.4286
2829.5 58.8571
2830.5 10.2857
2831.5 82
2832.5 71.1429
2833.5 81.7143
2834.5 38.2857
2835.5 59
2836.5 40.2857
2837.5 97.8571
2838.5 60.4286
2839.5 46.1429
2840.5 83.5714
2841.5 95
2842.5 56.7143
2843.5 22.8571
2844.5 51.7143
2845.5 70.2857
2846.5 50.7143
2847.5 65.4286
2848.5 43.8571
2849.5 62.5714
2850.5 89.4286
2851.5 74.5714
2852.5 38.4286
2853.5 35.8571
2854.5 80.2857
2855.5 45.1429
2856.5 56.5714
2857.5 113
2858.5 48.2857
2859.5 84.1429
2860.5 66.8571
2861.5 103.857
2862.5 33.1429
2863.5 14.8571
2864.5 29.8571
2865.5 59.5714
2866.5 74.4286
2867.5 87.2857
2868.5 45.7143
2869.5 78.4286
2870.5 82
2871.5 58.5714
2872.5 83
2873.5 83.1429
2874.5 97.8571
2875.5 35.4286
2876.5 22
2877.5 50.1429
2878.5 25.2857
2879.5 40.7143
2880.5 47
2881.5 127.571
2882.5 48
2883.5 98.8571
2884.5 70.7143
2885.5 69.2857
2886.5 84.2857
2887.5 31
2888.5 58.8571
2889.5 69.5714
2890.5 81.7143
2891.5 68.7143
2892.5 84.5714
2893.5 131.429
2894.5 80.4286
2895.5 25
2896.5 106.286
2897.5 59.5714
2898.5 61
2899.5 41.2857
2900.5 16.4286
2901.5 66.8571
2902.5 30.5714
2903.5 55.1429
2904.5 44.4286
2905.5 56.5714
2906.5 68.7143
2907.5 70.7143
2908.5 19.2857
2909.5 38.7143
2910.5 63.4286
2911.5 74.1429
2912.5 94.2857
2913.5 33.1429
2914.5 37
2915.5 34.4286
2916.5 69.7143
2917.5 57.7143
2918.5 25.7143
2919.5 42.2857
2920.5 57.8571
2921.5 56.4286
2922.5 99.1429
2923.5 138.714
2924.5 111
2925.5 115.857
2926.5 143.143
2927.5 65.4286
2928.5 63
2929.5 52.7143
2930.5 107.143
2931.5 52.1429
2932.5 53.7143
2933.5 63.4286
2934.5 65.7143
2935.5 54.7143
2936.5 72.5714
2937.5 35.8571
2938.5 44
2939.5 64.1429
2940.5 65.2857
2941.5 35.1429
2942.5 47.5714
2943.5 50.2857
2944.5 32.4286
2945.5 91.2857
2946.5 26.5714
2947.5 53.5714
2948.5 115.857
2949.5 72.1429
2950.5 81.8571
2951.5 71.1429
2952.5 41.8571
2953.5 114
2954.5 27
2955.5 75.1429
2956.5 26.8571
2957.5 36.2857
2958.5 54.5714
2959.5 47.4286
2960.5 45.7143
2961.5 34.1429
2962.5 86.7143
2963.5 76.7143
2964.5 53
2965.5 22.7143
2966.5 97.8571
2967.5 83.5714
2968.5 71.7143
2969.5 76.2857
2970.5 64.8571
2971.5 60.5714
2972.5 69.4286
2973.5 103
2974.5 53.7143
2975.5 40.7143
2976.5 105
2977.5 83.1429
2978.5 53.7143
2979.5 118.429
2980.5 170.429
2981.5 300.857
2982.5 226
2983.5 163.429
2984.5 94.2857
2985.5 98.5714
2986.5 -4.71429
2987.5 50.5714
2988.5 52.8571
2989.5 85.4286
2990.5 49.1429
2991.5 62
2992.5 60.8571
2993.5 81
2994.5 102.714
2995.5 100.143
2996.5 77.7143
2997.5 64.1429
2998.5 57
2999.5 91.5714
3000.5 90.7143
3001.5 54.1429
3002.5 78.4286
3003.5 31.4286
3004.5 90.8571
3005.5 116.286
3006.5 73.2857
3007.5 44
3008.5 87.7143
3009.5 65.7143
3010.5 68
3011.5 26
3012.5 108.857
3013.5 51.4286
3014.5 75.1429
3015.5 113.286
3016.5 66
3017.5 71.5714
3018.5 46.4286
3019.5 49
3020.5 57.1429
3021.5 42.8571
3022.5 35.4286
3023.5 36.1429
3024.5 75.5714
3025.5 80.5714
3026.5 71.2857
3027.5 67.2857
3028.5 48.4286
3029.5 103.429
3030.5 55.2857
3031.5 43.7143
3032.5 126.714
3033.5 90.1429
3034.5 71.1429
3035.5 105.286
3036.5 31.5714
3037.5 24
3038.5 36.5714
3039.5 74
3040.5 59.8571
3041.5 52.2857
3042.5 63.5714
3043.5 51.2857
3044.5 43.7143
3045.5 90
3046.5 31.1429
3047.5 26.7143
3048.5 50.7143
3049.5 102.714
3050.5 170
3051.5 274.143
3052.5 245.429
3053.5 243
3054.5 153
3055.5 57.7143
3056.5 86.2857
3057.5 55.7143
3058.5 54.2857
3059.5 22.2857
3060.5 50.7143
3061.5 46.8571
3062.5 64.1429
3063.5 60.8571
3064.5 58.4286
3065.5 49.4286
3066.5 43.2857
3067.5 85.1429
3068.5 23.7143
3069.5 86.7143
3070.5 38.7143
3071.5 63
3072.5 83
3073.5 67.8571
3074.5 43.5714
3075.5 8.42857
3076.5 3.42857
3077.5 41.8571
3078.5 59.5714
3079.5 39.5714
3080.5 79.4286
3081.5 69.2857
3082.5 61.8571
3083.5 39.1429
3084.5 29.7143
3085.5 50
3086.5 46.8571
3087.5 52.1429
3088.5 35.2857
3089.5 45.7143
3090.5 15.7143
3091.5 50.7143
3092.5 92.4286
3093.5 27.5714
3094.5 41
3095.5 56.2857
3096.5 59.5714
3097.5 86
3098.5 43.5714
3099.5 37
3100.5 75.1429
3101.5 73.5714
3102.5 41.4286
3103.5 106.714
3104.5 70
3105.5 8.85714
3106.5 36
3107.5 70
3108.5 97.7143
3109.5 84
3110.5 101.429
3111.5 105.429
3112.5 48.7143
3113.5 44.8571
3114.5 104.143
3115.5 90.1429
3116.5 78
3117.5 25.5714
3118.5 44
3119.5 31.7143
3120.5 91.8571
3121.5 37.4286
3122.5 62.4286
3123.5 94.2857
3124.5 35.7143
3125.5 55.7143
3126.5 88.7143
3127.5 37.5714
3128.5 21.8571
3129.5 34.5714
3130.5 -0.285717
3131.5 22.8571
3132.5 34.7143
3133.5 27.8571
3134.5 88
3135.5 76.7143
3136.5 89.4286
3137.5 31.5714
3138.5 71.7143
3139.5 39.8571
3140.5 112
3141.5 69.2857
3142.5 79.7143
3143.5 71
3144.5 70.1429
3145.5 53.2857
3146.5 48
3147.5 103.714
3148.5 76.1429
3149.5 54.7143
3150.5 42.5714
3151.5 28
3152.5 47.5714
3153.5 73
3154.5 36.5714
3155.5 33.2857
3156.5 -53.8571
3157.5 -51
3158.5 -90.7143
3159.5 -116.286
3160.5 -34
3161.5 16.7143
3162.5 44.1429
3163.5 38.8571
3164.5 45.5714
3165.5 54.5714
3166.5 121.286
3167.5 59.2857
3168.5 68.2857
3169.5 12.7143
3170.5 62.2857
3171.5 62.7143
3172.5 56
3173.5 98
3174.5 56.1429
3175.5 49.7143
3176.5 93.7143
3177.5 59.5714
3178.5 87.2857
3179.5 69.8571
3180.5 83.4286
3181.5 39.8571
3182.5 50
3183.5 9.71428
3184.5 44.8571
3185.5 71.1429
3186.5 71.8571
3187.5 15.8571
3188.5 63.4286
3189.5 42.2857
3190.5 15.5714
3191.5 70.2857
3192.5 87.1429
3193.5 66.5714
3194.5 41.1429
3195.5 54.2857
3196.5 59.1429
3197.5 12.1429
3198.5 65.5714
3199.5 49.2857
3200.5 84.5714
3201.5 80
3202.5 54
3203.5 59.8571
3204.5 48.7143
3205.5 48.5714
3206.5 21.1429
3207.5 21
3208.5 5
3209.5 31.5714
3210.5 50.1429
3211.5 28.8571
3212.5 47.5714
3213.5 35.2857
3214.5 58.4286
3215.5 87.5714
3216.5 78.2857
3217.5 42.2857
3218.5 95
3219.5 56.5714
3220.5 49.8571
3221.5 33
3222.5 72.7143
3223.5 73
3224.5 88.7143
3225.5 119.286
3226.5 110.857
3227.5 76.1429
3228.5 67.1429
3229.5 25.5714
3230.5 6.85714
3231.5 53.2857
3232.5 41
3233.5 29.7143
3234.5 18.1429
3235.5 56.8571
3236.5 57.4286
3237.5 52.7143
3238.5 9.57143
3239.5 -15.2857
3240.5 21
3241.5 -73.2857
3242.5 -76
3243.5 -70.4286
3244.5 5.42857
3245.5 37.8571
3246.5 65
3247.5 35.5714
3248.5 80.1429
3249.5 74.8571
3250.5 83.7143
3251.5 62.4286
3252.5 14.8571
3253.5 93.4286
3254.5 51.4286
3255.5 80.5714
3256.5 116.286
3257.5 139
3258.5 107.857
3259.5 153.286
3260.5 75.2857
3261.5 43
3262.5 104
3263.5 55.5714
3264.5 72.2857
3265.5 122.857
3266.5 113.857
3267.5 147.429
3268.5 108.286
3269.5 125.143
3270.5 114.143
3271.5 98.1429
3272.5 60.7143
3273.5 62.1429
3274.5 99.8571
3275.5 57
3276.5 30
3277.5 38.1429
3278.5 78.5714
3279.5 60.7143
3280.5 49.5714
3281.5 25.4286
3282.5 47.5714
3283.5 25.2857
3284.5 38.2857
3285.5 62
3286.5 61.4286
3287.5 22.7143
3288.5 85.8571
3289.5 32.2857
3290.5 43.2857
3291.5 78.1429
3292.5 19
3293.5 33
3294.5 31.1429
3295.5 81.7143
3296.5 56.5714
3297.5 80.2857
3298.5 40.5714
3299.5 85.1429
3300.5 43.1429
3301.5 66.7143
3302.5 41
3303.5 75.8571
3304.5 71.2857
3305.5 58.1429
3306.5 18.4286
3307.5 74.4286
3308.5 21.1429
3309.5 36.8571
3310.5 84.1429
3311.5 39.4286
3312.5 85.5714
3313.5 68.8571
3314.5 75.4286
3315.5 99
3316.5 40.5714
3317.5 23.8571
3318.5 56.1429
3319.5 55.8571
3320.5 71.4286
3321.5 74.2857
3322.5 70.2857
3323.5 62
3324.5 63.2857
3325.5 89.8571
3326.5 46.1429
3327.5 72.5714
3328.5 33.7143
3329.5 24.1429
3330.5 30.2857
3331.5 84.7143
3332.5 27.2857
3333.5 60.8571
3334.5 67.4286
3335.5 57.7143
3336.5 88.1429
3337.5 93.5714
3338.5 63.1429
3339.5 72.1429
3340.5 70.8571
3341.5 92.7143
3342.5 34
3343.5 58.2857
3344.5 68.5714
3345.5 49.4286
3346.5 8
3347.5 46.4286
3348.5 65.4286
3349.5 21.4286
3350.5 52.1429
3351.5 34.8571
3352.5 1.28571
3353.5 -1.71429
3354.5 -8
3355.5 45.8571
3356.5 56.7143
3357.5 47.1429
3358.5 69.1429
3359.5 71.1429
3360.5 41
3361.5 36
3362.5 89.1429
3363.5 84.7143
3364.5 61.7143
3365.5 58.7143
3366.5 70.7143
3367.5 25.8571
3368.5 98
3369.5 80.4286
3370.5 34.4286
3371.5 78.8571
3372.5 46.1429
3373.5 59.4286
3374.5 64
3375.5 63.8571
3376.5 18.2857
3377.5 51
3378.5 28.7143
3379.5 49
3380.5 77.1429
3381.5 96.8571
3382.5 49.1429
3383.5 99.1429
3384.5 77
3385.5 72.1429
3386.5 12.2857
3387.5 36.8571
3388.5 52.5714
3389.5 34.5714
3390.5 69.4286
3391.5 64.1429
3392.5 107.429
3393.5 95.5714
3394.5 66.1429
3395.5 81.2857
3396.5 84.2857
3397.5 57
3398.5 -14.4286
3399.5 39
3400.5 55
3401.5 30
3402.5 51.2857
3403.5 74.1429
3404.5 17.2857
3405.5 32.4286
3406.5 67.2857
3407.5 53.5714
3408.5 63.5714
3409.5 65.4286
3410.5 62.7143
3411.5 94.1429
3412.5 74.1429
3413.5 42.7143
3414.5 49.4286
3415.5 82.1429
3416.5 24.7143
3417.5 64.5714
3418.5 40.5714
3419.5 30.8571
3420.5 56.2857
3421.5 75.8571
3422.5 49.4286
3423.5 30.1429
3424.5 64.5714
3425.5 64.4286
3426.5 50.2857
3427.5 71.8571
3428.5 27.4286
3429.5 32.7143
3430.5 53.8571
3431.5 16.4286
3432.5 86.4286
3433.5 5.14285
3434.5 48.5714
3435.5 76
3436.5 39.4286
3437.5 40.7143
3438.5 49.2857
3439.5 57.7143
3440.5 59.7143
3441.5 75.4286
3442.5 60.7143
3443.5 137.571
3444.5 138.286
3445.5 93.5714
3446.5 85.8571
3447.5 88.4286
3448.5 47.2857
3449.5 18.7143
3450.5 50.2857
3451.5 64.7143
3452.5 32.5714
3453.5 27.1429
3454.5 27.5714
3455.5 -6
3456.5 64.7143
3457.5 50.5714
3458.5 43
3459.5 66.1429
3460.5 15.2857
3461.5 67
3462.5 66.4286
3463.5 88.2857
3464.5 48.7143
3465.5 67.7143
3466.5 105.857
3467.5 115.286
3468.5 81.5714
3469.5 44.7143
3470.5 57.7143
3471.5 91.7143
3472.5 46.4286
3473.5 21.7143
3474.5 53
3475.5 49
3476.5 25
3477.5 61.5714
3478.5 67.7143
3479.5 40.8571
3480.5 88
3481.5 64.4286
3482.5 42.5714
3483.5 63.8571
3484.5 26.7143
3485.5 84
3486.5 40.4286
3487.5 49.7143
3488.5 72.4286
3489.5 33.2857
3490.5 46.7143
3491.5 30.1429
3492.5 65.7143
3493.5 45.4286
3494.5 88
3495.5 30.1429
3496.5 37.8571
3497.5 57
3498.5 60.4286
3499.5 34.1429
3500.5 5.71428
3501.5 33.2857
3502.5 76.5714
3503.5 40.2857
3504.5 34.4286
3505.5 76.1429
3506.5 76.7143
3507.5 62.8571
3508.5 56.7143
3509.5 95.4286
3510.5 47.7143
3511.5 102.714
3512.5 82.5714
3513.5 88.7143
3514.5 103.143
3515.5 41.2857
3516.5 69.4286
3517.5 15.8571
3518.5 63.1429
3519.5 81
3520.5 92.5714
3521.5 61.8571
3522.5 83.7143
3523.5 86.1429
3524.5 71.1429
3525.5 85.5714
3526.5 67.7143
3527.5 42.1429
3528.5 44.5714
3529.5 69.5714
3530.5 73.1429
3531.5 39.1429
3532.5 101.143
3533.5 101.286
3534.5 75.4286
3535.5 92.8571
3536.5 64
3537.5 79.2857
3538.5 64.1429
3539.5 95.7143
3540.5 22.2857
3541.5 42.2857
3542.5 65.7143
3543.5 105.286
3544.5 72.5714
3545.5 49.4286
3546.5 68.1429
3547.5 38.7143
3548.5 49.2857
3549.5 67.5714
3550.5 51.1429
3551.5 44.7143
3552.5 44.8571
3553.5 28.2857
3554.5 24.7143
3555.5 45.2857
3556.5 48.8571
3557.5 30.2857
3558.5 28.1429
3559.5 16
3560.5 65.8571
3561.5 29
3562.5 39.5714
3563.5 61.8571
3564.5 95
3565.5 33.8571
3566.5 66
3567.5 63.8571
3568.5 45.8571
3569.5 21.7143
3570.5 44.2857
3571.5 40.4286
3572.5 33.4286
3573.5 59.2857
3574.5 24.7143
3575.5 72.4286
3576.5 37.4286
3577.5 16.8571
3578.5 59.5714
3579.5 53.7143
3580.5 42.4286
3581.5 74.4286
3582.5 46.1429
3583.5 34
3584.5 70.1429
3585.5 58.8571
3586.5 15.4286
3587.5 64.2857
3588.5 50.5714
3589.5 48.4286
3590.5 12.7143
3591.5 23.1429
3592.5 62.2857
3593.5 74.1429
3594.5 24
3595.5 11.8571
3596.5 50.2857
3597.5 23.2857
3598.5 75.1429
3599.5 81.8571
3600.5 63
3601.5 42
3602.5 85
3603.5 47.4286
3604.5 70.5714
3605.5 50.2857
3606.5 54.2857
3607.5 66.2857
3608.5 63
3609.5 80.2857
3610.5 77.5714
3611.5 24
3612.5 66.4286
3613.5 45.1429
3614.5 -7.42857
3615.5 51.8571
3616.5 25.7143
3617.5 27.4286
3618.5 81.4286
3619.5 29.4286
3620.5 62.1429
3621.5 80
3622.5 8.85714
3623.5 50.5714
3624.5 61.2857
3625.5 73
3626.5 48.7143
3627.5 79.8571
3628.5 74.8571
3629.5 35.1429
3630.5 32.8571
3631.5 61.7143
3632.5 66.2857
3633.5 60
3634.5 47.8571
3635.5 71.1429
3636.5 91.7143
3637.5 57
3638.5 46.4286
3639.5 62
3640.5 24.2857
3641.5 26.5714
3642.5 19
3643.5 34.1429
3644.5 46.1429
3645.5 54.5714
3646.5 58.5714
3647.5 37.5714
3648.5 88.8571
3649.5 30.8571
3650.5 51
3651.5 32.4286
3652.5 45.7143
3653.5 40.4286
3654.5 29.5714
3655.5 55.7143
3656.5 38.5714
3657.5 99.7143
3658.5 34.8571
3659.5 56.5714
3660.5 44.2857
3661.5 75.2857
3662.5 47.1429
3663.5 62.8571
3664.5 52.1429
3665.5 56
3666.5 25
3667.5 37.5714
3668.5 -14.7143
3669.5 83.7143
3670.5 52.4286
3671.5 20.8571
3672.5 14.7143
3673.5 41.7143
3674.5 29.2857
3675.5 20.7143
3676.5 27.1429
3677.5 68.8571
3678.5 42.8571
3679.5 80.5714
3680.5 14.2857
3681.5 72
3682.5 97.4286
3683.5 48.8571
3684.5 33.5714
3685.5 60.7143
3686.5 80.2857
3687.5 44.7143
3688.5 60.4286
3689.5 34.5714
3690.5 62.1429
3691.5 66.4286
3692.5 54.7143
3693.5 43.7143
3694.5 39.8571
3695.5 1.42857
3696.5 44
3697.5 20
3698.5 56.8571
3699.5 48.5714
3700.5 53
3701.5 62.4286
3702.5 47.1429
3703.5 51.7143
3704.5 69
3705.5 52.4286
3706.5 49.8571
3707.5 51.8571
3708.5 58.4286
3709.5 58.1429
3710.5 53.5714
3711.5 28
3712.5 83.2857
3713.5 47.2857
3714.5 47.8571
3715.5 40.1429
3716.5 22.7143
3717.5 53.8571
3718.5 63.7143
3719.5 40.8571
3720.5 34.7143
3721.5 48.8571
3722.5 89.4286
3723.5 32.1429
3724.5 66.5714
3725.5 34.7143
3726.5 36.1429
3727.5 49.5714
3728.5 56.2857
3729.5 81.5714
3730.5 16.2857
3731.5 27.8571
3732.5 36.7143
3733.5 48.7143
3734.5 29
3735.5 57.8571
3736.5 40.4286
3737.5 39.5714
3738.5 43
3739.5 19.1429
3740.5 66
3741.5 57.2857
3742.5 61.7143
3743.5 40.1429
3744.5 59.4286
3745.5 58.1429
3746.5 52.5714
3747.5 49.5714
3748.5 2.85714
3749.5 62.5714
3750.5 19.8571
3751.5 24.2857
3752.5 26.4286
3753.5 49.4286
3754.5 33.8571
3755.5 42.2857
3756.5 42.2857
3757.5 31.7143
3758.5 23.1429
3759.5 84.1429
3760.5 35.1429
3761.5 61
3762.5 81.7143
3763.5 32.7143
3764.5 41.2857
3765.5 43.2857
3766.5 38.1429
3767.5 58.5714
3768.5 85.5714
3769.5 88.2857
3770.5 71.4286
3771.5 51.8571
3772.5 30.5714
3773.5 40.1429
3774.5 29.1429
3775.5 45.5714
3776.5 16.5714
3777.5 67.8571
3778.5 35
3779.5 66.4286
3780.5 37.8571
3781.5 41.5714
3782.5 21.2857
3783.5 32.2857
3784.5 70.8571
3785.5 29
3786.5 17.5714
3787.5 43.5714
3788.5 47.4286
3789.5 26.8571
3790.5 35.8571
3791.5 41.7143
3792.5 40.1429
3793.5 33.1429
3794.5 33.5714
3795.5 34.5714
3796.5 38.7143
3797.5 68.1429
3798.5 61
3799.5 38.1429
3800.5 47.8571
3801.5 52.7143
3802.5 62
3803.5 47.8571
3804.5 63.8571
3805.5 64.8571
3806.5 96.5714
3807.5 80.7143
3808.5 130.571
3809.5 102.286
3810.5 118.571
3811.5 75.1429
3812.5 44.4286
3813.5 4.14286
3814.5 47.8571
3815.5 35.1429
3816.5 70.8571
3817.5 49.8571
3818.5 44.2857
3819.5 69.1429
3820.5 53.1429
3821.5 63
3822.5 28.1429
3823.5 61.1429
3824.5 62.4286
3825.5 7.14286
3826.5 24.4286
3827.5 46.1429
3828.5 31.4286
3829.5 30.2857
3830.5 24.4286
3831.5 60.8571
3832.5 24.4286
3833.5 76.2857
3834.5 54
3835.5 94.2857
3836.5 67.1429
3837.5 19.5714
3838.5 74.7143
3839.5 39.4286
3840.5 47.2857
3841.5 97.2857
3842.5 84.8571
3843.5 50.8571
3844.5 71.4286
3845.5 43.8571
3846.5 51.4286
3847.5 95
3848.5 136.857
3849.5 133.143
3850.5 68.8571
3851.5 110.286
3852.5 64.5714
3853.5 41.7143
3854.5 63.4286
3855.5 36
3856.5 73.8571
3857.5 37.8571
3858.5 60.5714
3859.5 73.8571
3860.5 9.71428
3861.5 11.2857
3862.5 20
3863.5 46.7143
3864.5 56.7143
3865.5 59.5714
3866.5 54.2857
3867.5 56
3868.5 46.5714
3869.5 52.5714
3870.5 79.8571
3871.5 8.57143
3872.5 38.8571
3873.5 51.7143
3874.5 123.429
3875.5 -6.42857
3876.5 52.4286
3877.5 35.7143
3878.5 54.1429
3879.5 56.1429
3880.5 29.8571
3881.5 15.8571
3882.5 36.1429
3883.5 62.2857
3884.5 60.8571
3885.5 55.7143
3886.5 41.2857
3887.5 48.7143
3888.5 46.4286
3889.5 41.2857
3890.5 46.4286
3891.5 65.4286
3892.5 79.1429
3893.5 57.7143
3894.5 58.5714
3895.5 39.7143
3896.5 35
3897.5 19
3898.5 31.1429
3899.5 49.7143
3900.5 -6.57143
3901.5 91.8571
3902.5 11.4286
3903.5 79.5714
3904.5 14.1429
3905.5 40.7143
3906.5 35.1429
3907.5 71.5714
3908.5 64.2857
3909.5 39.1429
3910.5 49.2857
3911.5 41.5714
3912.5 30.5714
3913.5 39
3914.5 56.1429
3915.5 3.71428
3916.5 39.7143
3917.5 46.1429
3918.5 64.1429
3919.5 47.1429
3920.5 66.7143
3921.5 34
3922.5 42.2857
3923.5 38.2857
3924.5 48.1429
3925.5 48.2857
3926.5 42.4286
3927.5 45.2857
3928.5 21.5714
3929.5 47.7143
3930.5 103.571
3931.5 36.2857
3932.5 12
3933.5 59.8571
3934.5 17.5714
3935.5 40.2857
3936.5 46.8571
3937.5 17.8571
3938.5 45.2857
3939.5 21.5714
3940.5 14.1429
3941.5 10.4286
3942.5 46.8571
3943.5 28.8571
3944.5 33.8571
3945.5 56.4286
3946.5 18.2857
3947.5 54.1429
3948.5 42.8571
3949.5 27.8571
3950.5 73.1429
3951.5 119.857
3952.5 128.857
3953.5 187.429
3954.5 261.286
3955.5 367
3956.5 435.571
3957.5 396.286
3958.5 182
3959.5 61.2857
3960.5 26.1429
3961.5 4.42857
3962.5 26.1429
3963.5 40.7143
3964.5 28.4286
3965.5 41
3966.5 30.8571
3967.5 37.8571
3968.5 35.1429
3969.5 13
3970.5 38.8571
3971.5 33.4286
3972.5 21
3973.5 49.4286
3974.5 31
3975.5 55.7143
3976.5 72.2857
3977.5 74.7143
3978.5 18.5714
3979.5 65.5714
3980.5 50.1429
3981.5 49.7143
3982.5 42.4286
3983.5 31.5714
3984.5 37.7143
3985.5 24.5714
3986.5 62.2857
3987.5 48.8571
3988.5 -6.85714
3989.5 19.1429
3990.5 39.2857
3991.5 38
3992.5 42.8571
3993.5 25.1429
3994.5 48.4286
3995.5 61.7143
3996.5 42.1429
3997.5 36.2857
3998.5 30
3999.5 33.4286
4000.5 43.4286
4001.5 51.5714
4002.5 20.7143
4003.5 29.7143
4004.5 51
4005.5 29.8571
4006.5 20.5714
4007.5 4
4008.5 28.1429
4009.5 25.1429
4010.5 39.8571
4011.5 27
4012.5 42.5714
4013.5 35.7143
4014.5 9
4015.5 30
4016.5 29.2857
4017.5 33.8571
4018.5 34
4019.5 40.4286
4020.5 74.7143
4021.5 35.7143
4022.5 74.7143
4023.5 63.1429
4024.5 74.2857
4025.5 38.5714
4026.5 96.4286
4027.5 72.2857
4028.5 60.1429
4029.5 32.5714
4030.5 68.7143
4031.5 77.5714
4032.5 42.4286
4033.5 115.143
4034.5 80.2857
4035.5 31.8571
4036.5 29.8571
4037.5 56
4038.5 67.7143
4039.5 28.8571
4040.5 80.4286
4041.5 49.8571
4042.5 41.7143
4043.5 45.5714
4044.5 1.71428
4045.5 7
4046.5 28.8571
4047.5 34
4048.5 60.4286
4049.5 75.8571
4050.5 60.7143
4051.5 59.4286
4052.5 88.8571
4053.5 105.857
4054.5 73.7143
4055.5 31
4056.5 39.1429
4057.5 40.8571
4058.5 34.8571
4059.5 21.7143
4060.5 43.5714
4061.5 46.8571
4062.5 53.4286
4063.5 30.5714
4064.5 20.7143
4065.5 38.7143
4066.5 -13
4067.5 23.5714
4068.5 73.4286
4069.5 54.1429
4070.5 -2.14286
4071.5 59.5714
4072.5 39
4073.5 39.7143
4074.5 70
4075.5 51
4076.5 51.7143
4077.5 35.5714
4078.5 58
4079.5 48.1429
4080.5 32.1429
4081.5 73.1429
4082.5 30.1429
4083.5 22.4286
4084.5 22.5714
4085.5 42
4086.5 11
4087.5 -3.57143
4088.5 13.8571
4089.5 14.1429
4090.5 67.7143
4091.5 21
4092.5 48.2857
4093.5 27.1429
4094.5 45.4286
4095.5 26.5714
4096.5 38.7143
4097.5 68.2857
4098.5 10.7143
4099.5 42.2857
4100.5 63.8571
4101.5 46.4286
4102.5 50.8571
4103.5 70
4104.5 27.8571
4105.5 48.4286
4106.5 45
4107.5 23.5714
4108.5 15.4286
4109.5 9.71428
4110.5 41.2857
4111.5 64.7143
4112.5 72
4113.5 81.2857
4114.5 38.8571
4115.5 -4.85714
4116.5 0.285713
4117.5 51.8571
4118.5 36.1429
4119.5 27.5714
4120.5 25.2857
4121.5 48.4286
4122.5 44.8571
4123.5 54.7143
4124.5 26.2857
4125.5 29.1429
4126.5 16.7143
4127.5 40.4286
4128.5 33
4129.5 19
4130.5 46.1429
4131.5 32.5714
4132.5 32.1429
4133.5 45.2857
4134.5 62.7143
4135.5 67.7143
4136.5 21.1429
4137.5 38.4286
4138.5 34.5714
4139.5 45.4286
4140.5 17.7143
4141.5 55.8571
4142.5 20.7143
4143.5 23
4144.5 30.1429
4145.5 39.5714
4146.5 48.4286
4147.5 65.7143
4148.5 69.7143
4149.5 37.1429
4150.5 89.8571
4151.5 45.4286
4152.5 28.7143
4153.5 64.8571
4154.5 30.2857
4155.5 27.4286
4156.5 34
4157.5 13.4286
4158.5 51.1429
4159.5 -14.7143
4160.5 3
4161.5 5.28571
4162.5 30.5714
4163.5 63.4286
4164.5 21.1429
4165.5 18.2857
4166.5 28.2857
4167.5 55.8571
4168.5 70.7143
4169.5 35.8571
4170.5 85.5714
4171.5 12.4286
4172.5 24.1429
4173.5 3.14285
4174.5 22.4286
4175.5 0.285713
4176.5 27.7143
4177.5 10.5714
4178.5 39.2857
4179.5 46.8571
4180.5 55.2857
4181.5 29.5714
4182.5 68
4183.5 54.4286
4184.5 36.7143
4185.5 24.5714
4186.5 48.1429
4187.5 65.1429
4188.5 70.8571
4189.5 60.1429
4190.5 58
4191.5 25.7143
4192.5 80.1429
4193.5 48
4194.5 42.8571
4195.5 79.7143
4196.5 36.4286
4197.5 53.7143
4198.5 24.5714
4199.5 -6.71429
4200.5 -5
4201.5 43
4202.5 10.4286
4203.5 7.71428
4204.5 13
4205.5 33.4286
4206.5 18.5714
4207.5 -3.71429
4208.5 9
4209.5 0.428568
4210.5 36
4211.5 35.7143
4212.5 83.7143
4213.5 80.2857
4214.5 39.7143
4215.5 92.5714
4216.5 29.8571
4217.5 83.8571
4218.5 12.2857
4219.5 24
4220.5 51.4286
4221.5 12.2857
4222.5 77.5714
4223.5 46.1429
4224.5 42.4286
4225.5 17.8571
4226.5 41.2857
4227.5 3.14286
4228.5 16.7143
4229.5 65.2857
4230.5 28.2857
4231.5 12.4286
4232.5 9.71428
4233.5 38.4286
4234.5 38.4286
4235.5 31.1429
4236.5 20.4286
4237.5 46.2857
4238.5 38.8571
4239.5 12.1429
4240.5 59.4286
4241.5 37.1429
4242.5 39.4286
4243.5 20
4244.5 14.7143
4245.5 4.57143
4246.5 60.4286
4247.5 56.4286
4248.5 7.71428
4249.5 31.7143
4250.5 26.5714
4251.5 35.1429
4252.5 65.8571
4253.5 35.8571
4254.5 18.8571
4255.5 58
4256.5 44
4257.5 17.5714
4258.5 51.1429
4259.5 8.14286
4260.5 62.1429
4261.5 -4.28572
4262.5 50.1429
4263.5 40.5714
4264.5 55.5714
4265.5 41.5714
4266.5 57.7143
4267.5 17.5714
4268.5 35.2857
4269.5 35.7143
4270.5 56.8571
4271.5 32.2857
4272.5 37.4286
4273.5 42.5714
4274.5 22
4275.5 30.4286
4276.5 27.2857
4277.5 76.8571
4278.5 77.4286
4279.5 67.8571
4280.5 69
4281.5 102.286
4282.5 72.7143
4283.5 25.7143
4284.5 33.1429
4285.5 -6.71429
4286.5 54.7143
4287.5 64.5714
4288.5 24
4289.5 64.4286
4290.5 28.2857
4291.5 45
4292.5 31.7143
4293.5 26.1429
4294.5 30.7143
4295.5 31.4286
4296.5 53.7143
4297.5 45.2857
4298.5 4
4299.5 71.2857
4300.5 60
4301.5 25
4302.5 25.7143
4303.5 -16.4286
4304.5 -4.71429
4305.5 40.4286
4306.5 54.5714
4307.5 25.7143
4308.5 17.4286
4309.5 28.5714
4310.5 34.5714
4311.5 37.4286
4312.5 63.1429
4313.5 59.7143
4314.5 61.1429
4315.5 66
4316.5 91.4286
4317.5 48.1429
4318.5 87.7143
4319.5 46.7143
4320.5 81.4286
4321.5 58.7143
4322.5 45.1429
4323.5 56.8571
4324.5 64.8571
4325.5 33.8571
4326.5 26.5714
4327.5 17.1429
4328.5 56
4329.5 22.5714
4330.5 63.8571
4331.5 37.8571
4332.5 50.5714
4333.5 64.4286
4334.5 38.8571
4335.5 41.5714
4336.5 37.1429
4337.5 36.2857
4338.5 44.4286
4339.5 18.5714
4340.5 32.5714
4341.5 54.4286
4342.5 30.4286
4343.5 16
4344.5 0.857141
4345.5 37.5714
4346.5 11.5714
4347.5 7.42857
4348.5 13.7143
4349.5 4.71428
4350.5 80.4286
4351.5 33.8571
4352.5 39.7143
4353.5 45
4354.5 34.5714
4355.5 20.7143
4356.5 9.71428
4357.5 25
4358.5 57.8571
4359.5 37
4360.5 55.2857
4361.5 41.1429
4362.5 24.8571
4363.5 38.8571
4364.5 44.8571
4365.5 22.8571
4366.5 26
4367.5 18.4286
4368.5 28.7143
4369.5 52.8571
4370.5 35.4286
4371.5 34
4372.5 29.7143
4373.5 39.8571
4374.5 82.1429
4375.5 86.1429
4376.5 71.1429
4377.5 23.1429
4378.5 46
4379.5 14.8571
4380.5 91.7143
4381.5 62
4382.5 46.8571
4383.5 105.429
4384.5 24.1429
4385.5 35.8571
4386.5 34.5714
4387.5 41
4388.5 37.2857
4389.5 27.2857
4390.5 35.4286
4391.5 46.8571
4392.5 62.8571
4393.5 6
4394.5 43.4286
4395.5 47.1429
4396.5 31.5714
4397.5 53.8571
4398.5 37.8571
4399.5 49.1429
4400.5 3.28571
4401.5 33.8571
4402.5 49.2857
4403.5 36
4404.5 55.7143
4405.5 50.4286
4406.5 13.4286
4407.5 41.8571
4408.5 52.2857
4409.5 68.4286
4410.5 17
4411.5 32.1429
4412.5 39.8571
4413.5 30.5714
4414.5 49.1429
4415.5 3
4416.5 11.2857
4417.5 23
4418.5 13.7143
4419.5 5.57143
4420.5 33.8571
4421.5 51.8571
4422.5 6.57143
4423.5 36.8571
4424.5 19.2857
4425.5 35.4286
4426.5 22.5714
4427.5 62.2857
4428.5 39.5714
4429.5 70.4286
4430.5 53.7143
4431.5 26
4432.5 44
4433.5 24.4286
4434.5 50.1429
4435.5 43.8571
4436.5 36
4437.5 51.8571
4438.5 -10.4286
4439.5 3
4440.5 25.7143
4441.5 39.2857
4442.5 21.8571
4443.5 41.1429
4444.5 41.2857
4445.5 38.7143
4446.5 76.7143
4447.5 42.7143
4448.5 12.5714
4449.5 31.8571
4450.5 48.2857
4451.5 14.5714
4452.5 12.4286
4453.5 -2.08616e-06
4454.5 28
4455.5 65.5714
4456.5 54.2857
4457.5 49.5714
4458.5 40.8571
4459.5 85.2857
4460.5 87
4461.5 79
4462.5 70.8571
4463.5 62.7143
4464.5 72
4465.5 35.7143
4466.5 18.1429
4467.5 17.8571
4468.5 15.5714
4469.5 20.1429
4470.5 16.8571
4471.5 36.2857
4472.5 17.4286
4473.5 29
4474.5 28.5714
4475.5 28.2857
4476.5 14.8571
4477.5 32.5714
4478.5 26.8571
4479.5 29.5714
4480.5 28.4286
4481.5 6.14286
4482.5 21.1429
4483.5 60.4286
4484.5 29.8571
4485.5 48.4286
4486.5 24.5714
4487.5 52.8571
4488.5 27.5714
4489.5 26.8571
4490.5 35.2857
4491.5 66.8571
4492.5 5
4493.5 5.14286
4494.5 24.7143
4495.5 29.4286
4496.5 2.71428
4497.5 40.8571
4498.5 -1.42857
4499.5 7.42857
4500.5 46
4501.5 33.4286
4502.5 41.1429
4503.5 44.2857
4504.5 23
4505.5 28.1429
4506.5 53
4507.5 32.2857
4508.5 22.1429
4509.5 33
4510.5 11.4286
4511.5 24.5714
4512.5 12.2857
4513.5 2.85714
4514.5 44.8571
4515.5 15.5714
4516.5 -8.14286
4517.5 9.14286
4518.5 28
4519.5 16
4520.5 66
4521.5 28.8571
4522.5 26.8571
4523.5 53.4286
4524.5 19.2857
4525.5 52.7143
4526.5 6.28571
4527.5 40.4286
4528.5 23.2857
4529.5 52.8571
4530.5 30.4286
4531.5 5.57143
4532.5 46.8571
4533.5 60.2857
4534.5 24.5714
4535.5 53.8571
4536.5 17.2857
4537.5 32.5714
4538.5 45.4286
4539.5 22
4540.5 38.5714
4541.5 38.8571
4542.5 46
4543.5 41.4286
4544.5 34.7143
4545.5 50.7143
4546.5 44
4547.5 26.2857
4548.5 90.8571
4549.5 88.5714
4550.5 101
4551.5 74.1429
4552.5 71.8571
4553.5 92.1429
4554.5 24.2857
4555.5 48.5714
4556.5 56.8571
4557.5 89
4558.5 62.1429
4559.5 72.4286
4560.5 87.8571
4561.5 58.1429
4562.5 154.429
4563.5 167.429
4564.5 217.714
4565.5 188.286
4566.5 164.286
4567.5 129.714
4568.5 62.8571
4569.5 30.1429
4570.5 69
4571.5 55
4572.5 53.4286
4573.5 50
4574.5 37.8571
4575.5 44.2857
4576.5 36.5714
4577.5 55.5714
4578.5 -4
4579.5 29.1429
4580.5 70.1429
4581.5 61.4286
4582.5 19.1429
4583.5 66.5714
4584.5 37.2857
4585.5 35.1429
4586.5 34.4286
4587.5 37.7143
4588.5 48.5714
4589.5 50.2857
4590.5 49.2857
4591.5 62.4286
4592.5 30.7143
4593.5 41.8571
4594.5 32.5714
4595.5 37.7143
4596.5 16.8571
4597.5 16.1429
4598.5 32.5714
4599.5 75.1429
4600.5 42.8571
4601.5 60.1429
4602.5 48.1429
4603.5 58.2857
4604.5 24.5714
4605.5 54.2857
4606.5 47.5714
4607.5 49
4608.5 27.7143
4609.5 60.8571
4610.5 52.4286
4611.5 42.2857
4612.5 30.7143
4613.5 65.1429
4614.5 52.4286
4615.5 13.1429
4616.5 27.1429
4617.5 23.4286
4618.5 61.7143
4619.5 32.4286
4620.5 54.4286
4621.5 64.5714
4622.5 65.7143
4623.5 62.5714
4624.5 83.1429
4625.5 70.7143
4626.5 81.8571
4627.5 50.5714
4628.5 45.8571
4629.5 44.8571
4630.5 0.857141
4631.5 41.4286
4632.5 46.2857
4633.5 2.28571
4634.5 29.2857
4635.5 60.8571
4636.5 63.5714
4637.5 36.7143
4638.5 43.1429
4639.5 40.1429
4640.5 35.2857
4641.5 26.8571
4642.5 70.4286
4643.5 27.5714
4644.5 83.4286
4645.5 21.2857
4646.5 11.5714
4647.5 17.2857
4648.5 44.5714
4649.5 23.7143
4650.5 46.7143
4651.5 7.14286
4652.5 -43.7143
4653.5 23
4654.5 23.7143
4655.5 22
4656.5 69.8571
4657.5 22.2857
4658.5 62.7143
4659.5 20.8571
4660.5 35.7143
4661.5 9.71428
4662.5 32.4286
4663.5 27.4286
4664.5 55.8571
4665.5 54.5714
4666.5 -5.71429
4667.5 40.7143
4668.5 14.1429
4669.5 31.8571
4670.5 32.8571
4671.5 42.4286
4672.5 61
4673.5 55.1429
4674.5 40.1429
4675.5 33.7143
4676.5 10
4677.5 52.8571
4678.5 63.5714
4679.5 23.7143
4680.5 33.1429
4681.5 36.2857
4682.5 44.2857
4683.5 43.2857
4684.5 48.4286
4685.5 21.7143
4686.5 33
4687.5 27.1429
4688.5 49.7143
4689.5 36.2857
4690.5 36.5714
4691.5 48.5714
4692.5 39.4286
4693.5 23.8571
4694.5 72.7143
4695.5 36.5714
4696.5 10.4286
4697.5 46
4698.5 17.1429
4699.5 30.4286
4700.5 27.8571
4701.5 43.7143
4702.5 63.2857
4703.5 70.4286
4704.5 27.5714
4705.5 44.8571
4706.5 3.14286
4707.5 23.8571
4708.5 28.4286
4709.5 54.1429
4710.5 19.7143
4711.5 36.5714
4712.5 47.1429
4713.5 45.5714
4714.5 59.4286
4715.5 80.5714
4716.5 51.7143
4717.5 48.1429
4718.5 52.2857
4719.5 36.5714
4720.5 36.5714
4721.5 9.57143
4722.5 -0.714287
4723.5 18.7143
4724.5 52.2857
4725.5 9.71428
4726.5 17
4727.5 40.8571
4728.5 41.2857
4729.5 11.4286
4730.5 49.2857
4731.5 36.8571
4732.5 40.7143
4733.5 38.5714
4734.5 51.2857
4735.5 71.8571
4736.5 28
4737.5 53.2857
4738.5 34
4739.5 47.5714
4740.5 54
4741.5 46.7143
4742.5 42.1429
4743.5 60.4286
4744.5 65
4745.5 18.5714
4746.5 13.5714
4747.5 28.8571
4748.5 50.2857
4749.5 -7
4750.5 34.8571
4751.5 39.2857
4752.5 9.28571
4753.5 48.5714
4754.5 49.2857
4755.5 18.8571
4756.5 1.57143
4757.5 12.1429
4758.5 33.5714
4759.5 18.7143
4760.5 17.5714
4761.5 45.2857
4762.5 27.1429
4763.5 29.7143
4764.5 69.8571
4765.5 52
4766.5 41.8571
4767.5 30.4286
4768.5 33.5714
4769.5 20.2857
4770.5 21.7143
4771.5 20.8571
4772.5 38.2857
4773.5 35.2857
4774.5 40.7143
4775.5 23.8571
4776.5 45.7143
4777.5 55.7143
4778.5 48.2857
4779.5 68.8571
4780.5 54.4286
4781.5 56.5714
4782.5 44
4783.5 53.5714
4784.5 17.7143
4785.5 12.1429
4786.5 -3
4787.5 32.2857
4788.5 29.8571
4789.5 28.7143
4790.5 33.5714
4791.5 43.4286
4792.5 72.4286
4793.5 28.4286
4794.5 59.5714
4795.5 -4.57143
4796.5 37.5714
4797.5 43.7143
4798.5 40.4286
4799.5 22.4286
4800.5 11.7143
4801.5 17.7143
4802.5 28
4803.5 22.4286
4804.5 27.2857
4805.5 12.4286
4806.5 43.5714
4807.5 25.2857
4808.5 49.1429
4809.5 17.2857
4810.5 25.5714
4811.5 9.71428
4812.5 51.7143
4813.5 44.1429
4814.5 33.1429
4815.5 20.5714
4816.5 54.8571
4817.5 57
4818.5 25
4819.5 44.7143
4820.5 9.71428
4821.5 27.7143
4822.5 35.2857
4823.5 48.5714
4824.5 43.7143
4825.5 37.2857
4826.5 26.7143
4827.5 35
4828.5 30.5714
4829.5 39.2857
4830.5 39.1429
4831.5 34.1429
4832.5 66.2857
4833.5 60.2857
4834.5 53.4286
4835.5 47.7143
4836.5 70.4286
4837.5 57.4286
4838.5 63.5714
4839.5 58.2857
4840.5 30.7143
4841.5 61.2857
4842.5 97
4843.5 60.8571
4844.5 70.1429
4845.5 32.4286
4846.5 62
4847.5 74
4848.5 64
4849.5 66.8571
4850.5 41.1429
4851.5 43.1429
4852.5 61.5714
4853.5 15.1429
4854.5 53.4286
4855.5 59.5714
4856.5 29.1429
4857.5 50
4858.5 48.5714
4859.5 37.1429
4860.5 38.5714
4861.5 1.14286
4862.5 47.7143
4863.5 45.5714
4864.5 18.2857
4865.5 57.4286
4866.5 47.5714
4867.5 42.1429
4868.5 50.5714
4869.5 41.4286
4870.5 57.7143
4871.5 66.1429
4872.5 48.4286
4873.5 38.7143
4874.5 56.2857
4875.5 53.5714
4876.5 30
4877.5 -6.57143
4878.5 38
4879.5 31
4880.5 36.1429
4881.5 28.1429
4882.5 49.1429
4883.5 37.5714
4884.5 83
4885.5 102.429
4886.5 56.2857
4887.5 69.2857
4888.5 45
4889.5 17.4286
4890.5 46.8571
4891.5 67.8571
4892.5 71.5714
4893.5 59.5714
4894.5 53.2857
4895.5 64.5714
4896.5 46.5714
4897.5 42.5714
4898.5 22.4286
4899.5 35.7143
4900.5 60.2857
4901.5 8.71428
4902.5 47.7143
4903.5 69.2857
4904.5 52.8571
4905.5 12.2857
4906.5 46
4907.5 48.1429
4908.5 23.1429
4909.5 26.5714
4910.5 30.4286
4911.5 40.4286
4912.5 27
4913.5 61.1429
4914.5 56.2857
4915.5 41.8571
4916.5 110
4917.5 105.714
4918.5 81.5714
4919.5 122.143
4920.5 82.2857
4921.5 68.4286
4922.5 50
4923.5 42.5714
4924.5 4.42857
4925.5 -12
4926.5 43
4927.5 24
4928.5 38.2857
4929.5 73.8571
4930.5 66.1429
4931.5 58.2857
4932.5 56.1429
4933.5 8
4934.5 30.7143
4935.5 86.1429
4936.5 35.1429
4937.5 25.1429
4938.5 26.7143
4939.5 45.8571
4940.5 67
4941.5 46.4286
4942.5 60
4943.5 39.5714
4944.5 35.7143
4945.5 43.4286
4946.5 42.8571
4947.5 41.1429
4948.5 34.7143
4949.5 48
4950.5 50.7143
4951.5 22.7143
4952.5 17.4286
4953.5 39.7143
4954.5 43.8571
4955.5 25.1429
4956.5 34.8571
4957.5 48.5714
4958.5 56.5714
4959.5 25.5714
4960.5 34
4961.5 24
4962.5 45.7143
4963.5 50.2857
4964.5 48.4286
4965.5 56.8571
4966.5 41.7143
4967.5 51.8571
4968.5 52.2857
4969.5 26.8571
4970.5 49.7143
4971.5 82.8571
4972.5 66.2857
4973.5 50
4974.5 48.1429
4975.5 51
4976.5 60.5714
4977.5 68.1429
4978.5 28.2857
4979.5 7.85714
4980.5 65.1429
4981.5 20.7143
4982.5 79
4983.5 27
4984.5 15.7143
4985.5 32.4286
4986.5 61.5714
4987.5 33.7143
4988.5 58
4989.5 31.5714
4990.5 44
4991.5 9.14286
4992.5 21.5714
4993.5 51.7143
4994.5 60.2857
4995.5 54.5714
4996.5 66.5714
4997.5 45.8571
4998.5 61.7143
4999.5 36.2857
5000.5 44.7143
5001.5 32.1429
5002.5 49.7143
5003.5 76.2857
5004.5 36.7143
5005.5 48
5006.5 72.4286
5007.5 125.143
5008.5 191.857
5009.5 334.857
5010.5 562.286
5011.5 654
5012.5 657.286
5013.5 434.571
5014.5 262.571
5015.5 107.857
5016.5 87.7143
5017.5 52.4286
5018.5 49.5714
5019.5 44.2857
5020.5 59.5714
5021.5 63.4286
5022.5 54.5714
5023.5 40.4286
5024.5 54
5025.5 76.2857
5026.5 77.8571
5027.5 68.8571
5028.5 45.8571
5029.5 48.7143
5030.5 43.8571
5031.5 32.4286
5032.5 25.1429
5033.5 71.4286
5034.5 64.8571
5035.5 106.143
5036.5 77.2857
5037.5 70.5714
5038.5 98
5039.5 94.4286
5040.5 56.4286
5041.5 115
5042.5 82.1429
5043.5 95.5714
5044.5 100
5045.5 66.2857
5046.5 80.4286
5047.5 87.4286
5048.5 74.1429
5049.5 87
5050.5 73.2857
5051.5 50.1429
5052.5 50
5053.5 52.1429
5054.5 86.4286
5055.5 45.7143
5056.5 73.4286
5057.5 29.8571
5058.5 48.5714
5059.5 50.8571
5060.5 87.4286
5061.5 88.2857
5062.5 58.4286
5063.5 50
5064.5 73.7143
5065.5 75.5714
5066.5 50
5067.5 53.7143
5068.5 53.2857
5069.5 67.4286
5070.5 84.1429
5071.5 103.714
5072.5 46.5714
5073.5 50.2857
5074.5 74.4286
5075.5 55.5714
5076.5 63
5077.5 67.8571
5078.5 50.7143
5079.5 54.2857
5080.5 58.5714
5081.5 63.7143
5082.5 51.7143
5083.5 53.2857
5084.5 63.4286
5085.5 80
5086.5 79
5087.5 60.7143
5088.5 49.7143
5089.5 80.5714
5090.5 50.1429
5091.5 57.1429
5092.5 53.1429
5093.5 78.4286
5094.5 55
5095.5 61.5714
5096.5 81
5097.5 60
5098.5 87.5714
5099.5 48.2857
5100.5 39.5714
5101.5 63.5714
5102.5 88.1429
5103.5 60.1429
5104.5 50.4286
5105.5 35
5106.5 57.4286
5107.5 17.7143
5108.5 70.5714
5109.5 40.4286
5110.5 56.8571
5111.5 81.8571
5112.5 72.8571
5113.5 79.4286
5114.5 38.2857
5115.5 40.8571
5116.5 51.8571
5117.5 36.1429
5118.5 22.2857
5119.5 41.1429
5120.5 70.4286
5121.5 36.2857
5122.5 55.4286
5123.5 57.5714
5124.5 81.8571
5125.5 44.5714
5126.5 59.7143
5127.5 70.8571
5128.5 40.7143
5129.5 39.1429
5130.5 51.8571
5131.5 33.5714
5132.5 68.1429
5133.5 63.7143
5134.5 49.8571
5135.5 89.4286
5136.5 74.8571
5137.5 50.5714
5138.5 73.1429
5139.5 72.5714
5140.5 67.2857
5141.5 76.5714
5142.5 74
5143.5 70.1429
5144.5 66
5145.5 77.7143
5146.5 54.4286
5147.5 53.7143
5148.5 90.1429
5149.5 70.4286
5150.5 75.5714
5151.5 58.1429
5152.5 57.7143
5153.5 31.5714
5154.5 70.5714
5155.5 60.4286
5156.5 34.7143
5157.5 80.4286
5158.5 74.7143
5159.5 56.1429
5160.5 41.7143
5161.5 14.1429
5162.5 80.2857
5163.5 43
5164.5 37.5714
5165.5 67.2857
5166.5 91.7143
5167.5 52.7143
5168.5 52.2857
5169.5 74.1429
5170.5 69.1429
5171.5 62.7143
5172.5 71.5714
5173.5 49.1429
5174.5 78.7143
5175.5 73.5714
5176.5 47.2857
5177.5 86.7143
5178.5 91.1429
5179.5 78.5714
5180.5 88.8571
5181.5 77
5182.5 62
5183.5 81.4286
5184.5 52.8571
5185.5 50.4286
5186.5 62.4286
5187.5 61.1429
5188.5 48.4286
5189.5 74.5714
5190.5 77.8571
5191.5 64
5192.5 78.5714
5193.5 42.2857
5194.5 73.2857
5195.5 69.4286
5196.5 52.7143
5197.5 64.5714
5198.5 74.5714
5199.5 59.8571
5200.5 43
5201.5 50
5202.5 55.1429
5203.5 93.7143
5204.5 40.8571
5205.5 71.2857
5206.5 44.4286
5207.5 51
5208.5 36.7143
5209.5 63.7143
5210.5 58.7143
5211.5 67.5714
5212.5 81.5714
5213.5 62.8571
5214.5 91.2857
5215.5 99.5714
5216.5 58.1429
5217.5 107.143
5218.5 99
5219.5 75.2857
5220.5 77
5221.5 86
5222.5 43.8571
5223.5 65.5714
5224.5 55.5714
5225.5 81.4286
5226.5 60
5227.5 82.5714
5228.5 90
5229.5 78
5230.5 65.4286
5231.5 75.4286
5232.5 68.8571
5233.5 65.8571
5234.5 74.8571
5235.5 118.429
5236.5 80.8571
5237.5 99.7143
5238.5 86.8571
5239.5 53.2857
5240.5 70.5714
5241.5 99.8571
5242.5 74.8571
5243.5 74.4286
5244.5 60.8571
5245.5 38.2857
5246.5 99.4286
5247.5 96.5714
5248.5 69
5249.5 68.7143
5250.5 50.2857
5251.5 76.7143
5252.5 87.1429
5253.5 83.8571
5254.5 50.7143
5255.5 82.5714
5256.5 71
5257.5 92.4286
5258.5 47.1429
5259.5 51.5714
5260.5 62.7143
5261.5 67
5262.5 41.7143
5263.5 107.714
5264.5 51.2857
5265.5 60.2857
5266.5 77.1429
5267.5 84.4286
5268.5 87.2857
5269.5 83.4286
5270.5 90.7143
5271.5 78.7143
5272.5 81.4286
5273.5 70.7143
5274.5 71.1429
5275.5 105.571
5276.5 87.2857
5277.5 78
5278.5 87.5714
5279.5 64
5280.5 80
5281.5 75.5714
5282.5 83.7143
5283.5 88
5284.5 57.1429
5285.5 60.7143
5286.5 56.8571
5287.5 72.7143
5288.5 95.7143
5289.5 78.8571
5290.5 59.7143
5291.5 94.2857
5292.5 79.2857
5293.5 109.571
5294.5 83
5295.5 80
5296.5 91.7143
5297.5 103.429
5298.5 68.2857
5299.5 86.8571
5300.5 50.4286
5301.5 113.429
5302.5 69.5714
5303.5 64.1429
5304.5 83.1429
5305.5 96.1429
5306.5 41.2857
5307.5 93
5308.5 102.286
5309.5 86.8571
5310.5 84
5311.5 72
5312.5 59.8571
5313.5 52.1429
5314.5 82.1429
5315.5 49.2857
5316.5 75.1429
5317.5 97.5714
5318.5 84.8571
5319.5 107.571
5320.5 87.5714
5321.5 70.2857
5322.5 111
5323.5 95.8571
5324.5 80.8571
5325.5 73.1429
5326.5 110.143
5327.5 85.2857
5328.5 84
5329.5 57.1429
5330.5 28.2857
5331.5 50.7143
5332.5 61.1429
5333.5 82
5334.5 108
5335.5 54
5336.5 96
5337.5 96.4286
5338.5 110.714
5339.5 85.1429
5340.5 98.7143
5341.5 106.857
5342.5 92.4286
5343.5 98.4286
5344.5 106.571
5345.5 75
5346.5 89
5347.5 75.1429
5348.5 68.7143
5349.5 80.2857
5350.5 101
5351.5 121.143
5352.5 140.714
5353.5 91.1429
5354.5 148.857
5355.5 156.714
5356.5 166.571
5357.5 173.143
5358.5 112.857
5359.5 107.714
5360.5 105.286
5361.5 79.2857
5362.5 99.5714
5363.5 100.571
5364.5 63.1429
5365.5 84.1429
5366.5 88.2857
5367.5 78.7143
5368.5 90.4286
5369.5 83.2857
5370.5 83.1429
5371.5 92.4286
5372.5 77.8571
5373.5 71.1429
5374.5 75.7143
5375.5 64.1429
5376.5 59.7143
5377.5 70.5714
5378.5 56.2857
5379.5 84.4286
5380.5 70.5714
5381.5 92.4286
5382.5 73.4286
5383.5 84.1429
5384.5 118
5385.5 102.429
5386.5 52.2857
5387.5 75.8571
5388.5 60.8571
5389.5 78.4286
5390.5 57.1429
5391.5 84.1429
5392.5 69.8571
5393.5 52.4286
5394.5 104.143
5395.5 112.714
5396.5 130.571
5397.5 143.857
5398.5 92.2857
5399.5 111.571
5400.5 94.1429
5401.5 97.7143
5402.5 100.571
5403.5 107.143
5404.5 96.5714
5405.5 98.8571
5406.5 102.429
5407.5 79.8571
5408.5 79.7143
5409.5 79.4286
5410.5 48
5411.5 72.7143
5412.5 59.5714
5413.5 89.4286
5414.5 74.1429
5415.5 98
5416.5 78.2857
5417.5 72.8571
5418.5 72.2857
5419.5 54.4286
5420.5 57.4286
5421.5 62.2857
5422.5 70.2857
5423.5 45
5424.5 67.1429
5425.5 62.8571
5426.5 50
5427.5 49.5714
5428.5 70.2857
5429.5 85
5430.5 56.4286
5431.5 79.7143
5432.5 69.5714
5433.5 65.1429
5434.5 -4.85714
5435.5 50.2857
5436.5 68.5714
5437.5 63.5714
5438.5 88
5439.5 80.8571
5440.5 75.8571
5441.5 86.1429
5442.5 67.4286
5443.5 84.4286
5444.5 55.8571
5445.5 78.5714
5446.5 61.2857
5447.5 103.571
5448.5 78
5449.5 43.4286
5450.5 74.4286
5451.5 80.7143
5452.5 47.8571
5453.5 64.7143
5454.5 44.8571
5455.5 77.1429
5456.5 50.7143
5457.5 50.4286
5458.5 73.1429
5459.5 97.7143
5460.5 69.7143
5461.5 69.7143
5462.5 59.7143
5463.5 76.8571
5464.5 74.7143
5465.5 59.7143
5466.5 83.7143
5467.5 75.7143
5468.5 64.4286
5469.5 80.2857
5470.5 79.2857
5471.5 79.2857
5472.5 53
5473.5 33.7143
5474.5 64.7143
5475.5 86.2857
5476.5 74
5477.5 63.2857
5478.5 47.4286
5479.5 78.4286
5480.5 42.8571
5481.5 26.7143
5482.5 87
5483.5 64.8571
5484.5 78.7143
5485.5 70
5486.5 51.7143
5487.5 69.4286
5488.5 56.7143
5489.5 60.7143
5490.5 25.4286
5491.5 61.1429
5492.5 76.1429
5493.5 63.4286
5494.5 61.7143
5495.5 71.1429
5496.5 65
5497.5 65.5714
5498.5 57.5714
5499.5 71
5500.5 50.5714
5501.5 58.2857
5502.5 79.5714
5503.5 70.5714
5504.5 58.5714
5505.5 70.8571
5506.5 58
5507.5 70.4286
5508.5 47.1429
5509.5 55.5714
5510.5 71.5714
5511.5 112.857
5512.5 109
5513.5 138.143
5514.5 128.429
5515.5 176.143
5516.5 247.143
5517.5 392.143
5518.5 601.143
5519.5 887.571
5520.5 1150.29
5521.5 1574.71
5522.5 1706.86
5523.5 1751.43
5524.5 1436.86
5525.5 917.714
5526.5 549
5527.5 272.714
5528.5 165.571
5529.5 143.714
5530.5 121.286
5531.5 104.286
5532.5 52.5714
5533.5 84.1429
5534.5 103.571
5535.5 113.714
5536.5 78.4286
5537.5 99.1429
5538.5 80.2857
5539.5 28.1429
5540.5 59
5541.5 52.7143
5542.5 49.7143
5543.5 68.4286
5544.5 66.7143
5545.5 60.5714
5546.5 66.4286
5547.5 93.5714
5548.5 86.1429
5549.5 84
5550.5 66.1429
5551.5 55.8571
5552.5 93
5553.5 99.8571
5554.5 127.857
5555.5 125.429
5556.5 100.286
5557.5 159
5558.5 116.571
5559.5 103.714
5560.5 102
5561.5 92.7143
5562.5 85.8571
5563.5 49
5564.5 76.5714
5565.5 69.2857
5566.5 89.2857
5567.5 95
5568.5 78.2857
5569.5 59.1429
5570.5 79.8571
5571.5 57.7143
5572.5 84.2857
5573.5 69.4286
5574.5 76
5575.5 101.714
5576.5 89
5577.5 86
5578.5 100.286
5579.5 110.286
5580.5 109.143
5581.5 109.714
5582.5 83.5714
5583.5 117.429
5584.5 97.2857
5585.5 102
5586.5 75.7143
5587.5 67.1429
5588.5 112.286
5589.5 89.4286
5590.5 46.1429
5591.5 77.1429
5592.5 103.714
5593.5 72.8571
5594.5 123
5595.5 69.1429
5596.5 76
5597.5 47.7143
5598.5 85.4286
5599.5 87.8571
5600.5 73.7143
5601.5 85.8571
5602.5 117.571
5603.5 68.4286
5604.5 77.7143
5605.5 80.5714
5606.5 76.7143
5607.5 71
5608.5 63.4286
5609.5 105.714
5610.5 90.1429
5611.5 81.1429
5612.5 108.571
5613.5 105.714
5614.5 50.7143
5615.5 71.5714
5616.5 50.5714
5617.5 102.429
5618.5 46.7143
5619.5 79.5714
5620.5 75.1429
5621.5 80.5714
5622.5 83.1429
5623.5 81.7143
5624.5 56.1429
5625.5 49.1429
5626.5 35.2857
5627.5 45.1429
5628.5 8.28571
5629.5 23
5630.5 35.8571
5631.5 48.7143
5632.5 67.7143
5633.5 79.5714
5634.5 70
5635.5 67.1429
5636.5 84.8571
5637.5 85.8571
5638.5 73.7143
5639.5 67.1429
5640.5 92.2857
5641.5 92.2857
5642.5 61.8571
5643.5 94.2857
5644.5 104.714
5645.5 46.7143
5646.5 68.2857
5647.5 55.7143
5648.5 69.8571
5649.5 100.857
5650.5 56.1429
5651.5 91.7143
5652.5 86.2857
5653.5 64.1429
5654.5 91
5655.5 33.2857
5656.5 75.5714
5657.5 92.5714
5658.5 82
5659.5 66.1429
5660.5 68.2857
5661.5 67
5662.5 69.8571
5663.5 64.1429
5664.5 70.7143
5665.5 80.4286
5666.5 47.5714
5667.5 79.1429
5668.5 106.714
5669.5 103.857
5670.5 66
5671.5 44.2857
5672.5 72.1429
5673.5 71.7143
5674.5 100.857
5675.5 95.8571
5676.5 71.7143
5677.5 85.7143
5678.5 69.5714
5679.5 89.8571
5680.5 79.7143
5681.5 70.8571
5682.5 94.2857
5683.5 80.4286
5684.5 84.1429
5685.5 55.8571
5686.5 67.1429
5687.5 97.8571
5688.5 108
5689.5 72.8571
5690.5 81.1429
5691.5 89.7143
5692.5 70.7143
5693.5 97.7143
5694.5 82.4286
5695.5 76.5714
5696.5 101.429
5697.5 83.1429
5698.5 93.7143
5699.5 95.1429
5700.5 73.7143
5701.5 87.5714
5702.5 86.4286
5703.5 81.7143
5704.5 71.7143
5705.5 81.8571
5706.5 97
5707.5 94
5708.5 75.1429
5709.5 111.143
5710.5 50.7143
5711.5 78
5712.5 60.7143
5713.5 70.7143
5714.5 60.7143
5715.5 75.1429
5716.5 87.1429
5717.5 103.714
5718.5 82.5714
5719.5 74.7143
5720.5 107.571
5721.5 97.5714
5722.5 101.286
5723.5 71.4286
5724.5 101.571
5725.5 83.5714
5726.5 88.8571
5727.5 81.5714
5728.5 78.7143
5729.5 56.5714
5730.5 89.4286
5731.5 106.429
5732.5 103
5733.5 133.714
5734.5 112.857
5735.5 127.429
5736.5 113.714
5737.5 103.714
5738.5 73
5739.5 79.5714
5740.5 106.571
5741.5 118.286
5742.5 102
5743.5 129.143
5744.5 81.1429
5745.5 83.1429
5746.5 94
5747.5 104
5748.5 109.286
5749.5 73.7143
5750.5 103
5751.5 133.286
5752.5 127
5753.5 98.4286
5754.5 99.2857
5755.5 64.7143
5756.5 116.286
5757.5 110
5758.5 84
5759.5 87.8571
5760.5 116.714
5761.5 114.143
5762.5 101.714
5763.5 114
5764.5 109.429
5765.5 104.143
5766.5 116.571
5767.5 84.4286
5768.5 90.2857
5769.5 136.857
5770.5 111.429
5771.5 115.857
5772.5 101.571
5773.5 109.143
5774.5 88
5775.5 104.429
5776.5 105.429
5777.5 106.571
5778.5 109.286
5779.5 95.2857
5780.5 86
5781.5 101.286
5782.5 107
5783.5 73.1429
5784.5 126.429
5785.5 90.2857
5786.5 97
5787.5 70.7143
5788.5 121.143
5789.5 88.2857
5790.5 93
5791.5 83.2857
5792.5 83
5793.5 83.8571
5794.5 86.1429
5795.5 85.7143
5796.5 90.2857
5797.5 94
5798.5 76.7143
5799.5 54.2857
5800.5 74.1429
5801.5 87.8571
5802.5 96.8571
5803.5 75.1429
5804.5 60.1429
5805.5 83
5806.5 94.2857
5807.5 107
5808.5 88.4286
5809.5 82.2857
5810.5 86.5714
5811.5 106.429
5812.5 79
5813.5 68.4286
5814.5 84.8571
5815.5 94.4286
5816.5 89.7143
5817.5 92.1429
5818.5 52.4286
5819.5 102.143
5820.5 70.7143
5821.5 80.1429
5822.5 79.7143
5823.5 64.5714
5824.5 48.8571
5825.5 72.2857
5826.5 82.7143
5827.5 91.8571
5828.5 85.8571
5829.5 101
5830.5 64
5831.5 81.2857
5832.5 61.8571
5833.5 65
5834.5 81.4286
5835.5 104.143
5836.5 69.7143
5837.5 71.2857
5838.5 40.2857
5839.5 35
5840.5 16.4286
5841.5 38.5714
5842.5 18.2857
5843.5 48.2857
5844.5 47.1429
5845.5 46.4286
5846.5 65.8571
5847.5 75.4286
5848.5 89.1429
5849.5 70.1429
5850.5 99.5714
5851.5 98.1429
5852.5 67
5853.5 88
5854.5 75.1429
5855.5 80.8571
5856.5 71
5857.5 56.8571
5858.5 69.4286
5859.5 79.5714
5860.5 87.7143
5861.5 73.4286
5862.5 80.4286
5863.5 89.4286
5864.5 79.7143
5865.5 70.2857
5866.5 62.5714
5867.5 77
5868.5 87.5714
5869.5 101.143
5870.5 56.2857
5871.5 60.1429
5872.5 84.8571
5873.5 66.1429
5874.5 90.1429
5875.5 66.7143
5876.5 81.4286
5877.5 66.4286
5878.5 77.1429
5879.5 67
5880.5 73.2857
5881.5 71.7143
5882.5 56
5883.5 41
5884.5 79.1429
5885.5 56.8571
5886.5 63
5887.5 78
5888.5 50
5889.5 62.8571
5890.5 74.1429
5891.5 79.8571
5892.5 62
5893.5 78.8571
5894.5 48.8571
5895.5 89.5714
5896.5 63
5897.5 43.5714
5898.5 79.1429
5899.5 9.28571
5900.5 11
5901.5 -2.28572
5902.5 11.5714
5903.5 25.1429
5904.5 22.5714
5905.5 22.8571
5906.5 63.7143
5907.5 55.5714
5908.5 58.1429
5909.5 52.2857
5910.5 69.8571
5911.5 66.4286
5912.5 57.8571
5913.5 36.2857
5914.5 47
5915.5 24.5714
5916.5 41
5917.5 40.8571
5918.5 57.4286
5919.5 38.5714
5920.5 42.5714
5921.5 47.8571
5922.5 57.8571
5923.5 59
5924.5 53.1429
5925.5 53.2857
5926.5 38.4286
5927.5 34.1429
5928.5 45.5714
5929.5 27.7143
5930.5 41.7143
5931.5 58.2857
5932.5 13.1429
5933.5 25.7143
5934.5 44.5714
5935.5 47.7143
5936.5 50.2857
5937.5 44.8571
5938.5 21.7143
5939.5 44.2857
5940.5 47.4286
5941.5 49.4286
5942.5 46.1429
5943.5 27.4286
5944.5 23.1429
5945.5 49.4286
5946.5 33.2857
5947.5 29.8571
5948.5 24.2857
5949.5 36.5714
5950.5 25.5714
5951.5 48.8571
5952.5 23.8571
5953.5 24.2857
5954.5 48.1429
5955.5 15.4286
5956.5 40.8571
5957.5 33.4286
5958.5 29.8571
5959.5 10.4286
5960.5 35.7143
5961.5 43.4286
5962.5 35
5963.5 30.2857
5964.5 10.2857
5965.5 13.1429
5966.5 36.4286
5967.5 20.5714
5968.5 20
5969.5 32.5714
5970.5 20.8571
5971.5 16.2857
5972.5 31.8571
5973.5 27.4286
5974.5 35.4286
5975.5 8.71429
5976.5 28.2857
5977.5 28.7143
5978.5 34.1429
5979.5 19.4286
5980.5 22.2857
5981.5 21.1429
5982.5 24.7143
5983.5 36.7143
5984.5 28.8571
5985.5 30.8571
5986.5 35.8571
5987.5 30.2857
5988.5 9.85714
5989.5 17.8571
5990.5 26.4286
5991.5 23.7143
5992.5 35.2857
5993.5 24.4286
5994.5 22.1429
5995.5 3.57143
5996.5 59.8571
5997.5 9.71428
5998.5 38.1429
5999.5 18
6000.5 45.2857
6001.5 37.7143
6002.5 42.1429
6003.5 22.2857
6004.5 45.5714
6005.5 30.5714
6006.5 49.5714
6007.5 20.8571
6008.5 21.1429
6009.5 31.8571
6010.5 20.2857
6011.5 3.85714
6012.5 39.1429
6013.5 27.1429
6014.5 48.4286
6015.5 23.8571
6016.5 22.7143
6017.5 46
6018.5 11
6019.5 34
6020.5 28.8571
6021.5 46.1429
6022.5 51.5714
6023.5 61.7143
6024.5 71.1429
6025.5 140
6026.5 249.429
6027.5 433.143
6028.5 730.286
6029.5 1178.43
6030.5 1911
6031.5 2746
6032.5 3575.29
6033.5 4315.14
6034.5 4302.29
6035.5 3399
6036.5 2057.71
6037.5 1093.86
6038.5 476.286
6039.5 207.571
6040.5 137.857
6041.5 122
6042.5 52.7143
6043.5 21
6044.5 40.7143
6045.5 24.7143
6046.5 30
6047.5 28.8571
6048.5 25.7143
6049.5 1.57143
6050.5 2.71429
6051.5 5.14286
6052.5 -0.428572
6053.5 -14.4286
6054.5 -5.42857
6055.5 -2.28571
6056.5 -14.5714
6057.5 4.14286
6058.5 8.42857
6059.5 -9.14286
6060.5 -2.42857
6061.5 1.14286
6062.5 7.71429
6063.5 16.7143
6064.5 9.42857
6065.5 11.2857
6066.5 10.2857
6067.5 9.28571
6068.5 5.57143
6069.5 -13.2857
6070.5 5.85714
6071.5 -14.7143
6072.5 0.714285
6073.5 -11.2857
6074.5 -4.71429
6075.5 -4.28571
6076.5 -0.714286
6077.5 -3.28571
6078.5 -1.14286
6079.5 10.2857
6080.5 -3
6081.5 -6.71429
6082.5 -7.85714
6083.5 -2.28571
6084.5 -4.14286
6085.5 3.71429
6086.5 -1.14286
6087.5 0.285714
6088.5 2.57143
6089.5 -15.2857
6090.5 -11.1429
6091.5 9.42857
6092.5 -0.285715
6093.5 14
6094.5 -8
6095.5 6
6096.5 12.7143
6097.5 8.14286
6098.5 8.71429
6099.5 0.428571
6100.5 -9.85714
6101.5 6.71429
6102.5 9.57143
6103.5 4.57143
6104.5 15
6105.5 2.57143
6106.5 13.8571
6107.5 7.42857
6108.5 -27.2857
6109.5 1.14286
6110.5 -6.57143
6111.5 5.57143
6112.5 8.14286
6113.5 -13.4286
6114.5 17.5714
6115.5 -23
6116.5 7
6117.5 -18.8571
6118.5 7
6119.5 6.42857
6120.5 15.8571
6121.5 37.1429
6122.5 -26.4286
6123.5 -3.14286
6124.5 -42.7143
6125.5 -28.7143
6126.5 -0.57143
6127.5 9.57143
6128.5 -2.42857
6129.5 0.857142
6130.5 -17.2857
6131.5 -6.71429
6132.5 13.1429
6133.5 -6.14286
6134.5 -3.42857
6135.5 0.857143
6136.5 1
6137.5 -0.857143
6138.5 2.28571
6139.5 -2.57143
6140.5 3.85714
6141.5 -12.2857
6142.5 6.85714
6143.5 -8.57143
6144.5 18
6145.5 6
6146.5 8.57143
6147.5 15
6148.5 1.85714
6149.5 17.1429
6150.5 13.8571
6151.5 11.4286
6152.5 2.57143
6153.5 4.14286
6154.5 -10
6155.5 -19.4286
6156.5 -8.14286
6157.5 1.14286
6158.5 -10
6159.5 -2.28571
6160.5 8
6161.5 -13.1429
6162.5 -4.57143
6163.5 -7.28571
6164.5 12.4286
6165.5 -3
6166.5 -5.42857
6167.5 -4.42857
6168.5 -5.28571
6169.5 8.42857
6170.5 -12.7143
6171.5 1
6172.5 3.14286
6173.5 -0.714286
6174.5 -11.8571
6175.5 -3.71429
6176.5 0.142857
6177.5 3.42857
6178.5 6.14286
6179.5 9.14286
6180.5 6.71429
6181.5 0.857143
6182.5 -6.71429
6183.5 -14.1429
6184.5 -3.28571
6185.5 4.57143
6186.5 10
6187.5 -3.14286
6188.5 -0.428572
6189.5 13.1429
6190.5 8.85714
6191.5 -1.28571
6192.5 2.28571
6193.5 17.4286
6194.5 -5.71429
6195.5 0.857143
6196.5 -9.85714
6197.5 1.57143
6198.5 5.71429
6199.5 -1
6200.5 -10.1429
6201.5 9
6202.5 -9.42857
6203.5 -3.57143
6204.5 3.71429
6205.5 -2.42857
6206.5 -8.14286
6207.5 -2
6208.5 7.57143
6209.5 -2.57143
6210.5 -4.14286
6211.5 0.571428
6212.5 -9.57143
6213.5 -1.85714
6214.5 3.14286
6215.5 -11.2857
6216.5 -3.28571
6217.5 9
6218.5 -4.28571
6219.5 -5.57143
6220.5 -20.5714
6221.5 -31.4286
6222.5 -19.4286
6223.5 -31.7143
6224.5 -20.5714
6225.5 -26.1429
6226.5 -30.5714
6227.5 -13.4286
6228.5 11.5714
6229.5 -17
6230.5 17.1429
6231.5 1.57143
6232.5 -5.28571
6233.5 -12.1429
6234.5 -11.5714
6235.5 -21.2857
6236.5 -36.8571
6237.5 -43.2857
6238.5 -46
6239.5 -48.8571
6240.5 -63.8571
6241.5 -27.2857
6242.5 -17.7143
6243.5 -7
6244.5 -0.285715
6245.5 -3.71429
6246.5 2
6247.5 5.28571
6248.5 11.1429
6249.5 -20
6250.5 15.7143
6251.5 5.57143
6252.5 -5.42857
6253.5 -3.71429
6254.5 -1.28571
6255.5 -10.8571
6256.5 -8.85714
6257.5 -11
6258.5 8
6259.5 -10.7143
6260.5 14.8571
6261.5 -11.7143
6262.5 6
6263.5 -7.85714
6264.5 -15.4286
6265.5 -13.1429
6266.5 12
6267.5 5.14286
6268.5 1.42857
6269.5 -4.28571
6270.5 -9.42857
6271.5 -2
6272.5 -1
6273.5 4.28571
6274.5 -6.85714
6275.5 -1.42857
6276.5 2.57143
6277.5 1.28571
6278.5 -4
6279.5 -6.28571
6280.5 -11.5714
6281.5 1.42857
6282.5 11.2857
6283.5 -7.57143
6284.5 -5.57143
6285.5 -6.71429
6286.5 5.14286
6287.5 -8
6288.5 14.2857
6289.5 3.71429
6290.5 -8.57143
6291.5 -5.71429
6292.5 -7.28571
6293.5 16.2857
6294.5 -5.28571
6295.5 -5.28571
6296.5 0.857143
6297.5 -13.2857
6298.5 -5.85714
6299.5 -9.71429
6300.5 10
6301.5 3.71429
6302.5 -2.38419e-07
6303.5 -10.5714
6304.5 6.14286
6305.5 -0.571429
6306.5 -7.14286
6307.5 5.85714
6308.5 -5
6309.5 -3.57143
6310.5 9.57143
6311.5 -4.42857
6312.5 -1.85714
6313.5 -2.28571
6314.5 0.142857
6315.5 -6.28571
6316.5 12.8571
6317.5 4.71429
6318.5 3.42857
6319.5 -2.28571
6320.5 -1.28571
6321.5 11
6322.5 -8.71429
6323.5 -1.71429
6324.5 3.28571
6325.5 9.42857
6326.5 -12.2857
6327.5 5.42857
6328.5 -3.57143
6329.5 -9.28571
6330.5 4.85714
6331.5 9
6332.5 -1.57143
6333.5 -1.42857
6334.5 5
6335.5 3.71429
6336.5 -6.71429
6337.5 -0.857143
6338.5 -4.42857
6339.5 1.57143
6340.5 -6.71429
6341.5 -10.7143
6342.5 -9
6343.5 1.85714
6344.5 -5.57143
6345.5 -1.57143
6346.5 5.57143
6347.5 6.14286
6348.5 4.85714
6349.5 -2.57143
6350.5 4.42857
6351.5 12
6352.5 10
6353.5 3.57143
6354.5 -4.42857
6355.5 -4
6356.5 1.57143
6357.5 5.71429
6358.5 10.5714
6359.5 -6.28571
6360.5 -5.71429
6361.5 -0.285715
6362.5 14.2857
6363.5 -4.14286
6364.5 16.8571
6365.5 -3.85714
6366.5 8.28571
6367.5 -23.2857
6368.5 9.42857
6369.5 -13.7143
6370.5 0.285714
6371.5 4.85714
6372.5 12.4286
6373.5 -6.28571
6374.5 -2.57143
6375.5 3.28571
6376.5 -7.85714
6377.5 -1.42857
6378.5 0.428571
6379.5 -12.7143
6380.5 -4.42857
6381.5 -2.14286
6382.5 6.14286
6383.5 5.42857
6384.5 -3.28571
6385.5 -1.14286
6386.5 1.57143
6387.5 4
6388.5 3.28571
6389.5 -3.71429
6390.5 -19.1429
6391.5 3.71429
6392.5 -1.14286
6393.5 -5.42857
6394.5 3.71429
6395.5 1.28571
6396.5 -2.14286
6397.5 -0.571429
6398.5 2.28571
6399.5 4
6400.5 3.14286
6401.5 4.42857
6402.5 8.42857
6403.5 -0.428572
6404.5 1.85714
6405.5 -10
6406.5 -6
6407.5 -3.42857
6408.5 -3.85714
6409.5 5.28571
6410.5 0.428571
6411.5 -3.57143
6412.5 -1.71429
6413.5 -13.7143
6414.5 -0.285715
6415.5 -5.85714
6416.5 -0.857143
6417.5 5.85714
6418.5 13.7143
6419.5 -2.42857
6420.5 -2.28572
6421.5 -14
6422.5 -18.1429
6423.5 7.14286
6424.5 -0.285715
6425.5 5.14286
6426.5 -3.85714
6427.5 -12.8571
6428.5 -6.28571
6429.5 -2.28571
6430.5 -1.14286
6431.5 14.8571
6432.5 4.85714
6433.5 -1.28571
6434.5 -4.57143
6435.5 -3.85714
6436.5 -6.85714
6437.5 -13.7143
6438.5 7.85714
6439.5 -23.4286
6440.5 -0.857143
6441.5 -12
6442.5 -4.71429
6443.5 -11.4286
6444.5 5.42857
6445.5 2.42857
6446.5 -0.857143
6447.5 0.285714
6448.5 -10.7143
6449.5 -12
6450.5 -1.85714
6451.5 -13.1429
6452.5 2
6453.5 0.285714
6454.5 9.85714
6455.5 -7.42857
6456.5 16.8571
6457.5 12.5714
6458.5 -0.285715
6459.5 3.42857
6460.5 8.42857
6461.5 2.14286
6462.5 2.28571
6463.5 0.857143
6464.5 -4.57143
6465.5 -6.14286
6466.5 -3.14286
6467.5 -6.42857
6468.5 10.7143
6469.5 -3.14286
6470.5 0.285714
6471.5 -5.42857
6472.5 -11.4286
6473.5 12.1429
6474.5 6.71429
6475.5 -8.28571
6476.5 -5.28572
6477.5 -3.42857
6478.5 -11.1429
6479.5 0.714284
6480.5 -3.28572
6481.5 2.28571
6482.5 19.1429
6483.5 -17
6484.5 -12
6485.5 3.14286
6486.5 2.28571
6487.5 -1.57143
6488.5 -7.28571
6489.5 -1.42857
6490.5 11.1429
6491.5 4.57143
6492.5 3
6493.5 -10
6494.5 -0.142857
6495.5 -5.14286
6496.5 -1.42857
6497.5 -0.714286
6498.5 1.85714
6499.5 6.28571
6500.5 -6.85714
6501.5 1.85714
6502.5 -0.428572
6503.5 10.4286
6504.5 -2
6505.5 -0.142857
6506.5 4.57143
6507.5 9.28571
6508.5 3.57143
6509.5 1
6510.5 -0.142857
6511.5 3.85714
6512.5 4.85714
6513.5 -4.85714
6514.5 -1.78814e-07
6515.5 0.857143
6516.5 -3.28571
6517.5 -3.14286
6518.5 2.85714
6519.5 -4.14286
6520.5 -6.14286
6521.5 -1.71429
6522.5 -4.42857
6523.5 -9.57143
6524.5 -2.38419e-07
6525.5 12.5714
6526.5 -4
6527.5 -0.428572
6528.5 -4.57143
6529.5 0.428571
6530.5 -8.28571
6531.5 4.14286
6532.5 -9.71429
6533.5 -0.857143
6534.5 -2.71429
6535.5 6.71429
6536.5 1.14286
6537.5 -1.71429
6538.5 3.57143
6539.5 3.57143
6540.5 5.85714
6541.5 -1.57143
6542.5 -2.14286
6543.5 -2
6544.5 -27.5714
6545.5 19.7143
6546.5 7.85714
6547.5 9.57143
6548.5 -4.71429
6549.5 9.42857
6550.5 -1
6551.5 1.14286
6552.5 1.14286
6553.5 -1.14286
6554.5 1
6555.5 2.71429
6556.5 -8.28571
6557.5 4.57143
6558.5 -6.28571
6559.5 2.57143
6560.5 -2.14286
6561.5 -4.71429
6562.5 -3.28571
6563.5 -1.85714
6564.5 -4.57143
6565.5 9.71429
6566.5 -3.28571
6567.5 5.42857
6568.5 -7.28571
6569.5 -1.71429
6570.5 -2
6571.5 -0.714286
6572.5 2.71429
6573.5 4.71429
6574.5 1.71429
6575.5 3.42857
6576.5 -0.142857
6577.5 -15
6578.5 2
6579.5 -2.71429
6580.5 1.28571
6581.5 -9.57143
6582.5 -2.28571
6583.5 -3.14286
6584.5 -12.7143
6585.5 -4.14286
6586.5 10.2857
6587.5 -8.42857
6588.5 1
6589.5 -1.71429
6590.5 16.2857
6591.5 6.85714
6592.5 -1.14286
6593.5 -13.5714
6594.5 -5.42857
6595.5 5.42857
6596.5 -1.57143
6597.5 -4.71429
6598.5 0.142857
6599.5 -9.42857
6600.5 1.28571
6601.5 2.57143
6602.5 -6.28571
6603.5 9.28571
6604.5 -7.71429
6605.5 -4
6606.5 7.71429
6607.5 -4.14286
6608.5 -6.57143
6609.5 -4
6610.5 -8.14286
6611.5 -2.42857
6612.5 -2.14286
6613.5 5.42857
6614.5 -1.85714
6615.5 -1.42857
6616.5 10
6617.5 2.57143
6618.5 1.42857
6619.5 -15.7143
6620.5 11.4286
6621.5 1.85714
6622.5 -10.5714
6623.5 -5.14286
6624.5 -10.5714
6625.5 2.42857
6626.5 -4.85714
6627.5 0.428571
6628.5 -1.28571
6629.5 -4.28571
6630.5 -3.71429
6631.5 -10.8571
6632.5 1.14286
6633.5 8.42857
6634.5 10.5714
6635.5 1.71429
6636.5 -0.428572
6637.5 5.28571
6638.5 5.28571
6639.5 8.42857
6640.5 -3
6641.5 10.2857
6642.5 8.42857
6643.5 -1
6644.5 5
6645.5 1.57143
6646.5 -8.42857
6647.5 7.85714
6648.5 7.71429
6649.5 3.28571
6650.5 -5.14286
6651.5 5
6652.5 5.42857
6653.5 4.85714
6654.5 12.5714
6655.5 2.85714
6656.5 -0.428572
6657.5 0.571428
6658.5 6.42857
6659.5 10
6660.5 7
6661.5 -9.28571
6662.5 5
6663.5 0.428571
6664.5 3.14286
6665.5 -7
6666.5 -2.85714
6667.5 -3.14286
6668.5 -5.85714
6669.5 -17.7143
6670.5 -21.5714
6671.5 -15.8571
6672.5 -13.2857
6673.5 -17.8571
6674.5 -8.14286
6675.5 -4.71429
6676.5 1.42857
6677.5 -1.28571
6678.5 8.57143
6679.5 -11.5714
6680.5 -6.28571
6681.5 2.42857
6682.5 10.5714
6683.5 7.57143
6684.5 6.57143
6685.5 1.14286
6686.5 -1.85714
6687.5 -6.57143
6688.5 -3
6689.5 -2.57143
6690.5 -0.857143
6691.5 -0.428572
6692.5 4.85714
6693.5 2.57143
6694.5 -8.85714
6695.5 -14.4286
6696.5 -9.28571
6697.5 9.85714
6698.5 -4.14286
6699.5 4.71429
6700.5 -0.857143
6701.5 5.85714
6702.5 2.57143
6703.5 -5.14286
6704.5 0.142857
6705.5 -8.14286
6706.5 10.4286
6707.5 -1.14286
6708.5 2.57143
6709.5 12.4286
6710.5 -0.428572
6711.5 9.42857
6712.5 -9.57143
6713.5 1.28571
6714.5 6.28571
6715.5 -5.42857
6716.5 -10.8571
6717.5 5.85714
6718.5 1.28571
6719.5 -2.28571
6720.5 -4.85714
6721.5 -0.571429
6722.5 -3
6723.5 -3.14286
6724.5 1.14286
6725.5 4.28571
6726.5 -5.85714
6727.5 -2.28571
6728.5 -3.28571
6729.5 3.57143
6730.5 -5.28571
6731.5 1.28571
6732.5 -7.28571
6733.5 8.71429
6734.5 -0.571429
6735.5 -6.42857
6736.5 0.571428
6737.5 8.14286
6738.5 -1.71429
6739.5 -5.71429
6740.5 -12.4286
6741.5 -1.28571
6742.5 -4.28571
6743.5 -4
6744.5 -15.1429
6745.5 -16.5714
6746.5 -51.1429
6747.5 -59.8571
6748.5 -70
6749.5 -86.5714
6750.5 -108.143
6751.5 -115.429
6752.5 -78.8571
6753.5 -35.4286
6754.5 -25.5714
6755.5 -0.714286
6756.5 1.71429
6757.5 -9.71429
6758.5 4.14286
6759.5 2.14286
6760.5 -8.85714
6761.5 0.857143
6762.5 13.2857
6763.5 0.285714
6764.5 2
6765.5 12.5714
6766.5 19.1429
6767.5 9.57143
6768.5 -1.42857
6769.5 11.4286
6770.5 -0.142858
6771.5 11.5714
6772.5 -7.85714
6773.5 7
6774.5 9.28571
6775.5 -7.57143
6776.5 10
6777.5 11.7143
6778.5 5.14286
6779.5 -2.85714
6780.5 -1.42857
6781.5 9.28571
6782.5 -3.14286
6783.5 5
6784.5 -2.14286
6785.5 -3.14286
6786.5 -6.14286
6787.5 7.14286
6788.5 8.28571
6789.5 4.71429
6790.5 0.428571
6791.5 9.28571
6792.5 5.71429
6793.5 -0.857143
6794.5 8.42857
6795.5 2.71429
6796.5 8.28571
6797.5 12.7143
6798.5 1.57143
6799.5 2.57143
6800.5 -2.85714
6801.5 0.714286
6802.5 0.857143
6803.5 -0.857143
6804.5 2.14286
6805.5 2.85714
6806.5 -1.85714
6807.5 -8.42857
6808.5 -6.71429
6809.5 -0.428572
6810.5 1
6811.5 8.28571
6812.5 1
6813.5 -0.571429
6814.5 1.85714
6815.5 0.571428
6816.5 5.28571
6817.5 -1.42857
6818.5 -1.85714
6819.5 -4.42857
6820.5 1.28571
6821.5 2.28571
6822.5 -0.428572
6823.5 3.42857
6824.5 -4.14286
6825.5 3
6826.5 5.71429
6827.5 3.14286
6828.5 -3.28571
6829.5 2.57143
6830.5 -0.857143
6831.5 0.428571
6832.5 3.57143
6833.5 12
6834.5 0.571428
6835.5 -6
6836.5 3.14286
6837.5 -2.42857
6838.5 -0.142857
6839.5 1.14286
6840.5 -4.28571
6841.5 -4
6842.5 1.71429
6843.5 6.14286
6844.5 7.42857
6845.5 4.85714
6846.5 10.4286
6847.5 -3.57143
6848.5 0.285714
6849.5 4
6850.5 -2.85714
6851.5 -5.42857
6852.5 -4.71429
6853.5 6
6854.5 2.42857
6855.5 -3.71429
6856.5 -2.71429
6857.5 -2
6858.5 -1.14286
6859.5 -1.85714
6860.5 0.428571
6861.5 6.14286
6862.5 -3.14286
6863.5 5.57143
6864.5 -4.57143
6865.5 6.42857
6866.5 4
6867.5 1.14286
6868.5 0.857143
6869.5 1.42857
6870.5 1.42857
6871.5 7.14286
6872.5 5
6873.5 12.4286
6874.5 -5.14286
6875.5 1.14286
6876.5 2.85714
6877.5 0.142857
6878.5 6.28571
6879.5 -1
6880.5 -2.71429
6881.5 -2.85714
6882.5 -0.285714
6883.5 4.42857
6884.5 0.285714
6885.5 -2.71429
6886.5 1.28571
6887.5 -8.71429
6888.5 -4.57143
6889.5 -1.28571
6890.5 5.14286
6891.5 3
6892.5 -4
6893.5 -2.14286
6894.5 -1.85714
6895.5 -0.714286
6896.5 8.71429
6897.5 -2.57143
6898.5 5.85714
6899.5 4.14286
6900.5 15.8571
6901.5 12.2857
6902.5 6.57143
6903.5 4
6904.5 0.142857
6905.5 22.7143
6906.5 -10
6907.5 3.28571
6908.5 5.85714
6909.5 -11.2857
6910.5 -4.71429
6911.5 -3.71429
6912.5 10.4286
6913.5 7.42857
6914.5 -3.14286
6915.5 0.428571
6916.5 -1.19209e-07
6917.5 -1.57143
6918.5 3.28571
6919.5 -0.714286
6920.5 -0.428572
6921.5 5.14286
6922.5 5.42857
6923.5 -5.71429
6924.5 0.714286
6925.5 0.428571
6926.5 1.14286
6927.5 3
6928.5 -0.285714
6929.5 -3.42857
6930.5 -1.14286
6931.5 -1.85714
6932.5 6.14286
6933.5 7.42857
6934.5 6.71429
6935.5 1.14286
6936.5 -13.4286
6937.5 2.85714
6938.5 -5.71429
6939.5 1.42857
6940.5 -3.71429
6941.5 6
6942.5 6
6943.5 -1.19209e-07
6944.5 1
6945.5 0.571428
6946.5 -5.96046e-08
6947.5 -1
6948.5 -0.285714
6949.5 4.28571
6950.5 -2
6951.5 3.57143
6952.5 2.57143
6953.5 -3.71429
6954.5 1
6955.5 3.57143
6956.5 -11
6957.5 -5.85714
6958.5 0.714286
6959.5 3.57143
6960.5 9.14286
6961.5 9.42857
6962.5 0.857143
6963.5 7.85714
6964.5 -0.857143
6965.5 -0.285714
6966.5 -4
6967.5 1.42857
6968.5 -2.28571
6969.5 9.14286
6970.5 -1.85714
6971.5 3.42857
6972.5 4.42857
6973.5 2
6974.5 3.42857
6975.5 4.85714
6976.5 3.28571
6977.5 -0.285714
6978.5 2
6979.5 -0.857143
6980.5 11.7143
6981.5 4
6982.5 2.28571
6983.5 -3.71429
6984.5 3.71429
6985.5 -4.14286
6986.5 2.28571
6987.5 -3.14286
6988.5 3.42857
6989.5 6
6990.5 -3.57143
6991.5 5.14286
6992.5 -3
6993.5 -4.14286
6994.5 2.42857
6995.5 0.857143
6996.5 1.28571
6997.5 7.71429
6998.5 4.14286
6999.5 4.14286
7000.5 -1.19209e-07
7001.5 -5.96046e-08
7002.5 6.28571
7003.5 1.57143
7004.5 5.42857
7005.5 0.714286
7006.5 -0.571429
7007.5 5.57143
7008.5 -1.28571
7009.5 -3.14286
7010.5 1
7011.5 2.42857
7012.5 0.142857
7013.5 -4.14286
7014.5 -1.28571
7015.5 -3.71429
7016.5 3.42857
7017.5 3.28571
7018.5 -4.85714
7019.5 0.142857
7020.5 0.857143
7021.5 6.28571
7022.5 1.57143
7023.5 -1.71429
7024.5 -5.28571
7025.5 -2.42857
7026.5 9.85714
7027.5 2.57143
7028.5 1.71429
7029.5 -0.428572
7030.5 5.42857
7031.5 -4.71429
7032.5 -2.42857
7033.5 3.14286
7034.5 -12.1429
7035.5 2
7036.5 -1.85714
7037.5 -3.14286
7038.5 -2.14286
7039.5 -8.28571
7040.5 -5
7041.5 -1
7042.5 1.71429
7043.5 -4.42857
7044.5 -1.42857
7045.5 2.14286
7046.5 -7.14286
7047.5 6
7048.5 -2.42857
7049.5 -4.28571
7050.5 -4.42857
7051.5 -5.28571
7052.5 1.85714
7053.5 3.28571
7054.5 1.71429
7055.5 -8
7056.5 8.14286
7057.5 2.42857
7058.5 -6.14286
7059.5 1.71429
7060.5 4.57143
7061.5 9.42857
7062.5 -4
7063.5 1.85714
7064.5 4.57143
7065.5 4
7066.5 -0.285714
7067.5 -2.42857
7068.5 6
7069.5 3.85714
7070.5 -10.4286
7071.5 -3.71429
7072.5 1.85714
7073.5 -2.28571
7074.5 2.14286
7075.5 -0.714286
7076.5 -4.71429
7077.5 -1
7078.5 0.142857
7079.5 1.71429
7080.5 -5.57143
7081.5 10
7082.5 -3.71429
7083.5 -5.85714
7084.5 4.71429
7085.5 -5
7086.5 0.285714
7087.5 -4.42857
7088.5 1.28571
7089.5 3.14286
7090.5 -6.85714
7091.5 -7.42857
7092.5 -4.85714
7093.5 -7.57143
7094.5 3.14286
7095.5 -4.28571
7096.5 2.57143
7097.5 -1.57143
7098.5 1.14286
7099.5 -0.285714
7100.5 -6.28571
7101.5 2.28571
7102.5 1.14286
7103.5 -7.42857
7104.5 -2
7105.5 0.428571
7106.5 0.428571
7107.5 -8.57143
7108.5 3.57143
7109.5 -4.85714
7110.5 0.428571
7111.5 -1.42857
7112.5 2.85714
7113.5 -2.28571
7114.5 2.71429
7115.5 4.28571
7116.5 2.28571
7117.5 -5.14286
7118.5 -6.28571
7119.5 1.71429
7120.5 -2.14286
7121.5 0.571428
7122.5 -1.85714
7123.5 0.428571
7124.5 2.57143
7125.5 3.42857
7126.5 -5.71429
7127.5 4.85714
7128.5 15
7129.5 -0.571429
7130.5 3.28571
7131.5 2
7132.5 1.28571
7133.5 -5.96046e-08
7134.5 -3.85714
7135.5 -1.42857
7136.5 1.57143
7137.5 0.571428
7138.5 -1.57143
7139.5 1.42857
7140.5 8.71429
7141.5 3.71429
7142.5 0.571428
7143.5 -0.428572
7144.5 -0.714286
7145.5 -1.71429
7146.5 6.42857
7147.5 1.71429
7148.5 -1.57143
7149.5 -2.28571
7150.5 1.14286
7151.5 2.85714
7152.5 -0.714286
7153.5 5.85714
7154.5 4
7155.5 5.42857
7156.5 2.85714
7157.5 9.57143
7158.5 14.2857
7159.5 8.14286
7160.5 6.85714
7161.5 -5.96046e-08
7162.5 -1.28571
7163.5 6.28571
7164.5 -0.571429
7165.5 -2.71429
7166.5 4.14286
7167.5 1.42857
7168.5 -5.14286
7169.5 7
7170.5 -1.57143
7171.5 4.14286
7172.5 0.285714
7173.5 -0.857143
7174.5 8.28571
7175.5 -2.57143
7176.5 2.14286
7177.5 5.85714
7178.5 1.14286
7179.5 -7.14286
7180.5 -7.14286
7181.5 -3.14286
7182.5 10
7183.5 4.42857
7184.5 3.14286
7185.5 9.42857
7186.5 5.28571
7187.5 -3.85714
7188.5 14.2857
7189.5 -0.571429
7190.5 7.71429
7191.5 14.4286
7192.5 10.1429
7193.5 4.85714
7194.5 5.57143
7195.5 2.71429
7196.5 6
7197.5 2.28571
7198.5 1.57143
7199.5 -2
7200.5 2.28571
7201.5 -1.42857
7202.5 -3.28571
7203.5 1.71429
7204.5 2.28571
7205.5 -10.2857
7206.5 -6.57143
7207.5 -9.28571
7208.5 -7.85714
7209.5 15.2857
7210.5 4.85714
7211.5 -4.71429
7212.5 -1.42857
7213.5 4.85714
7214.5 -4.57143
7215.5 -2.71429
7216.5 2.42857
7217.5 2.71429
7218.5 2.57143
7219.5 4.28571
7220.5 -4.85714
7221.5 5
7222.5 1.71429
7223.5 2.28571
7224.5 -5.28571
7225.5 -7.85714
7226.5 1.14286
7227.5 -0.857143
7228.5 -0.857143
7229.5 -0.714286
7230.5 -3.42857
7231.5 1.57143
7232.5 2
7233.5 -11.7143
7234.5 2.42857
7235.5 -2.85714
7236.5 2.42857
7237.5 -0.142857
7238.5 3.28571
7239.5 0.714286
7240.5 1.28571
7241.5 4
7242.5 0.142857
7243.5 -3.28571
7244.5 -2.85714
7245.5 1.14286
7246.5 -1.57143
7247.5 -3.85714
7248.5 -3.57143
7249.5 2.28571
7250.5 5
7251.5 7.57143
7252.5 -3.28571
7253.5 1.71429
7254.5 -3.14286
7255.5 -1.57143
7256.5 2.71429
7257.5 -2.28571
7258.5 -6.42857
7259.5 -13.1429
7260.5 -4.14286
7261.5 4.14286
7262.5 3.42857
7263.5 -3.71429
7264.5 -0.571429
7265.5 -1.85714
7266.5 -1.28571
7267.5 3
7268.5 3.71429
7269.5 4
7270.5 -0.285714
7271.5 -1.14286
7272.5 0.285714
7273.5 0.857143
7274.5 -0.285714
7275.5 -3.14286
7276.5 0.428571
7277.5 6.57143
7278.5 -0.285714
7279.5 4
7280.5 -1.42857
7281.5 1.14286
7282.5 3.42857
7283.5 1.57143
7284.5 -8.71429
7285.5 1.14286
7286.5 -1.14286
7287.5 7
7288.5 -0.714286
7289.5 -5.14286
7290.5 -1.14286
7291.5 4.14286
7292.5 -7.57143
7293.5 5
7294.5 -2.42857
7295.5 4.28571
7296.5 -0.428572
7297.5 -2.71429
7298.5 0.714286
7299.5 2.42857
7300.5 -2.71429
7301.5 3.71429
7302.5 0.714286
7303.5 -2.14286
7304.5 0.428571
7305.5 -1.57143
7306.5 0.142857
7307.5 -2.14286
7308.5 0.142857
7309.5 3.85714
7310.5 0.571428
7311.5 -0.428572
7312.5 0.142857
7313.5 -0.428572
7314.5 -0.714286
7315.5 -0.857143
7316.5 1
7317.5 -0.428572
7318.5 6.71429
7319.5 -7.14286
7320.5 2.14286
7321.5 4.28571
7322.5 -6.42857
7323.5 -4.57143
7324.5 3
7325.5 3
7326.5 -0.142857
7327.5 3.85714
7328.5 2.71429
7329.5 1.57143
7330.5 2.71429
7331.5 -1.28571
7332.5 -5.96046e-08
7333.5 -0.142857
7334.5 3
7335.5 -0.714286
7336.5 -3.57143
7337.5 -3.71429
7338.5 -1.14286
7339.5 3.57143
7340.5 6.85714
7341.5 2.42857
7342.5 -0.285714
7343.5 3.14286
7344.5 -5.96046e-08
7345.5 0.714286
7346.5 -4.71429
7347.5 -4
7348.5 -3.85714
7349.5 -6.28571
7350.5 5.14286
7351.5 10.7143
7352.5 2.28571
7353.5 1.85714
7354.5 1.71429
7355.5 4.85714
7356.5 0.285714
7357.5 -5.85714
7358.5 3.85714
7359.5 -7.14286
7360.5 1.85714
7361.5 1.85714
7362.5 5.42857
7363.5 7.28571
7364.5 -1
7365.5 -5.96046e-08
7366.5 0.714286
7367.5 -5.28571
7368.5 2
7369.5 0.142857
7370.5 -4
7371.5 -1.28571
7372.5 -2.57143
7373.5 -4.85714
7374.5 4.42857
7375.5 -6.42857
7376.5 -1
7377.5 5.71429
7378.5 -8.57143
7379.5 -2.85714
7380.5 3.28571
7381.5 -2.14286
7382.5 3.71429
7383.5 -7.42857
7384.5 -2.71429
7385.5 -3.85714
7386.5 -1
7387.5 -0.857143
7388.5 2.71429
7389.5 3.85714
7390.5 -0.857143
7391.5 -1
7392.5 4.71429
7393.5 2.14286
7394.5 -1.57143
7395.5 4.85714
7396.5 1.85714
7397.5 2.14286
7398.5 2.85714
7399.5 0.857143
7400.5 4.42857
7401.5 2.57143
7402.5 -2.14286
7403.5 -0.285714
7404.5 0.571429
7405.5 -3.71429
7406.5 3.42857
7407.5 -1.85714
7408.5 -0.428572
7409.5 1.85714
7410.5 -7.85714
7411.5 -11.1429
7412.5 8.85714
7413.5 7.85714
7414.5 2.71429
7415.5 1.85714
7416.5 3.28571
7417.5 -6.85714
7418.5 6.71429
7419.5 12.2857
7420.5 1.71429
7421.5 8.42857
7422.5 2.42857
7423.5 4.57143
7424.5 -2.71429
7425.5 3.28571
7426.5 -3.28571
7427.5 -4.28571
7428.5 -0.857143
7429.5 -2.71429
7430.5 8.28571
7431.5 -0.428571
7432.5 6.14286
7433.5 -1
7434.5 -0.142857
7435.5 -1.28571
7436.5 7.57143
7437.5 2.85714
7438.5 -9.14286
7439.5 -1.14286
7440.5 -2
7441.5 -10.1429
7442.5 1.85714
7443.5 2.42857
7444.5 -4.57143
7445.5 -4.14286
7446.5 2.28571
7447.5 -0.428571
7448.5 2
7449.5 3.85714
7450.5 1.85714
7451.5 -1
7452.5 0.285714
7453.5 2.85714
7454.5 -3.14286
7455.5 -1.85714
7456.5 -5.28571
7457.5 2.71429
7458.5 0.714286
7459.5 4.85714
7460.5 -2.28571
7461.5 1.57143
7462.5 -0.142857
7463.5 2.85714
7464.5 -0.571429
7465.5 0.142857
7466.5 3
7467.5 7.14286
7468.5 0.714286
7469.5 -3.85714
7470.5 -4.28571
7471.5 0.142857
7472.5 -2.28571
7473.5 -1.14286
7474.5 -5.85714
7475.5 -4.14286
7476.5 -2.42857
7477.5 -4.85714
7478.5 -1.42857
7479.5 3.28571
7480.5 3.42857
7481.5 0.714286
7482.5 -1
7483.5 -1.14286
7484.5 1.57143
7485.5 -7.57143
7486.5 0.714286
7487.5 -0.428571
7488.5 1.57143
7489.5 0.714286
7490.5 0.142857
7491.5 7.57143
7492.5 -2.14286
7493.5 -1.57143
7494.5 -2.14286
7495.5 1.71429
7496.5 1.85714
7497.5 -2.71429
7498.5 0.714286
7499.5 -1.85714
7500.5 3.85714
7501.5 -4
7502.5 -2
7503.5 -1.57143
7504.5 0.714286
7505.5 -4.57143
7506.5 4.42857
7507.5 5.85714
7508.5 -2
7509.5 2.57143
7510.5 3.42857
7511.5 3.57143
7512.5 1.71429
7513.5 0.571429
7514.5 -2
7515.5 1.71429
7516.5 -0.142857
7517.5 2.57143
7518.5 -0.142857
7519.5 2.85714
7520.5 5.28571
7521.5 -0.714286
7522.5 -1.85714
7523.5 1.14286
7524.5 1
7525.5 1.57143
7526.5 -2
7527.5 -1.14286
7528.5 -0.714286
7529.5 5
7530.5 -3
7531.5 -2.28571
7532.5 -0.142857
7533.5 -4.14286
7534.5 0.428571
7535.5 -5.71429
7536.5 -3.71429
7537.5 1.71429
7538.5 -1.42857
7539.5 1.71429
7540.5 -0.857143
7541.5 3.85714
7542.5 -0.142857
7543.5 -3.85714
7544.5 3.28571
7545.5 1.71429
7546.5 2.42857
7547.5 3
7548.5 1.85714
7549.5 6.57143
7550.5 -3.71429
7551.5 7.42857
7552.5 -2.85714
7553.5 4.28571
7554.5 3
7555.5 0.571429
7556.5 -4.14286
7557.5 0.857143
7558.5 -0.142857
7559.5 -0.285714
7560.5 8.14286
7561.5 2.57143
7562.5 1.85714
7563.5 0.571429
7564.5 -0.285714
7565.5 -5.28571
7566.5 2.71429
7567.5 -3
7568.5 -0.857143
7569.5 1.28571
7570.5 -7.85714
7571.5 -0.571429
7572.5 0.285714
7573.5 4.42857
7574.5 2.71429
7575.5 1.71429
7576.5 1.42857
7577.5 0.142857
7578.5 2.71429
7579.5 3.85714
7580.5 -5.42857
7581.5 -2.85714
7582.5 -0.285714
7583.5 1.42857
7584.5 0.714286
7585.5 -3.85714
7586.5 2.85714
7587.5 2.85714
7588.5 -4.71429
7589.5 -0.285714
7590.5 3.42857
7591.5 4.28571
7592.5 -2.42857
7593.5 0.714286
7594.5 -2.28571
7595.5 -0.285714
7596.5 -4.14286
7597.5 1
7598.5 3
7599.5 5.42857
7600.5 0.714286
7601.5 -4
7602.5 -2
7603.5 -3.14286
7604.5 -2.85714
7605.5 2.42857
7606.5 -1.14286
7607.5 -5.14286
7608.5 3.71429
7609.5 1.28571
7610.5 7.14286
7611.5 2.85714
7612.5 1.14286
7613.5 -0.428571
7614.5 0.428571
7615.5 3.57143
7616.5 -0.142857
7617.5 -3
7618.5 2.28571
7619.5 0.428571
7620.5 2.14286
7621.5 -2.28571
7622.5 -2.42857
7623.5 0.142857
7624.5 3.28571
7625.5 3.57143
7626.5 4.28571
7627.5 5.71429
7628.5 -3.57143
7629.5 1
7630.5 -4.71429
7631.5 -5.96046e-08
7632.5 -0.285714
7633.5 -3
7634.5 2.71429
7635.5 -3.42857
7636.5 3.42857
7637.5 2.71429
7638.5 -2
7639.5 -3.14286
7640.5 -0.428571
7641.5 -2
7642.5 -3.14286
7643.5 0.857143
7644.5 2.71429
7645.5 0.571429
7646.5 6.42857
7647.5 -2.14286
7648.5 -4.28571
7649.5 2.42857
7650.5 -2.14286
7651.5 3.14286
7652.5 2.42857
7653.5 0.428571
7654.5 0.714286
7655.5 -4.14286
7656.5 -4.57143
7657.5 0.571429
7658.5 1.14286
7659.5 0.571429
7660.5 -1.14286
7661.5 3.57143
7662.5 6
7663.5 2.14286
7664.5 0.571429
7665.5 1.28571
7666.5 2.42857
7667.5 -2.28571
7668.5 -2.14286
7669.5 2.71429
7670.5 6.14286
7671.5 2.57143
7672.5 -3.28571
7673.5 -4
7674.5 -4.85714
7675.5 -5.14286
7676.5 -0.285714
7677.5 -0.428571
7678.5 2.28571
7679.5 1.57143
7680.5 -0.285714
7681.5 0.428571
7682.5 -2.28571
7683.5 2.71429
7684.5 0.285714
7685.5 0.428571
7686.5 -1.42857
7687.5 -2.28571
7688.5 2.14286
7689.5 0.571429
7690.5 -0.428571
7691.5 2.42857
7692.5 2.14286
7693.5 -0.714286
7694.5 -3
7695.5 9.14286
7696.5 -0.428571
7697.5 -1.14286
7698.5 -5.96046e-08
7699.5 -4.14286
7700.5 -1.28571
7701.5 -1.57143
7702.5 1.42857
7703.5 -0.285714
7704.5 -3.85714
7705.5 1
7706.5 -1.14286
7707.5 -3.85714
7708.5 -1.57143
7709.5 2.85714
7710.5 8.42857
7711.5 -4
7712.5 2.42857
7713.5 -0.571429
7714.5 1.28571
7715.5 2.42857
7716.5 -0.428571
7717.5 4.42857
7718.5 0.714286
7719.5 -4.14286
7720.5 0.142857
7721.5 1.71429
7722.5 -3
7723.5 1.71429
7724.5 -3.85714
7725.5 1.57143
7726.5 1.42857
7727.5 -3
7728.5 0.428571
7729.5 1.14286
7730.5 -1.57143
7731.5 -1.28571
7732.5 -3.28571
7733.5 1.28571
7734.5 -0.285714
7735.5 -0.571429
7736.5 -0.714286
7737.5 -1.14286
7738.5 2.71429
7739.5 -4.14286
7740.5 0.571429
7741.5 1.28571
7742.5 0.428571
7743.5 0.142857
7744.5 1.28571
7745.5 -0.571429
7746.5 3.28571
7747.5 2.42857
7748.5 1.14286
7749.5 1.71429
7750.5 -3.28571
7751.5 0.285714
7752.5 4.28571
7753.5 0.428571
7754.5 0.142857
7755.5 2.85714
7756.5 -1.28571
7757.5 2.28571
7758.5 0.428571
7759.5 -2.14286
7760.5 -3.85714
7761.5 -2.57143
7762.5 -2.42857
7763.5 -2.14286
7764.5 -6.57143
7765.5 -0.142857
7766.5 6
7767.5 -0.714286
7768.5 1.71429
7769.5 -3.28571
7770.5 4.28571
7771.5 5.71429
7772.5 -5.42857
7773.5 5.57143
7774.5 -13.4286
7775.5 -1.57143
7776.5 -10
7777.5 1.57143
7778.5 0.714286
7779.5 -1
7780.5 0.428571
7781.5 -1.57143
7782.5 1.42857
7783.5 2.28571
7784.5 -1.42857
7785.5 -2.28571
7786.5 -5.85714
7787.5 3.14286
7788.5 -1.42857
7789.5 0.142857
7790.5 -4.71429
7791.5 0.428571
7792.5 4.42857
7793.5 1.14286
7794.5 3.28571
7795.5 -0.285714
7796.5 -1
7797.5 -0.571429
7798.5 0.428571
7799.5 3.42857
7800.5 -0.428571
7801.5 -1.28571
7802.5 -1.42857
7803.5 -3.28571
7804.5 1.28571
7805.5 0.571429
7806.5 4.28571
7807.5 1.14286
7808.5 -2.42857
7809.5 3
7810.5 -1.42857
7811.5 8.14286
7812.5 4.28571
7813.5 -1.28571
7814.5 -0.571429
7815.5 -5.85714
7816.5 4.42857
7817.5 5.85714
7818.5 7
7819.5 -0.142857
7820.5 -1.14286
7821.5 -2.42857
7822.5 -8.57143
7823.5 5.42857
7824.5 1.71429
7825.5 4.71429
7826.5 -1.85714
7827.5 5.57143
7828.5 -2.42857
7829.5 2.14286
7830.5 -0.285714
7831.5 -3.14286
7832.5 2.85714
7833.5 -3.28571
7834.5 -4
7835.5 3.28571
7836.5 2.42857
7837.5 6
7838.5 -5
7839.5 2.14286
7840.5 -1.14286
7841.5 0.428571
7842.5 -1.57143
7843.5 1.28571
7844.5 -3.42857
7845.5 -3.28571
7846.5 -0.428571
7847.5 -0.571429
7848.5 0.285714
7849.5 -0.857143
7850.5 -3.28571
7851.5 0.142857
7852.5 -2.28571
7853.5 -0.714286
7854.5 1.28571
7855.5 1.28571
7856.5 0.142857
7857.5 0.428571
7858.5 2.57143
7859.5 -1.71429
7860.5 -1
7861.5 -8.42857
7862.5 2.14286
7863.5 4
7864.5 3.57143
7865.5 1.42857
7866.5 0.428571
7867.5 -4.28571
7868.5 0.142857
7869.5 1.28571
7870.5 -0.714286
7871.5 0.285714
7872.5 2.14286
7873.5 -0.714286
7874.5 0.285714
7875.5 -3.85714
7876.5 1.71429
7877.5 -1.28571
7878.5 0.571429
7879.5 0.285714
7880.5 2
7881.5 2.28571
7882.5 -1.28571
7883.5 -1.57143
7884.5 -0.428571
7885.5 2.14286
7886.5 -1.42857
7887.5 -1.57143
7888.5 -1.42857
7889.5 1.28571
7890.5 4
7891.5 1.14286
7892.5 -2.57143
7893.5 0.142857
7894.5 2.28571
7895.5 -1.42857
7896.5 0.428571
7897.5 1.42857
7898.5 0.285714
7899.5 2.14286
7900.5 4
7901.5 -0.714286
7902.5 -3.28571
7903.5 2.42857
7904.5 1.28571
7905.5 -1.42857
7906.5 0.142857
7907.5 -0.571429
7908.5 1.14286
7909.5 3
7910.5 0.428571
7911.5 0.857143
7912.5 4.28571
7913.5 0.428571
7914.5 -4
7915.5 1.57143
7916.5 1.42857
7917.5 -2.28571
7918.5 3.28571
7919.5 0.571429
7920.5 -0.428571
7921.5 -4.85714
7922.5 0.285714
7923.5 0.142857
7924.5 0.428571
7925.5 2.28571
7926.5 -0.428571
7927.5 3.14286
7928.5 3
7929.5 -0.714286
7930.5 0.285714
7931.5 -0.714286
7932.5 -1.42857
7933.5 2.42857
7934.5 1.28571
7935.5 3
7936.5 -0.714286
7937.5 3.42857
7938.5 -2.28571
7939.5 1
7940.5 0.142857
7941.5 2.28571
7942.5 2.28571
7943.5 1.28571
7944.5 3.14286
7945.5 5.28571
7946.5 -0.714286
7947.5 -0.714286
7948.5 2.28571
7949.5 -0.714286
7950.5 -2.14286
7951.5 2
7952.5 0.285714
7953.5 -1.14286
7954.5 -1.71429
7955.5 0.571429
7956.5 0.714286
7957.5 0.571429
7958.5 -0.571429
7959.5 0.857143
7960.5 -2.71429
7961.5 -0.428571
7962.5 -1.28571
7963.5 0.428571
7964.5 1.14286
7965.5 -4
7966.5 3.28571
7967.5 -2.42857
7968.5 -2.42857
7969.5 3.14286
7970.5 -1.42857
7971.5 2.42857
7972.5 2.14286
7973.5 1.14286
7974.5 -2.57143
7975.5 -0.428571
7976.5 2.42857
7977.5 1.28571
7978.5 -1.71429
7979.5 1.57143
7980.5 1.28571
7981.5 -2.28571
7982.5 -0.571429
7983.5 -0.714286
7984.5 1.42857
7985.5 2.28571
7986.5 4.14286
7987.5 0.428571
7988.5 -1.57143
7989.5 -0.714286
7990.5 3.42857
7991.5 -3.14286
7992.5 -0.571429
7993.5 -1.57143
7994.5 1
7995.5 1.14286
7996.5 0.428571
7997.5 -0.428571
7998.5 -0.428571
7999.5 -3.14286
8000.5 0.285714
8001.5 -1.42857
8002.5 1.28571
8003.5 -0.571429
8004.5 1.28571
8005.5 0.428571
8006.5 -3.14286
8007.5 -0.571429
8008.5 -3.42857
8009.5 -4
8010.5 -1.57143
8011.5 -0.714286
8012.5 1.14286
8013.5 5.28571
8014.5 -4.14286
8015.5 2.14286
8016.5 3.14286
8017.5 -2.42857
8018.5 -2.42857
8019.5 0.285714
8020.5 1.14286
8021.5 -1.42857
8022.5 4.14286
8023.5 -0.714286
8024.5 -0.428571
8025.5 6.28571
8026.5 -1.71429
8027.5 4.14286
8028.5 -2.57143
8029.5 0.571429
8030.5 -1.42857
8031.5 -2.28571
8032.5 -3.14286
8033.5 -0.714286
8034.5 0.142857
8035.5 -3.28571
8036.5 3.14286
8037.5 1.57143
8038.5 1.28571
8039.5 -0.714286
8040.5 -3.28571
8041.5 1.14286
8042.5 -1.57143
8043.5 -1.57143
8044.5 -1.57143
8045.5 3
8046.5 -0.857143
8047.5 1
8048.5 0.285714
8049.5 0.285714
8050.5 0.285714
8051.5 1.14286
8052.5 0.285714
8053.5 -1.71429
8054.5 -1.71429
8055.5 -1.57143
8056.5 -0.857143
8057.5 1.14286
8058.5 1.14286
8059.5 0
8060.5 0.142857
8061.5 0.142857
8062.5 -1.28571
8063.5 -1.57143
8064.5 0.285714
8065.5 0.285714
8066.5 -4.28571
8067.5 0.285714
8068.5 2
8069.5 -0.571429
8070.5 -0.857143
8071.5 0.142857
8072.5 0.428571
8073.5 4.14286
8074.5 -0.571429
8075.5 -4.14286
8076.5 -2.28571
8077.5 0.285714
8078.5 5.28571
8079.5 -0.428571
8080.5 3.42857
8081.5 4.14286
8082.5 3.71429
8083.5 1.14286
8084.5 -0.142857
8085.5 1.57143
8086.5 -0.428572
8087.5 -3.42857
8088.5 5.42857
8089.5 -2.57143
8090.5 1.42857
8091.5 1.28571
8092.5 -2.57143
8093.5 -0.428571
8094.5 2.14286
8095.5 -1.57143
8096.5 1.14286
8097.5 0.142857
8098.5 -2.42857
8099.5 1.14286
8100.5 -1.57143
8101.5 -1.71429
8102.5 2
8103.5 -0.857143
8104.5 -2.57143
8105.5 1.14286
8106.5 1.14286
8107.5 -1.42857
8108.5 -0.571429
8109.5 -1.57143
8110.5 1.28571
8111.5 -2.42857
8112.5 0.285714
8113.5 0.142857
8114.5 0.142857
8115.5 1.28571
8116.5 1.42857
8117.5 -0.714286
8118.5 -1.71429
8119.5 1
8120.5 0
8121.5 -1.42857
8122.5 0.428571
8123.5 -1.57143
8124.5 1
8125.5 5
8126.5 3.14286
8127.5 -1.71429
8128.5 -2.57143
8129.5 2.14286
8130.5 -0.571429
8131.5 1
8132.5 1.14286
8133.5 0.142857
8134.5 -3.42857
8135.5 1.14286
8136.5 0.285714
8137.5 3
8138.5 -0.571429
8139.5 -0.714286
8140.5 -0.714286
8141.5 5
8142.5 1.28571
8143.5 -3.14286
8144.5 -1.57143
8145.5 -1.71429
8146.5 2
8147.5 4.14286
8148.5 1.14286
8149.5 0.142857
8150.5 2.14286
8151.5 -2.28571
8152.5 1.28571
8153.5 1.14286
8154.5 -2.57143
8155.5 1.42857
8156.5 1.28571
8157.5 -1.71429
8158.5 0.285714
8159.5 -3.42857
8160.5 0.428571
8161.5 1.42857
8162.5 -1.28571
8163.5 0
8164.5 1
8165.5 -1.57143
8166.5 -1.57143
8167.5 1.42857
8168.5 0.285714
8169.5 3
8170.5 0
8171.5 -3.42857
8172.5 -0.714286
8173.5 0.142857
8174.5 3
8175.5 -1.71429
8176.5 3
8177.5 0.142857
8178.5 -1.71429
8179.5 -3.28571
8180.5 0.142857
8181.5 -0.857143
8182.5 -1.57143
8183.5 0.142857
8184.5 1
8185.5 -1.57143
8186.5 1
8187.5 -0.857143
8188.5 1.14286
8189.5 -3.42857
8190.5 2.14286
8191.5 0.285714
8192.5 1.28571
8193.5 -0.857143
8194.5 2
8195.5 0
8196.5 0.285714
8197.5 -2.42857
8198.5 4
8199.5 3
8200.5 -1.71429
8201.5 3
8202.5 -0.714286
8203.5 -1.71429
8204.5 -0.714286
8205.5 1.14286
8206.5 0.285714
8207.5 -2.42857
8208.5 1.14286
8209.5 -0.857143
8210.5 -1.57143
8211.5 2
8212.5 -1.71429
8213.5 1.14286
8214.5 -0.857143
8215.5 0.142857
8216.5 1.14286
8217.5 -1.57143
8218.5 1
8219.5 -2.42857
8220.5 0.285714
8221.5 -5
8222.5 1.14286
8223.5 2.28571
8224.5 -1.28571
8225.5 -0.714286
8226.5 1.14286
8227.5 1.14286
8228.5 -1.57143
8229.5 1.14286
8230.5 0.142857
8231.5 -0.571429
8232.5 1.14286
8233.5 -0.857143
8234.5 1
8235.5 1
8236.5 -2.57143
8237.5 -1.71429
8238.5 4
8239.5 -1.57143
8240.5 1
8241.5 1.14286
8242.5 -1.57143
8243.5 3.14286
8244.5 1.28571
8245.5 -1.71429
8246.5 -2.57143
8247.5 -1.71429
8248.5 1.28571
8249.5 1
8250.5 -3.42857
8251.5 0
8252.5 1.14286
8253.5 -0.857143
8254.5 -0.571429
8255.5 0
8256.5 2.14286
8257.5 0.285714
8258.5 -0.714286
8259.5 -1.57143
8260.5 1
8261.5 1
8262.5 -0.571429
8263.5 -0.714286
8264.5 1.14286
8265.5 0.142857
8266.5 1
8267.5 -1.71429
8268.5 0.142857
8269.5 -2.28571
8270.5 -0.857143
8271.5 -2.57143
8272.5 1.28571
8273.5 -3.42857
8274.5 -3.28571
8275.5 -0.571429
8276.5 -0.571429
8277.5 -2.57143
8278.5 1.14286
8279.5 -3.14286
8280.5 0.285714
8281.5 4
8282.5 -0.428571
8283.5 1.14286
8284.5 0.142857
8285.5 1
8286.5 2.14286
8287.5 -0.857143
8288.5 -1.71429
8289.5 -0.714286
8290.5 -0.571429
8291.5 -0.571429
8292.5 -1.71429
8293.5 -0.857143
8294.5 1.14286
8295.5 -0.857143
8296.5 -2.57143
8297.5 1.14286
8298.5 -1.57143
8299.5 3
8300.5 0.142857
8301.5 0.428571
8302.5 0
8303.5 -0.714286
8304.5 1.14286
8305.5 -4.28571
8306.5 0.142857
8307.5 0.285714
8308.5 -0.714286
8309.5 3
8310.5 -1.57143
8311.5 3.14286
8312.5 -2.57143
8313.5 -0.714286
8314.5 -2.57143
8315.5 2
8316.5 -1.71429
8317.5 -0.857143
8318.5 1
8319.5 0
8320.5 -0.857143
8321.5 0.285714
8322.5 -0.571429
8323.5 -0.857143
8324.5 0.142857
8325.5 1.28571
8326.5 -0.714286
8327.5 0.428571
8328.5 -1.71429
8329.5 -2.57143
8330.5 -2.14286
8331.5 0.142857
8332.5 2.14286
8333.5 0.285714
8334.5 -1.71429
8335.5 0.285714
8336.5 0.428571
8337.5 1
8338.5 -0.714286
8339.5 -0.571429
8340.5 -1.71429
8341.5 1
8342.5 -0.857143
8343.5 0.142857
8344.5 0.142857
8345.5 1.14286
8346.5 0
8347.5 1
8348.5 -0.714286
8349.5 1.28571
8350.5 -1.71429
8351.5 -0.714286
8352.5 -0.571429
8353.5 1.14286
8354.5 1
8355.5 3
8356.5 -2.57143
8357.5 3.14286
8358.5 0.142857
8359.5 -0.714286
8360.5 -0.714286
8361.5 2
8362.5 -0.857143
8363.5 2.14286
8364.5 1.42857
8365.5 -1.71429
8366.5 -0.571429
8367.5 1.14286
8368.5 0.142857
8369.5 2.14286
8370.5 0.142857
8371.5 1.14286
8372.5 0.285714
8373.5 -3.42857
8374.5 0.142857
8375.5 -1.71429
8376.5 1
8377.5 0
8378.5 -2.57143
8379.5 1
8380.5 5
8381.5 -0.857143
8382.5 -0.857143
8383.5 1.14286
8384.5 -0.857143
8385.5 2
8386.5 -1.71429
8387.5 1
8388.5 0.285714
8389.5 -0.857143
8390.5 -0.857143
8391.5 -4.28571
8392.5 0.285714
8393.5 1.28571
8394.5 0.285714
8395.5 -0.714286
8396.5 1.14286
8397.5 0
8398.5 -0.571429
8399.5 -0.714286
8400.5 -2.42857
8401.5 3
8402.5 -0.857143
8403.5 1.14286
8404.5 0.285714
8405.5 -0.857143
8406.5 -1.71429
8407.5 -0.714286
8408.5 0
8409.5 2
8410.5 0.142857
8411.5 1
8412.5 1
8413.5 1.14286
8414.5 4
8415.5 3.14286
8416.5 3
8417.5 0
8418.5 2.14286
8419.5 2
8420.5 -0.714286
8421.5 1
8422.5 2
8423.5 -1.71429
8424.5 2.14286
8425.5 -1.71429
8426.5 0
8427.5 -1.71429
8428.5 0.142857
8429.5 -0.714286
8430.5 -1.71429
8431.5 1.14286
8432.5 -0.857143
8433.5 2
8434.5 1.14286
8435.5 0
8436.5 -0.857143
8437.5 0
8438.5 1
8439.5 -3.42857
8440.5 0.142857
8441.5 1.14286
8442.5 -0.857143
8443.5 0.142857
8444.5 1.28571
8445.5 -1.28571
8446.5 1
8447.5 1
8448.5 0
8449.5 3.14286
8450.5 3.14286
8451.5 0
8452.5 0
8453.5 0.285714
8454.5 0.142857
8455.5 -1.71429
8456.5 -0.857143
8457.5 -0.714286
8458.5 0
8459.5 -0.714286
8460.5 0
8461.5 1
8462.5 0
8463.5 0.142857
8464.5 2
8465.5 0.142857
8466.5 0.142857
8467.5 -0.857143
8468.5 -2.57143
8469.5 2
8470.5 -3.14286
8471.5 0.285714
8472.5 -2.14286
8473.5 1.28571
8474.5 6.42857
8475.5 -2.28571
8476.5 1.14286
8477.5 -3.28571
8478.5 -1.71429
8479.5 1.14286
8480.5 -0.857143
8481.5 -0.857143
8482.5 2.14286
8483.5 -1.57143
8484.5 3
8485.5 2.14286
8486.5 0.142857
8487.5 1
8488.5 -0.571429
8489.5 -0.714286
8490.5 -1.71429
8491.5 2.14286
8492.5 -2.57143
8493.5 1.14286
8494.5 0.142857
8495.5 -0.857143
8496.5 3.14286
8497.5 -1.42857
8498.5 1.14286
8499.5 -0.714286
8500.5 -2.28571
8501.5 2.14286
8502.5 2.28571
8503.5 3
8504.5 0
8505.5 -1.57143
8506.5 -0.857143
8507.5 3
8508.5 1.14286
8509.5 1.14286
8510.5 1
8511.5 -0.714286
8512.5 0.285714
8513.5 1
8514.5 0
8515.5 0
8516.5 1.28571
8517.5 0
8518.5 -0.857143
8519.5 2
8520.5 0
8521.5 -1.71429
8522.5 -0.857143
8523.5 1.14286
8524.5 -0.714286
8525.5 1.14286
8526.5 -1.57143
8527.5 1.14286
8528.5 -0.714286
8529.5 -0.857143
8530.5 -1.71429
8531.5 -0.857143
8532.5 -1.71429
8533.5 -0.857143
8534.5 -2.57143
8535.5 0.285714
8536.5 2
8537.5 1.14286
8538.5 -0.714286
8539.5 0
8540.5 1
8541.5 0
8542.5 0.142857
8543.5 1
8544.5 -0.571429
8545.5 2.14286
8546.5 0
8547.5 0
8548.5 0.142857
8549.5 1.14286
8550.5 4
8551.5 0.142857
8552.5 1
8553.5 1
8554.5 0.142857
8555.5 1.14286
8556.5 0
8557.5 -1.71429
8558.5 -0.857143
8559.5 0.142857
8560.5 1.14286
8561.5 2
8562.5 -0.857143
8563.5 1
8564.5 0
8565.5 -0.857143
8566.5 0
8567.5 -0.714286
8568.5 0
8569.5 0
8570.5 0.142857
8571.5 -0.857143
8572.5 1
8573.5 -0.857143
8574.5 1
8575.5 0
8576.5 0
8577.5 -2.57143
8578.5 -3.42857
8579.5 -1.71429
8580.5 0.285714
8581.5 0.285714
8582.5 1
8583.5 0.285714
8584.5 1
8585.5 -0.714286
8586.5 -0.857143
8587.5 1
8588.5 1.14286
8589.5 -0.857143
8590.5 0
8591.5 -1.71429
8592.5 1.14286
8593.5 0.142857
8594.5 0
8595.5 -1.71429
8596.5 1
8597.5 0.571429
8598.5 -2.57143
8599.5 0
8600.5 1.14286
8601.5 0
8602.5 3
8603.5 -0.857143
8604.5 -0.714286
8605.5 -0.714286
8606.5 2
8607.5 1.28571
8608.5 -1.71429
8609.5 -1.71429
8610.5 0.142857
8611.5 0
8612.5 1
8613.5 0
8614.5 -0.857143
8615.5 2
8616.5 2
8617.5 -0.857143
8618.5 0
8619.5 0
8620.5 0.285714
8621.5 0
8622.5 0.285714
8623.5 -0.857143
8624.5 -0.857143
8625.5 1.14286
8626.5 1.14286
8627.5 2.14286
8628.5 -2.57143
8629.5 2
8630.5 -2.28571
8631.5 -0.857143
8632.5 0
8633.5 1
8634.5 1
8635.5 -2.57143
8636.5 1
8637.5 -0.857143
8638.5 1
8639.5 1.14286
8640.5 -0.714286
8641.5 -0.857143
8642.5 -1.71429
8643.5 -2.57143
8644.5 1
8645.5 1
8646.5 -1.71429
8647.5 -0.857143
8648.5 1.14286
8649.5 0
8650.5 -2.57143
8651.5 1
8652.5 -1.57143
8653.5 1.28571
8654.5 -1.71429
8655.5 -0.714286
8656.5 1.14286
8657.5 0.285714
8658.5 -0.714286
8659.5 -0.714286
8660.5 1
8661.5 1
8662.5 0
8663.5 -0.714286
8664.5 -0.857143
8665.5 0
8666.5 0
8667.5 2
8668.5 -0.857143
8669.5 0
8670.5 0
8671.5 0
8672.5 1
8673.5 -0.857143
8674.5 2
8675.5 -1.71429
8676.5 1
8677.5 0.142857
8678.5 -1.71429
8679.5 2
8680.5 0
8681.5 0
8682.5 1
8683.5 0
8684.5 -1.42857
8685.5 -0.714286
8686.5 -0.857143
8687.5 0.142857
8688.5 0
8689.5 0
8690.5 -1.71429
8691.5 0
8692.5 -1.71429
8693.5 -0.857143
8694.5 1.14286
8695.5 -1.71429
8696.5 0
8697.5 1
8698.5 -0.857143
8699.5 0
8700.5 0.142857
8701.5 0
8702.5 -0.857143
8703.5 0.142857
8704.5 1
8705.5 1.14286
8706.5 1
8707.5 1
8708.5 0.285714
8709.5 -0.857143
8710.5 -0.857143
8711.5 0
8712.5 0
8713.5 0.285714
8714.5 -0.857143
8715.5 2.14286
8716.5 1
8717.5 -0.857143
8718.5 1
8719.5 -1.57143
8720.5 -1.57143
8721.5 2
8722.5 0
8723.5 1
8724.5 -0.714286
8725.5 0
8726.5 1
8727.5 -1.71429
8728.5 -0.857143
8729.5 0.142857
8730.5 -0.857143
8731.5 1.14286
8732.5 -1.71429
8733.5 2.14286
8734.5 2
8735.5 -0.857143
8736.5 0
8737.5 0
8738.5 0.285714
8739.5 0
8740.5 1
8741.5 0.142857
8742.5 0
8743.5 -0.857143
8744.5 0
8745.5 -0.714286
8746.5 2
8747.5 2
8748.5 0
8749.5 1
8750.5 1.14286
8751.5 -1.71429
8752.5 1
8753.5 0
8754.5 0
8755.5 0
8756.5 1
8757.5 0
8758.5 0
8759.5 0.142857
8760.5 1
8761.5 0
8762.5 0
8763.5 2
8764.5 -0.857143
8765.5 0
8766.5 1
8767.5 -2.57143
8768.5 0
8769.5 1
8770.5 0
8771.5 -0.857143
8772.5 -0.857143
8773.5 0
8774.5 1
8775.5 -0.857143
8776.5 0
8777.5 -3.42857
8778.5 0.142857
8779.5 1
8780.5 -0.714286
8781.5 0
8782.5 -2.57143
8783.5 3
8784.5 0
8785.5 2.14286
8786.5 -1.71429
8787.5 0.142857
8788.5 1.28571
8789.5 -0.571429
8790.5 -0.857143
8791.5 0
8792.5 1.28571
8793.5 -1.57143
8794.5 1
8795.5 0.285714
8796.5 -1.71429
8797.5 0.142857
8798.5 -0.857143
8799.5 0
8800.5 -0.857143
8801.5 -0.857143
8802.5 0
8803.5 2.14286
8804.5 2
8805.5 1
8806.5 0
8807.5 -0.857143
8808.5 1
8809.5 -0.857143
8810.5 0.142857
8811.5 -0.857143
8812.5 1
8813.5 0
8814.5 0
8815.5 0.142857
8816.5 -0.857143
8817.5 1
8818.5 0
8819.5 0
8820.5 1
8821.5 -0.857143
8822.5 0.142857
8823.5 0
8824.5 -0.857143
8825.5 1
8826.5 -0.714286
8827.5 0.142857
8828.5 0
8829.5 -0.857143
8830.5 0
8831.5 1
8832.5 -0.714286
8833.5 -0.857143
8834.5 -0.714286
8835.5 -0.857143
8836.5 0
8837.5 -0.857143
8838.5 0
8839.5 -0.857143
8840.5 1
8841.5 2
8842.5 0
8843.5 2
8844.5 0.142857
8845.5 0.142857
8846.5 0.285714
8847.5 2
8848.5 1.14286
8849.5 0
8850.5 -1.57143
8851.5 3
8852.5 0.142857
8853.5 2
8854.5 0.142857
8855.5 0
8856.5 -0.857143
8857.5 2
8858.5 0
8859.5 -1.71429
8860.5 1
8861.5 -1.71429
8862.5 0.142857
8863.5 0
8864.5 -3.42857
8865.5 0
8866.5 0.285714
8867.5 -1.71429
8868.5 -0.857143
8869.5 0
8870.5 0
8871.5 1
8872.5 -0.857143
8873.5 -0.857143
8874.5 0
8875.5 -0.857143
8876.5 0
8877.5 1
8878.5 0
8879.5 0
8880.5 2
8881.5 0
8882.5 2
8883.5 -0.857143
8884.5 0
8885.5 1
8886.5 1.14286
8887.5 0
8888.5 0
8889.5 0
8890.5 -0.857143
8891.5 0
8892.5 1
8893.5 -0.857143
8894.5 0
8895.5 0
8896.5 1
8897.5 0
8898.5 3
8899.5 1
8900.5 1.14286
8901.5 0
8902.5 0
8903.5 1
8904.5 0.142857
8905.5 -0.857143
8906.5 0
8907.5 -0.857143
8908.5 1
8909.5 -0.857143
8910.5 0.142857
8911.5 0
8912.5 0
8913.5 0
8914.5 -0.857143
8915.5 1
8916.5 0
8917.5 0.142857
8918.5 -0.857143
8919.5 0
8920.5 -0.857143
8921.5 0
8922.5 1
8923.5 0.142857
8924.5 0
8925.5 0
8926.5 0.142857
8927.5 0.142857
8928.5 1
8929.5 -0.857143
8930.5 0
8931.5 -1.71429
8932.5 0.142857
8933.5 0
8934.5 1
8935.5 0
8936.5 0
8937.5 0
8938.5 -0.857143
8939.5 1
8940.5 0
8941.5 -0.857143
8942.5 0
8943.5 0
8944.5 1
8945.5 -0.857143
8946.5 0
8947.5 1
8948.5 1
8949.5 -0.714286
8950.5 -0.857143
8951.5 0
8952.5 0
8953.5 0
8954.5 -0.857143
8955.5 -0.857143
8956.5 0.142857
8957.5 0
8958.5 0.142857
8959.5 -1.71429
8960.5 0
8961.5 -0.857143
8962.5 1
8963.5 0
8964.5 0
8965.5 1
8966.5 -1.71429
8967.5 -0.857143
8968.5 -1.71429
8969.5 1
8970.5 1
8971.5 -1.71429
8972.5 0
8973.5 1
8974.5 -0.571429
8975.5 0.142857
8976.5 -0.857143
8977.5 1
8978.5 0
8979.5 1
8980.5 0
8981.5 0
8982.5 0
8983.5 0
8984.5 0
8985.5 -0.857143
8986.5 2
8987.5 0
8988.5 1
8989.5 -0.857143
8990.5 0
8991.5 -0.857143
8992.5 -0.857143
8993.5 -1.71429
8994.5 -0.857143
8995.5 0
8996.5 -0.857143
8997.5 0.285714
8998.5 0
8999.5 -0.857143
9000.5 -0.857143
9001.5 1
9002.5 0
9003.5 0
9004.5 1
9005.5 0
9006.5 0
9007.5 1
9008.5 -0.857143
9009.5 0
9010.5 0
9011.5 0
9012.5 0
9013.5 1
9014.5 2
9015.5 -0.857143
9016.5 1
9017.5 -0.857143
9018.5 -0.857143
9019.5 -0.857143
9020.5 2
9021.5 -0.857143
9022.5 -0.857143
9023.5 0
9024.5 0
9025.5 -0.857143
9026.5 0
9027.5 0
9028.5 0
9029.5 0
9030.5 -0.857143
9031.5 -1.71429
9032.5 0
9033.5 -0.714286
9034.5 0
9035.5 1
9036.5 0.142857
9037.5 0
9038.5 0
9039.5 1
9040.5 1
9041.5 1
9042.5 0.142857
9043.5 0
9044.5 -0.857143
9045.5 1
9046.5 1
9047.5 0
9048.5 0
9049.5 0
9050.5 0
9051.5 0
9052.5 0
9053.5 1
9054.5 -1.71429
9055.5 0
9056.5 1
9057.5 0
9058.5 1
9059.5 0
9060.5 0
9061.5 0
9062.5 0
9063.5 0
9064.5 -0.857143
9065.5 0
9066.5 -0.857143
9067.5 0
9068.5 -0.857143
9069.5 -0.714286
9070.5 0
9071.5 0
9072.5 -0.714286
9073.5 1
9074.5 0
9075.5 0.142857
9076.5 -2.57143
9077.5 0
9078.5 0.142857
9079.5 0
9080.5 0
9081.5 0
9082.5 1
9083.5 0
9084.5 -0.857143
9085.5 -0.857143
9086.5 0
9087.5 1
9088.5 1.14286
9089.5 0
9090.5 0.142857
9091.5 0
9092.5 0
9093.5 0.142857
9094.5 1
9095.5 1
9096.5 1
9097.5 0
9098.5 1
9099.5 0
9100.5 0
9101.5 0
9102.5 0
9103.5 0
9104.5 2
9105.5 1
9106.5 0
9107.5 0
9108.5 0
9109.5 1
9110.5 1
9111.5 0
9112.5 0
9113.5 0.142857
9114.5 -0.857143
9115.5 -0.857143
9116.5 -0.857143
9117.5 0
9118.5 -1.71429
9119.5 1
9120.5 -1.71429
9121.5 1
9122.5 0
9123.5 0
9124.5 0
9125.5 1
9126.5 2
9127.5 1
9128.5 0
9129.5 0
9130.5 0.142857
9131.5 0
9132.5 0
9133.5 -0.714286
9134.5 2
9135.5 0
9136.5 0
9137.5 -0.857143
9138.5 3
9139.5 0
9140.5 0.142857
9141.5 0
9142.5 0
9143.5 1
9144.5 -0.857143
9145.5 0
9146.5 1
9147.5 -0.857143
9148.5 -0.857143
9149.5 -0.857143
9150.5 0
9151.5 0
9152.5 0
9153.5 0.142857
9154.5 0
9155.5 1
9156.5 1
9157.5 -1.71429
9158.5 0
9159.5 1
9160.5 0
9161.5 0
9162.5 0
9163.5 0
9164.5 2
9165.5 0
9166.5 0
9167.5 2
9168.5 0
9169.5 0
9170.5 2
9171.5 0.142857
9172.5 2
9173.5 -1.71429
9174.5 -0.857143
9175.5 0
9176.5 -0.857143
9177.5 0
9178.5 0
9179.5 1.14286
9180.5 -0.857143
9181.5 1
9182.5 0
9183.5 1
9184.5 -1.71429
9185.5 -0.857143
9186.5 0
9187.5 0
9188.5 0
9189.5 0
9190.5 0
9191.5 0
9192.5 0
9193.5 0
9194.5 0
9195.5 0
9196.5 -0.857143
9197.5 0
9198.5 1
9199.5 0
9200.5 -1.71429
9201.5 -1.57143
9202.5 2
9203.5 1
9204.5 1
9205.5 2
9206.5 1
9207.5 0
9208.5 -0.857143
9209.5 0
9210.5 0
9211.5 0
9212.5 -0.857143
9213.5 1
9214.5 0
9215.5 -1.71429
9216.5 -0.714286
9217.5 1
9218.5 1
9219.5 0
9220.5 0
9221.5 0.142857
9222.5 -1.71429
9223.5 0
9224.5 0
9225.5 0
9226.5 0
9227.5 0
9228.5 0.142857
9229.5 1
9230.5 -0.714286
9231.5 -1.71429
9232.5 0
9233.5 0
9234.5 0
9235.5 0
9236.5 -0.857143
9237.5 -0.857143
9238.5 -0.857143
9239.5 0.142857
9240.5 1
9241.5 0
9242.5 0
9243.5 0
9244.5 0
9245.5 -0.857143
9246.5 0
9247.5 1
9248.5 0
9249.5 1
9250.5 0
9251.5 -0.857143
9252.5 2
9253.5 0
9254.5 0
9255.5 0
9256.5 0
9257.5 0
9258.5 0
9259.5 1
9260.5 0
9261.5 0
9262.5 0
9263.5 1.14286
9264.5 0
9265.5 1
9266.5 0
9267.5 1
9268.5 0
9269.5 -0.857143
9270.5 1.14286
9271.5 0
9272.5 0
9273.5 0
9274.5 -0.857143
9275.5 0
9276.5 -0.857143
9277.5 -0.857143
9278.5 0
9279.5 0
9280.5 0
9281.5 0
9282.5 0
9283.5 -0.857143
9284.5 0
9285.5 0
9286.5 -1.71429
9287.5 0
9288.5 0
9289.5 1
9290.5 -0.857143
9291.5 -0.857143
9292.5 0
9293.5 0
9294.5 2
9295.5 0.142857
9296.5 0.142857
9297.5 1
9298.5 0
9299.5 0
9300.5 0
9301.5 1
9302.5 0
9303.5 0.142857
9304.5 0.142857
9305.5 -0.857143
9306.5 0
9307.5 2
9308.5 1
9309.5 0
9310.5 0
9311.5 0
9312.5 1
9313.5 0
9314.5 -0.857143
9315.5 -1.71429
9316.5 1
9317.5 0
9318.5 0
9319.5 0
9320.5 0
9321.5 -0.857143
9322.5 0.142857
9323.5 -0.857143
9324.5 1
9325.5 0
9326.5 -0.857143
9327.5 1
9328.5 0
9329.5 0.142857
9330.5 1
9331.5 0
9332.5 -0.857143
9333.5 0
9334.5 0
9335.5 0
9336.5 0
9337.5 -0.857143
9338.5 0
9339.5 -0.857143
9340.5 0
9341.5 -0.857143
9342.5 -0.857143
9343.5 0.142857
9344.5 0
9345.5 -0.857143
9346.5 0.142857
9347.5 -0.857143
9348.5 0
9349.5 0
9350.5 0
9351.5 0
9352.5 0
9353.5 0
9354.5 1
9355.5 1
9356.5 0
9357.5 0
9358.5 -0.857143
9359.5 -0.857143
9360.5 0
9361.5 0
9362.5 0
9363.5 0
9364.5 0
9365.5 0
9366.5 0
9367.5 -0.857143
9368.5 -1.71429
9369.5 1
9370.5 0
9371.5 0
9372.5 0
9373.5 0
9374.5 -0.857143
9375.5 0
9376.5 0.142857
9377.5 0
9378.5 0
9379.5 -0.857143
9380.5 -1.71429
9381.5 0
9382.5 0
9383.5 0
9384.5 -0.857143
9385.5 -0.857143
9386.5 0
9387.5 1
9388.5 0
9389.5 0
9390.5 0
9391.5 0
9392.5 0
9393.5 0
9394.5 0
9395.5 1
9396.5 0
9397.5 0
9398.5 0
9399.5 -0.857143
9400.5 1
9401.5 0
9402.5 -0.857143
9403.5 0.142857
9404.5 0
9405.5 -0.857143
9406.5 0
9407.5 0
9408.5 1
9409.5 0
9410.5 0
9411.5 0
9412.5 -0.857143
9413.5 0
9414.5 0
9415.5 -0.857143
9416.5 0
9417.5 -0.857143
9418.5 0
9419.5 0
9420.5 0
9421.5 0
9422.5 1
9423.5 0
9424.5 -0.857143
9425.5 1
9426.5 -0.857143
9427.5 0.142857
9428.5 0
9429.5 0
9430.5 -0.857143
9431.5 2
9432.5 0
9433.5 0
9434.5 -0.857143
9435.5 0
9436.5 0
9437.5 0
9438.5 0
9439.5 -0.857143
9440.5 0
9441.5 0
9442.5 0
9443.5 0
9444.5 0
9445.5 0
9446.5 0
9447.5 0
9448.5 0
9449.5 -0.714286
9450.5 0
9451.5 0
9452.5 0
9453.5 -0.857143
9454.5 -0.857143
9455.5 0
9456.5 1
9457.5 0
9458.5 -0.857143
9459.5 0
9460.5 -1.71429
9461.5 1
9462.5 1
9463.5 0
9464.5 0
9465.5 0.142857
9466.5 0
9467.5 0
9468.5 -1.71429
9469.5 1
9470.5 0
9471.5 1
9472.5 0
9473.5 1
9474.5 0
9475.5 -0.857143
9476.5 -0.857143
9477.5 2
9478.5 0
9479.5 0
9480.5 -0.857143
9481.5 0
9482.5 0
9483.5 0.142857
9484.5 -0.857143
9485.5 0
9486.5 0
9487.5 0
9488.5 0
9489.5 0
9490.5 0
9491.5 -0.857143
9492.5 -0.857143
9493.5 -0.857143
9494.5 0
9495.5 0
9496.5 0
9497.5 0
9498.5 -0.857143
9499.5 0
9500.5 1
9501.5 -0.857143
9502.5 0
9503.5 0
9504.5 0
9505.5 0
9506.5 0
9507.5 0
9508.5 -0.857143
9509.5 0
9510.5 0
9511.5 -0.857143
9512.5 0
9513.5 0
9514.5 -0.857143
9515.5 0
9516.5 0
9517.5 0
9518.5 0
9519.5 0
9520.5 0
9521.5 0
9522.5 1
9523.5 0.142857
9524.5 0
9525.5 -0.857143
9526.5 0
9527.5 1
9528.5 0.142857
9529.5 0
9530.5 0
9531.5 0
9532.5 0
9533.5 1
9534.5 -0.857143
9535.5 0
9536.5 2
9537.5 2
9538.5 -0.857143
9539.5 0
9540.5 1
9541.5 -0.857143
9542.5 -0.857143
9543.5 0
9544.5 -0.857143
9545.5 0
9546.5 -0.857143
9547.5 0
9548.5 0
9549.5 0
9550.5 0
9551.5 0
9552.5 -0.857143
9553.5 0
9554.5 0
9555.5 0
9556.5 0
9557.5 1
9558.5 -0.857143
9559.5 0
9560.5 -0.857143
9561.5 0
9562.5 1
9563.5 1
9564.5 -0.857143
9565.5 0
9566.5 0
9567.5 0
9568.5 -0.857143
9569.5 1
9570.5 0
9571.5 0
9572.5 0
9573.5 0
9574.5 1
9575.5 2
9576.5 0
9577.5 0.142857
9578.5 0
9579.5 0
9580.5 1
9581.5 0
9582.5 0
9583.5 0
9584.5 0
9585.5 0
9586.5 1
9587.5 0
9588.5 0
9589.5 1
9590.5 0
9591.5 0
9592.5 2.14286
9593.5 0
9594.5 0
9595.5 1
9596.5 2
9597.5 0
9598.5 -0.857143
9599.5 1
9600.5 0
9601.5 0
9602.5 0
9603.5 0
9604.5 0
9605.5 0
9606.5 0
9607.5 0
9608.5 0
9609.5 0
9610.5 -0.857143
9611.5 0
9612.5 -0.857143
9613.5 0
9614.5 0
9615.5 0
9616.5 1
9617.5 0
9618.5 0
9619.5 0
9620.5 1
9621.5 0
9622.5 -0.857143
9623.5 0
9624.5 -0.857143
9625.5 1
9626.5 0
9627.5 0
9628.5 0
9629.5 2
9630.5 0
9631.5 -0.857143
9632.5 0
9633.5 -0.857143
9634.5 1
9635.5 -0.857143
9636.5 0
9637.5 1
9638.5 -0.857143
9639.5 0
9640.5 0
9641.5 0
9642.5 0
9643.5 0
9644.5 1
9645.5 0
9646.5 0
9647.5 0
9648.5 0
9649.5 1
9650.5 0
9651.5 0
9652.5 0
9653.5 0
9654.5 0
9655.5 0
9656.5 3
9657.5 0
9658.5 0
9659.5 0
9660.5 0
9661.5 1
9662.5 0
9663.5 0.142857
9664.5 0
9665.5 0
9666.5 0
9667.5 0
9668.5 0
9669.5 0
9670.5 0
9671.5 0
9672.5 0
9673.5 1
9674.5 -0.857143
9675.5 0
9676.5 0
9677.5 0
9678.5 1
9679.5 0
9680.5 0
9681.5 1
9682.5 0
9683.5 0
9684.5 0
9685.5 0
9686.5 1
9687.5 1
9688.5 1
9689.5 0
9690.5 1
9691.5 0
9692.5 0
9693.5 -0.857143
9694.5 0
9695.5 0
9696.5 0
9697.5 -0.857143
9698.5 0
9699.5 0
9700.5 0
9701.5 0
9702.5 0
9703.5 0
9704.5 0
9705.5 -0.857143
9706.5 1
9707.5 0
9708.5 0
9709.5 0
9710.5 0
9711.5 0
9712.5 0
9713.5 0
9714.5 0
9715.5 0
9716.5 0
9717.5 0
9718.5 1
9719.5 -0.857143
9720.5 -0.857143
9721.5 0
9722.5 1
9723.5 0
9724.5 0
9725.5 1
9726.5 1
9727.5 0
9728.5 0
9729.5 0
9730.5 0
9731.5 0
9732.5 0
9733.5 0
9734.5 0
9735.5 -1.71429
9736.5 0
9737.5 0
9738.5 0
9739.5 -0.857143
9740.5 0
9741.5 0
9742.5 0
9743.5 0
9744.5 0
9745.5 -0.857143
9746.5 0
9747.5 0
9748.5 0
9749.5 0
9750.5 0
9751.5 1
9752.5 1
9753.5 0
9754.5 0
9755.5 0
9756.5 -0.857143
9757.5 -0.857143
9758.5 0
9759.5 1
9760.5 0
9761.5 0
9762.5 0
9763.5 0
9764.5 0
9765.5 0
9766.5 0
9767.5 0
9768.5 0
9769.5 0
9770.5 -0.714286
9771.5 0
9772.5 0
9773.5 0
9774.5 0
9775.5 0
9776.5 0.142857
9777.5 0
9778.5 0
9779.5 -0.857143
9780.5 0
9781.5 0
9782.5 0
9783.5 1
9784.5 1
9785.5 0
9786.5 0
9787.5 -0.857143
9788.5 0
9789.5 0
9790.5 0
9791.5 0
9792.5 0
9793.5 0
9794.5 0
9795.5 0
9796.5 1
9797.5 0
9798.5 0
9799.5 0
9800.5 0
9801.5 0
9802.5 0
9803.5 0
9804.5 0
9805.5 1
9806.5 0
9807.5 0
9808.5 1
9809.5 0
9810.5 0
9811.5 0
9812.5 1
9813.5 1
9814.5 0
9815.5 0
9816.5 0
9817.5 -0.857143
9818.5 0
9819.5 0
9820.5 0
9821.5 0
9822.5 0
9823.5 -0.857143
9824.5 1
9825.5 0
9826.5 -0.857143
9827.5 0
9828.5 0
9829.5 0
9830.5 1
9831.5 0
9832.5 0
9833.5 0
9834.5 0
9835.5 0
9836.5 0
9837.5 0
9838.5 0
9839.5 0
9840.5 0
9841.5 0
9842.5 0
9843.5 0
9844.5 -0.857143
9845.5 0
9846.5 0
9847.5 1
9848.5 0
9849.5 0
9850.5 0
9851.5 0
9852.5 0
9853.5 1
9854.5 0
9855.5 1
9856.5 0
9857.5 0
9858.5 0
9859.5 0
9860.5 0
9861.5 0
9862.5 0
9863.5 1
9864.5 0
9865.5 0
9866.5 -0.857143
9867.5 -0.857143
9868.5 0
9869.5 0
9870.5 0
9871.5 0
9872.5 -0.857143
9873.5 0
9874.5 0
9875.5 0
9876.5 0
9877.5 0
9878.5 0
9879.5 0
9880.5 0
9881.5 0
9882.5 0
9883.5 0
9884.5 0
9885.5 0
9886.5 0
9887.5 0
9888.5 -0.857143
9889.5 1
9890.5 0
9891.5 0
9892.5 0
9893.5 0
9894.5 0
9895.5 -0.857143
9896.5 0
9897.5 0
9898.5 0
9899.5 0
9900.5 1
9901.5 -0.857143
9902.5 1
9903.5 0
9904.5 0
9905.5 0
9906.5 0
9907.5 0
9908.5 0
9909.5 0
9910.5 0
9911.5 0
9912.5 0
9913.5 0
9914.5 0
9915.5 0
9916.5 0
9917.5 0
9918.5 0
9919.5 1
9920.5 0
9921.5 0
9922.5 0
9923.5 0
9924.5 1
9925.5 0
9926.5 0
9927.5 0
9928.5 0
9929.5 1
9930.5 0
9931.5 0
9932.5 0
9933.5 0
9934.5 0
9935.5 0
9936.5 1
9937.5 0
9938.5 0
9939.5 0
9940.5 0
9941.5 0
9942.5 0
9943.5 0
9944.5 0
9945.5 0
9946.5 0
9947.5 0
9948.5 0
9949.5 0
9950.5 -0.857143
9951.5 0
9952.5 0
9953.5 1
9954.5 0
9955.5 -0.857143
9956.5 0.142857
9957.5 0
9958.5 0
9959.5 0
9960.5 0
9961.5 -0.857143
9962.5 -0.857143
9963.5 0
9964.5 0
9965.5 0
9966.5 0
9967.5 -0.857143
9968.5 0
9969.5 0
9970.5 2.14286
9971.5 0
9972.5 0
9973.5 0
9974.5 0
9975.5 0
9976.5 0
9977.5 0
9978.5 -0.857143
9979.5 0
9980.5 2
9981.5 0
9982.5 2
9983.5 0
9984.5 0
9985.5 0
9986.5 0
9987.5 0
9988.5 0
9989.5 1
9990.5 0
9991.5 0
9992.5 0
9993.5 0
9994.5 0
9995.5 0
9996.5 0
9997.5 0
9998.5 1
9999.5 0
10000.5 0
10001.5 0
10002.5 1
10003.5 0
10004.5 0
10005.5 0
10006.5 0
10007.5 -0.857143
10008.5 0
10009.5 1
10010.5 0
10011.5 0
10012.5 0
10013.5 0
10014.5 0
10015.5 0
10016.5 0
10017.5 0
10018.5 0
10019.5 0
10020.5 0
10021.5 1
10022.5 0
10023.5 0
10024.5 0
10025.5 0
10026.5 0
10027.5 0
10028.5 0
10029.5 0
10030.5 0
10031.5 0
10032.5 0
10033.5 0
10034.5 0
10035.5 0
10036.5 0
10037.5 0
10038.5 0
10039.5 0
10040.5 0
10041.5 0
10042.5 0
10043.5 0
10044.5 0
10045.5 -0.857143
10046.5 0
10047.5 0
10048.5 0
10049.5 0
10050.5 -0.857143
10051.5 0
10052.5 0
10053.5 0
10054.5 0
10055.5 0
10056.5 0
10057.5 0
10058.5 0
10059.5 -0.857143
10060.5 0
10061.5 0
10062.5 0
10063.5 0
10064.5 0
10065.5 0
10066.5 0
10067.5 0
10068.5 0
10069.5 0
10070.5 0
10071.5 0
10072.5 -0.857143
10073.5 0
10074.5 0
10075.5 0
10076.5 1
10077.5 0
10078.5 0
10079.5 0
10080.5 0
10081.5 0
10082.5 0
10083.5 0
10084.5 0
10085.5 0
10086.5 0
10087.5 0
10088.5 0
10089.5 0
10090.5 0
10091.5 0
10092.5 0
10093.5 0
10094.5 0
10095.5 0
10096.5 0
10097.5 0
10098.5 0
10099.5 0
10100.5 0
10101.5 0
10102.5 0
10103.5 0
10104.5 0
10105.5 0
10106.5 0
10107.5 0
10108.5 0
10109.5 0
10110.5 1
10111.5 0
10112.5 -0.857143
10113.5 0
10114.5 -0.857143
10115.5 0
10116.5 0
10117.5 0
10118.5 0
10119.5 0
10120.5 0
10121.5 0
10122.5 0
10123.5 0
10124.5 0
10125.5 0
10126.5 0
10127.5 0
10128.5 0
10129.5 0
10130.5 0
10131.5 0
10132.5 0
10133.5 1
10134.5 -0.857143
10135.5 -0.857143
10136.5 0
10137.5 0
10138.5 -0.857143
10139.5 0
10140.5 0
10141.5 0
10142.5 0.142857
10143.5 0
10144.5 0
10145.5 0
10146.5 1
10147.5 0
10148.5 0
10149.5 0
10150.5 0
10151.5 0
10152.5 0
10153.5 0
10154.5 0
10155.5 0
10156.5 0
10157.5 0
10158.5 0
10159.5 0
10160.5 0
10161.5 0
10162.5 0
10163.5 0
10164.5 0
10165.5 0
10166.5 0
10167.5 0
10168.5 0
10169.5 0
10170.5 0
10171.5 0
10172.5 0
10173.5 0
10174.5 0
10175.5 0
10176.5 0
10177.5 1
10178.5 0
10179.5 -0.857143
10180.5 0
10181.5 0
10182.5 0
10183.5 0
10184.5 0
10185.5 0
10186.5 0
10187.5 0
10188.5 0
10189.5 0
10190.5 0
10191.5 0
10192.5 0
10193.5 0
10194.5 0
10195.5 0
10196.5 0
10197.5 0
10198.5 0
10199.5 0
10200.5 0
10201.5 0
10202.5 0
10203.5 0
10204.5 0
10205.5 0
10206.5 1
10207.5 0
10208.5 0
10209.5 0
10210.5 0
10211.5 0
10212.5 0
10213.5 1
10214.5 0
10215.5 0
10216.5 0
10217.5 0
10218.5 0
10219.5 0
10220.5 0
10221.5 0
10222.5 0
10223.5 0
10224.5 0
10225.5 0
10226.5 0
10227.5 0
10228.5 0
10229.5 0
10230.5 0
10231.5 -0.857143
10232.5 0
10233.5 0
10234.5 0
10235.5 -0.857143
10236.5 0
10237.5 -0.857143
10238.5 0
10239.5 0
10240.5 -0.857143
10241.5 0
10242.5 0
10243.5 0
10244.5 0
10245.5 0
10246.5 0
10247.5 0
10248.5 1
10249.5 0
10250.5 0
10251.5 0
10252.5 0
10253.5 0
10254.5 0
10255.5 0
10256.5 0
10257.5 0
10258.5 0
10259.5 0
10260.5 0
10261.5 0
10262.5 0
10263.5 0
10264.5 0
10265.5 0
10266.5 0
10267.5 0
10268.5 0
10269.5 0
10270.5 0
10271.5 0
10272.5 0
10273.5 0
10274.5 0
10275.5 0
10276.5 1
10277.5 0
10278.5 0
10279.5 0
10280.5 0
10281.5 0
10282.5 0
10283.5 0
10284.5 0
10285.5 0
10286.5 0
10287.5 0
10288.5 0
10289.5 0
10290.5 0
10291.5 -0.857143
10292.5 0
10293.5 0
10294.5 -0.857143
10295.5 0
10296.5 0
10297.5 0
10298.5 0
10299.5 0
10300.5 0
10301.5 -0.857143
10302.5 0
10303.5 0
10304.5 0
10305.5 1
10306.5 1
10307.5 0
10308.5 0
10309.5 0
10310.5 0
10311.5 0
10312.5 0
10313.5 0
10314.5 0
10315.5 0
10316.5 0
10317.5 0
10318.5 0
10319.5 -0.857143
10320.5 0
10321.5 0
10322.5 0
10323.5 0
10324.5 0
10325.5 0
10326.5 0
10327.5 0
10328.5 0
10329.5 0
10330.5 0
10331.5 0
10332.5 0
10333.5 0
10334.5 0
10335.5 0
10336.5 0
10337.5 0
10338.5 0
10339.5 0
10340.5 0
10341.5 0
10342.5 1
10343.5 0
10344.5 0
10345.5 0
10346.5 0
10347.5 0
10348.5 0
10349.5 0
10350.5 -0.857143
10351.5 -0.857143
10352.5 0
10353.5 0
10354.5 0
10355.5 -0.857143
10356.5 0
10357.5 0
10358.5 0
10359.5 0
10360.5 0
10361.5 0
10362.5 0
10363.5 0
10364.5 0
10365.5 0
10366.5 0
10367.5 0
10368.5 0
10369.5 0
10370.5 0
10371.5 0
10372.5 0
10373.5 0
10374.5 0
10375.5 0
10376.5 0
10377.5 0
10378.5 0
10379.5 0
10380.5 0
10381.5 0
10382.5 0
10383.5 0
10384.5 0
10385.5 0
10386.5 0
10387.5 0
10388.5 0
10389.5 0
10390.5 0
10391.5 0
10392.5 0
10393.5 0
10394.5 0
10395.5 0
10396.5 0
10397.5 0
10398.5 0
10399.5 0
10400.5 0
10401.5 0
10402.5 0
10403.5 0
10404.5 0
10405.5 0
10406.5 0
10407.5 0
10408.5 0
10409.5 0
10410.5 0
10411.5 0
10412.5 0
10413.5 0
10414.5 0
10415.5 0
10416.5 1
10417.5 0
10418.5 0
10419.5 0
10420.5 0
10421.5 0
10422.5 0
10423.5 0
10424.5 0
10425.5 0
10426.5 0
10427.5 0
10428.5 0
10429.5 0
10430.5 0
10431.5 0
10432.5 0
10433.5 0
10434.5 0
10435.5 0
10436.5 0
10437.5 0
10438.5 0
10439.5 0
10440.5 0
10441.5 0
10442.5 0
10443.5 0
10444.5 0
10445.5 0
10446.5 0
10447.5 0
10448.5 0
10449.5 0
10450.5 0
10451.5 0
10452.5 0
10453.5 0
10454.5 0
10455.5 0
10456.5 0
10457.5 0
10458.5 0
10459.5 0
10460.5 0
10461.5 0
10462.5 0
10463.5 0
10464.5 0
10465.5 0
10466.5 0
10467.5 0
10468.5 0
10469.5 0
10470.5 0
10471.5 0
10472.5 0
10473.5 0
10474.5 0
10475.5 0
10476.5 0
10477.5 0
10478.5 0
10479.5 0
10480.5 0
10481.5 0
10482.5 0
10483.5 0
10484.5 0
10485.5 0
10486.5 0
10487.5 0
10488.5 0
10489.5 0
10490.5 0
10491.5 0
10492.5 0
10493.5 0
10494.5 0
10495.5 0
10496.5 0
10497.5 0
10498.5 0
10499.5 0
10500.5 0
10501.5 -0.857143
10502.5 0
10503.5 0
10504.5 0
10505.5 0
10506.5 0
10507.5 0
10508.5 0
10509.5 0
10510.5 0
10511.5 0
10512.5 0
10513.5 0
10514.5 0
10515.5 0
10516.5 0
10517.5 0
10518.5 0
10519.5 0
10520.5 0
10521.5 0
10522.5 0
10523.5 0
10524.5 0
10525.5 0
10526.5 0
10527.5 0
10528.5 0
10529.5 0
10530.5 0
10531.5 0
10532.5 0
10533.5 0
10534.5 0
10535.5 0
10536.5 -0.857143
10537.5 1
10538.5 0
10539.5 0
10540.5 0
10541.5 0
10542.5 0
10543.5 0
10544.5 0
10545.5 0
10546.5 0
10547.5 0
10548.5 0
10549.5 0
10550.5 0
10551.5 0
10552.5 0
10553.5 0
10554.5 0
10555.5 0
10556.5 0
10557.5 0
10558.5 0
10559.5 0
10560.5 0
10561.5 0
10562.5 0
10563.5 0
10564.5 0
10565.5 0
10566.5 0
10567.5 0
10568.5 0
10569.5 0
10570.5 0
10571.5 0
10572.5 -0.857143
10573.5 0
10574.5 -0.857143
10575.5 0
10576.5 0
10577.5 0
10578.5 0
10579.5 0
10580.5 0
10581.5 0
10582.5 0
10583.5 0
10584.5 0
10585.5 0
10586.5 0
10587.5 0
10588.5 0
10589.5 0
10590.5 0
10591.5 0
10592.5 0
10593.5 0
10594.5 0
10595.5 0
10596.5 0
10597.5 0
10598.5 0
10599.5 0
10600.5 0
10601.5 0
10602.5 0
10603.5 0
10604.5 0
10605.5 0
10606.5 0
10607.5 0
10608.5 0
10609.5 0
10610.5 0
10611.5 0
10612.5 0
10613.5 -0.857143
10614.5 0
10615.5 0
10616.5 0
10617.5 0
10618.5 0
10619.5 0
10620.5 0
10621.5 0
10622.5 0
10623.5 0
10624.5 0
10625.5 0
10626.5 0
10627.5 0
10628.5 0
10629.5 0
10630.5 -0.857143
10631.5 0
10632.5 0
10633.5 0
10634.5 0
10635.5 0
10636.5 0
10637.5 0
10638.5 0
10639.5 0
10640.5 0
10641.5 0
10642.5 0
10643.5 0
10644.5 0
10645.5 0
10646.5 0
10647.5 0
10648.5 0
10649.5 0
10650.5 0
10651.5 0
10652.5 0
10653.5 0
10654.5 0
10655.5 0
10656.5 0
10657.5 0
10658.5 0
10659.5 0
10660.5 0
10661.5 0
10662.5 0
10663.5 0
10664.5 0
10665.5 0
10666.5 0
10667.5 0
10668.5 0
10669.5 0
10670.5 -0.857143
10671.5 0
10672.5 0
10673.5 0
10674.5 0
10675.5 0
10676.5 0
10677.5 0
10678.5 0
10679.5 0
10680.5 0
10681.5 0
10682.5 0
10683.5 0
10684.5 0
10685.5 0
10686.5 0
10687.5 0
10688.5 0
10689.5 0
10690.5 0
10691.5 0
10692.5 -0.857143
10693.5 0
10694.5 0
10695.5 0
10696.5 0
10697.5 0
10698.5 0
10699.5 0
10700.5 0
10701.5 0
10702.5 0
10703.5 0
10704.5 0
10705.5 0
10706.5 0
10707.5 0
10708.5 0
10709.5 0
10710.5 0
10711.5 0
10712.5 0
10713.5 0
10714.5 0
10715.5 0
10716.5 0
10717.5 0
10718.5 0
10719.5 -0.857143
10720.5 0
10721.5 0
10722.5 0
10723.5 0
10724.5 0
10725.5 0
10726.5 0
10727.5 0
10728.5 -0.857143
10729.5 0
10730.5 0
10731.5 0
10732.5 0
10733.5 1
10734.5 0
10735.5 0
10736.5 0
10737.5 0
10738.5 -1.71429
10739.5 0
10740.5 0
10741.5 0
10742.5 0
10743.5 0
10744.5 0
10745.5 0
10746.5 0
10747.5 0
10748.5 0
10749.5 0
10750.5 -0.857143
10751.5 0
10752.5 0
10753.5 0
10754.5 0
10755.5 0
10756.5 0
10757.5 -0.857143
10758.5 0
10759.5 -0.857143
10760.5 0
10761.5 0
10762.5 1
10763.5 0
10764.5 0
10765.5 0
10766.5 0
10767.5 0
10768.5 0
10769.5 0
10770.5 0
10771.5 0
10772.5 0
10773.5 0
10774.5 0
10775.5 0
10776.5 0
10777.5 0
10778.5 0
10779.5 0
10780.5 0
10781.5 0
10782.5 0
10783.5 0
10784.5 0
10785.5 0
10786.5 0
10787.5 0
10788.5 0
10789.5 0
10790.5 0
10791.5 0
10792.5 0
10793.5 0
10794.5 0
10795.5 0
10796.5 0
10797.5 0
10798.5 0
10799.5 0
10800.5 0
10801.5 0
10802.5 0
10803.5 0
10804.5 0
10805.5 0
10806.5 0
10807.5 0
10808.5 0
10809.5 0
10810.5 0
10811.5 0
10812.5 0
10813.5 0
10814.5 0
10815.5 0
10816.5 0
10817.5 0
10818.5 0
10819.5 0
10820.5 0
10821.5 0
10822.5 0
10823.5 0
10824.5 0
10825.5 0
10826.5 0
10827.5 0
10828.5 0
10829.5 0
10830.5 0
10831.5 0
10832.5 1
10833.5 0
10834.5 0
10835.5 0
10836.5 0
10837.5 0
10838.5 0
10839.5 0
10840.5 0
10841.5 0
10842.5 1
10843.5 0
10844.5 0
10845.5 0
10846.5 0
10847.5 0
10848.5 0
10849.5 -0.857143
10850.5 0
10851.5 0
10852.5 0
10853.5 0
10854.5 0
10855.5 0
10856.5 0
10857.5 0
10858.5 0
10859.5 0
10860.5 0
10861.5 0
10862.5 0
10863.5 0
10864.5 0
10865.5 0
10866.5 0
10867.5 0
10868.5 0
10869.5 0
10870.5 0
10871.5 0
10872.5 0
10873.5 0
10874.5 0
10875.5 0
10876.5 0
10877.5 0
10878.5 0
10879.5 0
10880.5 0
10881.5 0
10882.5 -0.857143
10883.5 0
10884.5 0
10885.5 0
10886.5 0
10887.5 0
10888.5 0
10889.5 0
10890.5 0
10891.5 0
10892.5 0
10893.5 0
10894.5 0
10895.5 0
10896.5 1
10897.5 0
10898.5 0
10899.5 0
10900.5 0
10901.5 0
10902.5 0
10903.5 0
10904.5 0
10905.5 0
10906.5 0
10907.5 0
10908.5 0
10909.5 0
10910.5 1
10911.5 0
10912.5 0
10913.5 0
10914.5 0
10915.5 0
10916.5 0
10917.5 0
10918.5 0
10919.5 0
10920.5 0
10921.5 0
10922.5 0
10923.5 0
10924.5 0
10925.5 0
10926.5 0
10927.5 0
10928.5 0
10929.5 0
10930.5 0
10931.5 0
10932.5 0
10933.5 0
10934.5 0
10935.5 0
10936.5 0
10937.5 0
10938.5 0
10939.5 0
10940.5 0
10941.5 0
10942.5 0
10943.5 0
10944.5 0
10945.5 0
10946.5 0
10947.5 0
10948.5 0
10949.5 0
10950.5 0
10951.5 0
10952.5 0
10953.5 0
10954.5 0
10955.5 0
10956.5 0
10957.5 0
10958.5 0
10959.5 0
10960.5 0
10961.5 0
10962.5 0
10963.5 0
10964.5 0
10965.5 0
10966.5 0
10967.5 0
10968.5 0
10969.5 0
10970.5 0
10971.5 0
10972.5 0
10973.5 0
10974.5 0
10975.5 0
10976.5 0
10977.5 0
10978.5 0
10979.5 0
10980.5 0
10981.5 0
10982.5 0
10983.5 0
10984.5 0
10985.5 0
10986.5 0
10987.5 0
10988.5 0
10989.5 0
10990.5 0
10991.5 0
10992.5 0
10993.5 0
10994.5 0
10995.5 0
10996.5 0
10997.5 0
10998.5 0
10999.5 0
11000.5 0
11001.5 0
11002.5 0
11003.5 0
11004.5 0
11005.5 0
11006.5 0
11007.5 0
11008.5 0
11009.5 0
11010.5 0
11011.5 0
11012.5 0
11013.5 0
11014.5 0
11015.5 0
11016.5 0
11017.5 1
11018.5 0
11019.5 0
11020.5 0
11021.5 0
11022.5 0
11023.5 0
11024.5 0
11025.5 0
11026.5 0
11027.5 0
11028.5 0
11029.5 0
11030.5 0
11031.5 0
11032.5 0
11033.5 0
11034.5 0
11035.5 0
11036.5 0
11037.5 0
11038.5 0
11039.5 0
11040.5 0
11041.5 0
11042.5 0
11043.5 0
11044.5 0
11045.5 0
11046.5 0
11047.5 0
11048.5 0
11049.5 0
11050.5 0
11051.5 0
11052.5 0
11053.5 0
11054.5 0
11055.5 0
11056.5 0
11057.5 0
11058.5 0
11059.5 0
11060.5 0
11061.5 0
11062.5 0
11063.5 0
11064.5 0
11065.5 0
11066.5 0
11067.5 0
11068.5 0
11069.5 0
11070.5 0
11071.5 0
11072.5 0
11073.5 0
11074.5 0
11075.5 0
11076.5 0
11077.5 0
11078.5 0
11079.5 0
11080.5 0.142857
11081.5 0
11082.5 0
11083.5 0
11084.5 0
11085.5 0
11086.5 0
11087.5 0
11088.5 0
11089.5 0
11090.5 1
11091.5 0
11092.5 0
11093.5 0
11094.5 0
11095.5 0
11096.5 0
11097.5 0
11098.5 0
11099.5 0
11100.5 0
11101.5 0
11102.5 0
11103.5 0
11104.5 0
11105.5 0
11106.5 0
11107.5 0
11108.5 0
11109.5 0
11110.5 0
11111.5 0
11112.5 0
11113.5 0
11114.5 0
11115.5 0
11116.5 0
11117.5 0
11118.5 0
11119.5 0
11120.5 0
11121.5 0
11122.5 0
11123.5 0
11124.5 0
11125.5 0
11126.5 0
11127.5 0
11128.5 0
11129.5 0
11130.5 0
11131.5 0
11132.5 0
11133.5 0
11134.5 0
11135.5 0
11136.5 0
11137.5 0
11138.5 0
11139.5 0
11140.5 0
11141.5 0
11142.5 0
11143.5 0
11144.5 0
11145.5 0
11146.5 0
11147.5 0
11148.5 1
11149.5 0
11150.5 0
11151.5 0
11152.5 0
11153.5 0
11154.5 0
11155.5 0
11156.5 0
11157.5 0
11158.5 0
11159.5 0
11160.5 0
11161.5 0
11162.5 0
11163.5 0
11164.5 0
11165.5 0
11166.5 0
11167.5 0
11168.5 0
11169.5 0
11170.5 0
11171.5 0
11172.5 0
11173.5 0
11174.5 0
11175.5 0
11176.5 0
11177.5 0
11178.5 0
11179.5 0
11180.5 0
11181.5 0
11182.5 0
11183.5 0
11184.5 0
11185.5 0
11186.5 0
11187.5 0
11188.5 0
11189.5 0
11190.5 0
11191.5 0
11192.5 0
11193.5 0
11194.5 0
11195.5 0
11196.5 0
11197.5 0
11198.5 0
11199.5 0
11200.5 0
11201.5 0
11202.5 0
11203.5 0
11204.5 0
11205.5 0
11206.5 0
11207.5 0
11208.5 0
11209.5 0
11210.5 0
11211.5 0
11212.5 0
11213.5 0
11214.5 0
11215.5 0
11216.5 0
11217.5 0
11218.5 0
11219.5 0
11220.5 0
11221.5 0
11222.5 0
11223.5 0
11224.5 0
11225.5 0
11226.5 0
11227.5 0
11228.5 0
11229.5 0
11230.5 0
11231.5 0
11232.5 0
11233.5 0
11234.5 0
11235.5 0
11236.5 0
11237.5 0
11238.5 0
11239.5 0
11240.5 0
11241.5 0
11242.5 0
11243.5 0
11244.5 0
11245.5 0
11246.5 0
11247.5 0
11248.5 0
11249.5 0
11250.5 1
11251.5 0
11252.5 0
11253.5 0
11254.5 0
11255.5 0
11256.5 0
11257.5 0
11258.5 0
11259.5 0
11260.5 0
11261.5 0
11262.5 0
11263.5 0
11264.5 0
11265.5 0
11266.5 0
11267.5 0
11268.5 0
11269.5 0
11270.5 0
11271.5 0
11272.5 0
11273.5 0
11274.5 0
11275.5 0
11276.5 0
11277.5 0
11278.5 0
11279.5 0
11280.5 0
11281.5 0
11282.5 0
11283.5 0
11284.5 0
11285.5 0
11286.5 0
11287.5 0
11288.5 0
11289.5 0
11290.5 0
11291.5 0
11292.5 0
11293.5 0
11294.5 0
11295.5 0
11296.5 0
11297.5 0
11298.5 0
11299.5 0
11300.5 -0.857143
11301.5 0
11302.5 0
11303.5 0
11304.5 0
11305.5 0
11306.5 0
11307.5 0
11308.5 0
11309.5 0
11310.5 0
11311.5 0
11312.5 0
11313.5 0
11314.5 0
11315.5 0
11316.5 0
11317.5 0
11318.5 0
11319.5 0
11320.5 0
11321.5 0
11322.5 0
11323.5 0
11324.5 0
11325.5 0
11326.5 0
11327.5 0
11328.5 0
11329.5 0
11330.5 0
11331.5 0
11332.5 0
11333.5 0
11334.5 0
11335.5 0
11336.5 0
11337.5 0
11338.5 0
11339.5 0
11340.5 0
11341.5 0
11342.5 0
11343.5 0
11344.5 0
11345.5 0
11346.5 0
11347.5 0
11348.5 0
11349.5 0
11350.5 0
11351.5 0
11352.5 0
11353.5 0
11354.5 0
11355.5 0
11356.5 0
11357.5 0
11358.5 0
11359.5 0
11360.5 0
11361.5 -0.857143
11362.5 0
11363.5 0
11364.5 0
11365.5 0
11366.5 0
11367.5 0
11368.5 0
11369.5 0
11370.5 0
11371.5 0
11372.5 -0.857143
11373.5 0
11374.5 0
11375.5 0
11376.5 0
11377.5 0
11378.5 0
11379.5 0
11380.5 0
11381.5 0
11382.5 0
11383.5 0
11384.5 0
11385.5 0
11386.5 0
11387.5 0
11388.5 0
11389.5 0
11390.5 0
11391.5 0
11392.5 0
11393.5 0
11394.5 0
11395.5 0
11396.5 0
11397.5 0
11398.5 0
11399.5 0
11400.5 0
11401.5 0
11402.5 0
11403.5 0
11404.5 0
11405.5 0
11406.5 0
11407.5 0
11408.5 0
11409.5 0
11410.5 0
11411.5 0
11412.5 0
11413.5 1
11414.5 0
11415.5 0
11416.5 0
11417.5 0
11418.5 0
11419.5 0
11420.5 1
11421.5 0
11422.5 0
11423.5 0
11424.5 0
11425.5 0
11426.5 0
11427.5 0
11428.5 0
11429.5 0
11430.5 0
11431.5 0
11432.5 0
11433.5 0
11434.5 0
11435.5 0
11436.5 0
11437.5 0
11438.5 1
11439.5 0
11440.5 0
11441.5 0
11442.5 0
11443.5 0
11444.5 0
11445.5 0
11446.5 0
11447.5 0
11448.5 0
11449.5 0
11450.5 0
11451.5 0
11452.5 0
11453.5 0
11454.5 0
11455.5 0
11456.5 0
11457.5 0
11458.5 0
11459.5 0
11460.5 0
11461.5 0
11462.5 0
11463.5 0
11464.5 0
11465.5 0
11466.5 0
11467.5 0
11468.5 0
11469.5 0
11470.5 0
11471.5 0
11472.5 0
11473.5 0
11474.5 0
11475.5 0
11476.5 1
11477.5 0
11478.5 0
11479.5 0
11480.5 0
11481.5 0
11482.5 0
11483.5 0
11484.5 0
11485.5 0
11486.5 0
11487.5 0
11488.5 0
11489.5 0
11490.5 0
11491.5 0
11492.5 0
11493.5 0
11494.5 0
11495.5 -0.857143
11496.5 0
11497.5 0
11498.5 0
11499.5 0
11500.5 0
11501.5 0
11502.5 0
11503.5 0
11504.5 0
11505.5 0
11506.5 0
11507.5 0
11508.5 0
11509.5 0
11510.5 0
11511.5 0
11512.5 0
11513.5 0
11514.5 0
11515.5 0
11516.5 0
11517.5 0
11518.5 0
11519.5 0
11520.5 0
11521.5 0
11522.5 0
11523.5 0
11524.5 0
11525.5 0
11526.5 0
11527.5 0
11528.5 0
11529.5 0
11530.5 0
11531.5 0
11532.5 0
11533.5 0
11534.5 0
11535.5 0
11536.5 0
11537.5 0
11538.5 0
11539.5 0
11540.5 0
11541.5 0
11542.5 0
11543.5 0
11544.5 0
11545.5 1
11546.5 0
11547.5 0
11548.5 0
11549.5 0
11550.5 0
11551.5 0
11552.5 0
11553.5 0
11554.5 0
11555.5 0
11556.5 0
11557.5 0
11558.5 0
11559.5 0
11560.5 0
11561.5 0
11562.5 -0.857143
11563.5 0
11564.5 0
11565.5 0
11566.5 0
11567.5 0
11568.5 0
11569.5 0
11570.5 0
11571.5 0
11572.5 0
11573.5 0
11574.5 0
11575.5 0
11576.5 0
11577.5 0
11578.5 0
11579.5 0
11580.5 0
11581.5 0
11582.5 0
11583.5 0
11584.5 0
11585.5 0
11586.5 0
11587.5 0
11588.5 0
11589.5 0
11590.5 0
11591.5 0
11592.5 0
11593.5 0
11594.5 0
11595.5 0
11596.5 0
11597.5 0
11598.5 0
11599.5 0
11600.5 0
11601.5 0
11602.5 0
11603.5 0
11604.5 0
11605.5 0
11606.5 0
11607.5 0
11608.5 0
11609.5 0
11610.5 0
11611.5 0
11612.5 0
11613.5 0
11614.5 0
11615.5 0
11616.5 0
11617.5 0
11618.5 0
11619.5 0
11620.5 0
11621.5 0
11622.5 0
11623.5 0
11624.5 0
11625.5 0
11626.5 0
11627.5 0
11628.5 0
11629.5 0
11630.5 0
11631.5 0
11632.5 0
11633.5 0
11634.5 0
11635.5 0
11636.5 -0.857143
11637.5 0
11638.5 0
11639.5 0
11640.5 0
11641.5 1
11642.5 0
11643.5 0
11644.5 0
11645.5 0
11646.5 0
11647.5 0
11648.5 0
11649.5 0
11650.5 0
11651.5 0
11652.5 0
11653.5 0
11654.5 0
11655.5 0
11656.5 0
11657.5 0
11658.5 0
11659.5 0
11660.5 0
11661.5 0
11662.5 0
11663.5 0
11664.5 0
11665.5 0
11666.5 0
11667.5 0
11668.5 0
11669.5 0
11670.5 0
11671.5 0
11672.5 0
11673.5 0
11674.5 0
11675.5 0
11676.5 0
11677.5 0
11678.5 0
11679.5 0
11680.5 0
11681.5 0
11682.5 0
11683.5 0
11684.5 0
11685.5 0
11686.5 0
11687.5 0
11688.5 0
11689.5 0
11690.5 0
11691.5 0
11692.5 0
11693.5 0
11694.5 0
11695.5 0
11696.5 0
11697.5 0
11698.5 0
11699.5 0
11700.5 0
11701.5 0
11702.5 0
11703.5 0
11704.5 0
11705.5 0
11706.5 0
11707.5 0
11708.5 0
11709.5 0
11710.5 0
11711.5 0
11712.5 0
11713.5 0
11714.5 0
11715.5 0
11716.5 0
11717.5 0
11718.5 0
11719.5 0
11720.5 0
11721.5 0
11722.5 0
11723.5 0
11724.5 0
11725.5 0
11726.5 0
11727.5 0
11728.5 0
11729.5 0
11730.5 0
11731.5 0
11732.5 0
11733.5 0
11734.5 0
11735.5 0
11736.5 0
11737.5 0
11738.5 0
11739.5 0
11740.5 0
11741.5 0
11742.5 0
11743.5 0
11744.5 0
11745.5 0
11746.5 0
11747.5 0
11748.5 0
11749.5 0
11750.5 0
11751.5 0
11752.5 0
11753.5 0
11754.5 0
11755.5 -0.857143
11756.5 0
11757.5 0
11758.5 0
11759.5 0
11760.5 0
11761.5 0
11762.5 0
11763.5 0
11764.5 0
11765.5 0
11766.5 0
11767.5 0
11768.5 0
11769.5 0
11770.5 0
11771.5 0
11772.5 0
11773.5 0
11774.5 0
11775.5 0
11776.5 -0.857143
11777.5 -0.857143
11778.5 0
11779.5 0
11780.5 0
11781.5 0
11782.5 0
11783.5 0
11784.5 0
11785.5 0
11786.5 0
11787.5 0
11788.5 0
11789.5 0
11790.5 0
11791.5 0
11792.5 0
11793.5 0
11794.5 0
11795.5 0
11796.5 0
11797.5 0
11798.5 0
11799.5 0
11800.5 0
11801.5 0
11802.5 0
11803.5 0
11804.5 0
11805.5 0
11806.5 0
11807.5 0
11808.5 0
11809.5 0
11810.5 0
11811.5 0
11812.5 0
11813.5 0
11814.5 0
11815.5 0
11816.5 0
11817.5 0
11818.5 0
11819.5 0
11820.5 0
11821.5 0
11822.5 0
11823.5 0
11824.5 0
11825.5 0
11826.5 0
11827.5 0
11828.5 0
11829.5 0
11830.5 0
11831.5 0
11832.5 0
11833.5 0
11834.5 0
11835.5 0
11836.5 0
11837.5 0
11838.5 0
11839.5 0
11840.5 0
11841.5 0
11842.5 0
11843.5 0
11844.5 0
11845.5 0
11846.5 0
11847.5 0
11848.5 0
11849.5 0
11850.5 0
11851.5 0
11852.5 0
11853.5 0
11854.5 0
11855.5 0
11856.5 0
11857.5 0
11858.5 0
11859.5 0
11860.5 0
11861.5 0
11862.5 0
11863.5 0
11864.5 0
11865.5 0
11866.5 0
11867.5 0
11868.5 0
11869.5 0
11870.5 0
11871.5 0
11872.5 0
11873.5 0
11874.5 0
11875.5 0
11876.5 0
11877.5 0
11878.5 0
11879.5 0
11880.5 0
11881.5 0
11882.5 0
11883.5 0
11884.5 0
11885.5 0
11886.5 0
11887.5 0
11888.5 0
11889.5 0
11890.5 0
11891.5 0
11892.5 0
11893.5 0
11894.5 0
11895.5 0
11896.5 0
11897.5 0
11898.5 0
11899.5 0
11900.5 0
11901.5 0
11902.5 0
11903.5 0
11904.5 0
11905.5 0
11906.5 0
11907.5 0
11908.5 0
11909.5 0
11910.5 0
11911.5 0
11912.5 0
11913.5 0
11914.5 0
11915.5 0
11916.5 0
11917.5 0
11918.5 1
11919.5 0
11920.5 0
11921.5 0
11922.5 0
11923.5 0
11924.5 0
11925.5 0
11926.5 0
11927.5 0
11928.5 0
11929.5 0
11930.5 0
11931.5 0
11932.5 0
11933.5 0
11934.5 0
11935.5 0
11936.5 0
11937.5 0
11938.5 0
11939.5 0
11940.5 0
11941.5 0
11942.5 0
11943.5 0
11944.5 0
11945.5 0
11946.5 0
11947.5 0
11948.5 0
11949.5 0
11950.5 0
11951.5 0
11952.5 0
11953.5 1
11954.5 0
11955.5 0
11956.5 -1.71429
11957.5 0
11958.5 0
11959.5 -0.857143
11960.5 0
11961.5 0
11962.5 0
11963.5 0
11964.5 0
11965.5 0
11966.5 0
11967.5 0
11968.5 0
11969.5 0
11970.5 0
11971.5 0
11972.5 0
11973.5 0
11974.5 0
11975.5 0
11976.5 0
11977.5 0
11978.5 0
11979.5 0
11980.5 0
11981.5 0
11982.5 0
11983.5 0
11984.5 0
11985.5 0
11986.5 0
11987.5 0
11988.5 0
11989.5 0
11990.5 0
11991.5 0
11992.5 0
11993.5 0
11994.5 0
11995.5 0
11996.5 0
11997.5 0
11998.5 0
11999.5 0
