# EGG_ProjY_E1194.5(2.5)_B1178.0(2.0)_B1210.5(1.5)
# X axis : Energy (keV) [Y axis]
# Y axis : Counts/1 keV
# N Bins : 12000
# X Min : 0
# X Max : 12000
# X value at the center of the bins
0.5 0
1.5 0
2.5 0
3.5 0
4.5 0
5.5 -9.85714
6.5 -3
7.5 2.57143
8.5 5.42857
9.5 -15
10.5 -19.4286
11.5 -1.71429
12.5 1.42857
13.5 -5.57143
14.5 5.28571
15.5 -24.2857
16.5 -11.5714
17.5 -1.85715
18.5 25.4286
19.5 -19
20.5 -6.57145
21.5 97.4285
22.5 47.8571
23.5 83.4285
24.5 50.7142
25.5 28.7142
26.5 -4.00005
27.5 118.429
28.5 44.5714
29.5 -11.8572
30.5 57.2856
31.5 73.4285
32.5 -80.8572
33.5 64.1428
34.5 -42.8572
35.5 51.7142
36.5 67.7142
37.5 88.7142
38.5 -2.57152
39.5 -161.429
40.5 -145.572
41.5 -128.429
42.5 -396
43.5 -588.429
44.5 -137.572
45.5 73.5713
46.5 -18.143
47.5 -121.857
48.5 -195.714
49.5 -95.8573
50.5 -54.4287
51.5 31.4285
52.5 -11.2858
53.5 -22.7144
54.5 110.143
55.5 86.1428
56.5 129.857
57.5 125.571
58.5 55.7142
59.5 -31.7144
60.5 121.428
61.5 120.286
62.5 154
63.5 5.85704
64.5 36.1428
65.5 -32.2858
66.5 102.714
67.5 -66.143
68.5 15.1427
69.5 54.857
70.5 -76.4287
71.5 174.714
72.5 -278.143
73.5 -149
74.5 82.9998
75.5 36.5713
76.5 -17.8573
77.5 313
78.5 -23.7144
79.5 -190.857
80.5 -213.429
81.5 -68.7144
82.5 50.857
83.5 86.1428
84.5 -183.572
85.5 35.4285
86.5 -30.143
87.5 38.2856
88.5 -222.714
89.5 -165.429
90.5 130.428
91.5 -17.0001
92.5 144.714
93.5 -27.2858
94.5 217
95.5 96.1428
96.5 10.4285
97.5 217.571
98.5 171
99.5 150.571
100.5 111.143
101.5 115.714
102.5 32.7142
103.5 77.4285
104.5 184.714
105.5 58.5713
106.5 175
107.5 -53.7144
108.5 93.5713
109.5 132.571
110.5 136.571
111.5 -54.0001
112.5 -11.2858
113.5 77.5713
114.5 -78.2858
115.5 -81.2858
116.5 1.28559
117.5 -53.5716
118.5 110.143
119.5 105.571
120.5 31.857
121.5 48.4284
122.5 121.286
123.5 169.714
124.5 -53.143
125.5 111.714
126.5 -74.8573
127.5 116.143
128.5 85.857
129.5 75.4284
130.5 -28.0001
131.5 -27.0001
132.5 7.28558
133.5 92.4284
134.5 -20.0001
135.5 -7.42871
136.5 51.2856
137.5 134.428
138.5 96.1427
139.5 5.28557
140.5 -176.286
141.5 106.714
142.5 -33.5716
143.5 14.857
144.5 -137.286
145.5 283.571
146.5 125.857
147.5 44.4284
148.5 105.714
149.5 -19.143
150.5 0.285564
151.5 -47.5716
152.5 215.286
153.5 44.1427
154.5 84.2856
155.5 233.857
156.5 58.5713
157.5 205.428
158.5 179.286
159.5 42.7141
160.5 10.857
161.5 142.571
162.5 157.571
163.5 65.2856
164.5 192.714
165.5 116.857
166.5 -202.572
167.5 183.857
168.5 -50.8573
169.5 80.1427
170.5 15.7141
171.5 -76.4287
172.5 -150
173.5 71.1426
174.5 -243.715
175.5 29.9998
176.5 131.143
177.5 -112.857
178.5 131.286
179.5 178
180.5 260.286
181.5 157.428
182.5 93.7141
183.5 221
184.5 403.143
185.5 126.428
186.5 89.9999
187.5 322.143
188.5 350.857
189.5 182.428
190.5 223
191.5 289.428
192.5 212.714
193.5 192.714
194.5 178.714
195.5 165.714
196.5 127.714
197.5 -134.429
198.5 -583.429
199.5 -735.286
200.5 -355.143
201.5 -293
202.5 -203.572
203.5 -115.143
204.5 79.2856
205.5 -3.85729
206.5 -68.143
207.5 -207.286
208.5 -226.143
209.5 -208.429
210.5 -111.857
211.5 3.28556
212.5 -30.8573
213.5 208.714
214.5 -58.7144
215.5 -145.714
216.5 -359.429
217.5 -666.143
218.5 -607.286
219.5 -361.143
220.5 -59.2859
221.5 10.7141
222.5 108
223.5 -74.2859
224.5 326.571
225.5 312
226.5 297
227.5 222.714
228.5 -15.2859
229.5 294.857
230.5 382.714
231.5 851.143
232.5 1074
233.5 1213
234.5 1300.43
235.5 975.857
236.5 714.143
237.5 343.428
238.5 252.286
239.5 134.714
240.5 195.286
241.5 244.428
242.5 138.714
243.5 118.571
244.5 63.7141
245.5 8.57129
246.5 105
247.5 193.857
248.5 -410.857
249.5 -844.572
250.5 -610.572
251.5 -830.429
252.5 -627.572
253.5 -235.714
254.5 9.42844
255.5 146.714
256.5 60.7142
257.5 57.2856
258.5 83.2856
259.5 -59.8573
260.5 31.7142
261.5 -72.2858
262.5 216
263.5 216
264.5 236.286
265.5 495.428
266.5 330.714
267.5 261.286
268.5 224.714
269.5 157.714
270.5 144.714
271.5 92.2856
272.5 83.9999
273.5 165.857
274.5 88.9999
275.5 308
276.5 206
277.5 49.2856
278.5 159.286
279.5 139.428
280.5 -96.143
281.5 -270.286
282.5 -237.286
283.5 -138.429
284.5 -254.572
285.5 -312.857
286.5 -536.429
287.5 -1035
288.5 -1396.43
289.5 -1234.43
290.5 -681
291.5 -315
292.5 109.571
293.5 45.7142
294.5 130.143
295.5 219.714
296.5 123
297.5 -63.2858
298.5 145.143
299.5 158.143
300.5 491.714
301.5 1033
302.5 1683.14
303.5 2281.71
304.5 2670.57
305.5 2570.71
306.5 1768
307.5 1170.43
308.5 565.857
309.5 175.571
310.5 71.857
311.5 211
312.5 199.143
313.5 138.286
314.5 376.857
315.5 142.857
316.5 110.714
317.5 -173.286
318.5 -608.286
319.5 -1088.29
320.5 -1576.57
321.5 -1621.71
322.5 -1130.29
323.5 -657.286
324.5 -272.429
325.5 -27.5715
326.5 -64.7144
327.5 -218.143
328.5 -144.143
329.5 -241.857
330.5 -264
331.5 -143.286
332.5 -132.572
333.5 -148.572
334.5 -46.5715
335.5 3.71419
336.5 22.4285
337.5 -1.2858
338.5 15.4285
339.5 -194.572
340.5 -33.4287
341.5 171
342.5 280.857
343.5 289.857
344.5 391.286
345.5 513.428
346.5 463.714
347.5 366.286
348.5 118.571
349.5 377.143
350.5 171
351.5 114.286
352.5 54.2856
353.5 137.286
354.5 125.857
355.5 116
356.5 -29.8572
357.5 16.2856
358.5 -45.7144
359.5 -29.1429
360.5 -194.714
361.5 -262.714
362.5 -161.572
363.5 -219.572
364.5 -194.714
365.5 -196.286
366.5 64.4285
367.5 107
368.5 -29.4287
369.5 13.8571
370.5 -19.0001
371.5 69.9999
372.5 145.857
373.5 -42.0001
374.5 23.9999
375.5 -18.1429
376.5 -102.429
377.5 12.9999
378.5 -60.8572
379.5 140.571
380.5 166.571
381.5 135
382.5 228.143
383.5 183.857
384.5 50.7142
385.5 206
386.5 15.1428
387.5 20.1428
388.5 -79.2858
389.5 95.2856
390.5 191.857
391.5 202.571
392.5 260
393.5 319.286
394.5 242.428
395.5 286.286
396.5 43.5714
397.5 -0.285786
398.5 -77.2858
399.5 -20.4286
400.5 -11.2858
401.5 -28.7144
402.5 657
403.5 2651.57
404.5 2758.14
405.5 1166.29
406.5 338.857
407.5 43.7142
408.5 139.286
409.5 -99.4286
410.5 -206
411.5 -139.714
412.5 3.4285
413.5 -213.143
414.5 -68.8572
415.5 -34.1429
416.5 -92.5715
417.5 -36.2858
418.5 -60.4286
419.5 -315.572
420.5 -730.714
421.5 -1163.14
422.5 -1320.71
423.5 -1217.43
424.5 -635.429
425.5 -303.857
426.5 120.286
427.5 177.286
428.5 -12.4286
429.5 170.857
430.5 56.9999
431.5 31.5714
432.5 110.714
433.5 250.429
434.5 354.571
435.5 821.857
436.5 1464.57
437.5 1978.71
438.5 2333.14
439.5 2128
440.5 1664.14
441.5 1160.14
442.5 603
443.5 472.857
444.5 525.857
445.5 472.857
446.5 340.143
447.5 149
448.5 96.2857
449.5 206
450.5 77.2856
451.5 122.286
452.5 -117.857
453.5 -566.286
454.5 -838.143
455.5 -1053.14
456.5 -776.714
457.5 -493.857
458.5 -389.571
459.5 -71.8572
460.5 -8.71435
461.5 -157
462.5 -35.1429
463.5 -47.7144
464.5 -34.8572
465.5 101
466.5 -9.42864
467.5 -152
468.5 -82.0001
469.5 -220.857
470.5 -336.286
471.5 -213.286
472.5 21.8571
473.5 56.7142
474.5 37.4285
475.5 125.857
476.5 181.143
477.5 15.4285
478.5 148.714
479.5 62.8571
480.5 20.9999
481.5 55.5714
482.5 104.571
483.5 62.8571
484.5 72.2857
485.5 88.5714
486.5 22.1428
487.5 167.143
488.5 21.9999
489.5 27.4285
490.5 -3.42863
491.5 107
492.5 46.2857
493.5 0.1428
494.5 76.5714
495.5 -9.8572
496.5 11.7142
497.5 73.9999
498.5 75.7142
499.5 30.8571
500.5 4.85708
501.5 24.4285
502.5 -21.2858
503.5 134.571
504.5 59.4285
505.5 16.4285
506.5 32.9999
507.5 -54.4287
508.5 -455.143
509.5 -1204.71
510.5 -1419
511.5 -1345.86
512.5 -497.286
513.5 -259
514.5 -44.0001
515.5 -130
516.5 -42.8572
517.5 46.9999
518.5 155.286
519.5 -52.5715
520.5 -27.8572
521.5 28.1428
522.5 102.143
523.5 113.143
524.5 79.1428
525.5 61.4285
526.5 14.7142
527.5 168.714
528.5 209.571
529.5 232.286
530.5 292.286
531.5 438.286
532.5 256.286
533.5 227.714
534.5 114.429
535.5 241.714
536.5 73.4285
537.5 -6.42862
538.5 -24.4286
539.5 27.4285
540.5 73.7142
541.5 -6.1429
542.5 58.5714
543.5 -57.4286
544.5 -18.2858
545.5 -46.7143
546.5 49.8571
547.5 -79.0001
548.5 -145
549.5 -78.0001
550.5 -2.85719
551.5 46.2857
552.5 -44.8572
553.5 44.4285
554.5 87.5714
555.5 66.8571
556.5 131.429
557.5 97.8571
558.5 148.714
559.5 -25.7143
560.5 26.4285
561.5 -39.2858
562.5 -46
563.5 -23.1429
564.5 -31.8572
565.5 -61.4286
566.5 -29.1429
567.5 -107.143
568.5 -114.857
569.5 29.2857
570.5 88.8571
571.5 187
572.5 103.571
573.5 23.4285
574.5 32.1428
575.5 159.429
576.5 191.857
577.5 167.286
578.5 106
579.5 248.857
580.5 283.429
581.5 337.857
582.5 350.143
583.5 444.571
584.5 475.143
585.5 582.143
586.5 263
587.5 272.714
588.5 26.5714
589.5 89.4285
590.5 60.5714
591.5 92.4285
592.5 111.429
593.5 12.2857
594.5 39.1428
595.5 -105.571
596.5 -142.857
597.5 -42.8572
598.5 -236.714
599.5 -349.429
600.5 -191.571
601.5 -130.429
602.5 -79.7143
603.5 58.7142
604.5 65.7142
605.5 36.5714
606.5 -28.8572
607.5 54.8571
608.5 51
609.5 48.8571
610.5 -29.8572
611.5 152.429
612.5 107.429
613.5 212.429
614.5 255.857
615.5 109.571
616.5 41.2857
617.5 205
618.5 62.8571
619.5 63.7142
620.5 27.8571
621.5 36.1428
622.5 121.571
623.5 61.8571
624.5 139
625.5 109.286
626.5 44.4285
627.5 -375.429
628.5 -627.714
629.5 -281.143
630.5 22.8571
631.5 -17.8572
632.5 9.99996
633.5 6.99996
634.5 113.714
635.5 81.1428
636.5 -45.4286
637.5 -206.714
638.5 -162.286
639.5 -55
640.5 -22.4286
641.5 57.5714
642.5 80.2857
643.5 86.5714
644.5 55.5714
645.5 59.8571
646.5 88
647.5 104.286
648.5 95
649.5 -224.571
650.5 -425.857
651.5 -193.429
652.5 -116
653.5 7.42852
654.5 33.5714
655.5 65.7142
656.5 -18.0001
657.5 -11.2858
658.5 66
659.5 -50.7143
660.5 71.1428
661.5 -57.5715
662.5 -59.5715
663.5 -27.5715
664.5 -53.0001
665.5 106.429
666.5 124.571
667.5 130.571
668.5 126.714
669.5 116
670.5 18.5714
671.5 69.4285
672.5 -1.28575
673.5 -36.5715
674.5 -31.5715
675.5 32.8571
676.5 41.5714
677.5 225.286
678.5 154.857
679.5 164
680.5 153.857
681.5 103.714
682.5 18
683.5 78.4285
684.5 117.857
685.5 179.286
686.5 196.571
687.5 290.143
688.5 296.714
689.5 406.571
690.5 414.286
691.5 462
692.5 382.143
693.5 260.714
694.5 259.714
695.5 41.5714
696.5 55.2857
697.5 86.4285
698.5 70.1428
699.5 -21.4286
700.5 35.2857
701.5 25.8571
702.5 -10
703.5 78.4285
704.5 -50.8572
705.5 12.1428
706.5 -226.857
707.5 -154.571
708.5 -169.143
709.5 -90
710.5 -175.286
711.5 -9.57147
712.5 -23.5715
713.5 81
714.5 70.2857
715.5 141.429
716.5 102.857
717.5 113.714
718.5 90
719.5 70.4285
720.5 129.714
721.5 187
722.5 168.857
723.5 209.143
724.5 104
725.5 40.8571
726.5 30.4285
727.5 33.1428
728.5 -42.1429
729.5 76.2857
730.5 -25.8572
731.5 -4.42861
732.5 -37.8572
733.5 26.7142
734.5 95.1428
735.5 44.2857
736.5 24.5714
737.5 90.5714
738.5 68.2857
739.5 89.8571
740.5 -29.8572
741.5 65.1428
742.5 52.4285
743.5 37
744.5 186
745.5 179.143
746.5 150.714
747.5 203.857
748.5 189.429
749.5 145
750.5 56.4285
751.5 105.429
752.5 123.286
753.5 153.143
754.5 133.429
755.5 87.4285
756.5 122
757.5 156.143
758.5 170.857
759.5 -17.2858
760.5 -152.857
761.5 -289
762.5 -53.4287
763.5 -9.00005
764.5 43.5714
765.5 138.429
766.5 -6.42861
767.5 86.1428
768.5 102.714
769.5 26.2857
770.5 -33
771.5 -89.8572
772.5 36.8571
773.5 63.1428
774.5 -37.4286
775.5 21.5714
776.5 0.999962
777.5 111.429
778.5 27.5714
779.5 42.8571
780.5 -36.4286
781.5 -24.8572
782.5 30.4285
783.5 47.1428
784.5 91.8571
785.5 146
786.5 152.714
787.5 118.429
788.5 59.5714
789.5 51.5714
790.5 106.571
791.5 116.714
792.5 15
793.5 81.2857
794.5 45.8571
795.5 234.143
796.5 87
797.5 114.286
798.5 137.714
799.5 106
800.5 117.286
801.5 41.4285
802.5 170.286
803.5 181.143
804.5 206
805.5 810.286
806.5 1760.86
807.5 1696.14
808.5 620
809.5 170.857
810.5 97.7142
811.5 82.1428
812.5 78.8571
813.5 -7.85719
814.5 -0.571471
815.5 -15.8572
816.5 22.7142
817.5 43.5714
818.5 -27
819.5 119.571
820.5 150.857
821.5 13.7142
822.5 65.1428
823.5 82.1428
824.5 80.5714
825.5 72.7143
826.5 168
827.5 94.8571
828.5 99.5714
829.5 44.4285
830.5 59.5714
831.5 106
832.5 127.857
833.5 210.143
834.5 60
835.5 70.8571
836.5 139.429
837.5 86.4285
838.5 75.8571
839.5 78.8571
840.5 74
841.5 45.4285
842.5 52
843.5 43.2857
844.5 25.5714
845.5 -31.5715
846.5 26.1428
847.5 83.7142
848.5 20.8571
849.5 148.286
850.5 150.857
851.5 9.14282
852.5 53.2857
853.5 141.571
854.5 48
855.5 122.143
856.5 75.2857
857.5 205.429
858.5 153.857
859.5 126
860.5 103.286
861.5 74.8571
862.5 120.143
863.5 76.7142
864.5 115.429
865.5 48.4285
866.5 -102.857
867.5 -200.286
868.5 -478.572
869.5 -236.857
870.5 -32.1429
871.5 123.429
872.5 93.5714
873.5 99.8571
874.5 5.28567
875.5 34.2857
876.5 16.7142
877.5 -12.7143
878.5 -96.1429
879.5 89.8571
880.5 195.286
881.5 21.8571
882.5 79.7142
883.5 62
884.5 156.714
885.5 82.5714
886.5 78.7142
887.5 121.714
888.5 107.286
889.5 52.4285
890.5 81.4285
891.5 66.2857
892.5 119.286
893.5 168.143
894.5 79.1428
895.5 104.857
896.5 86.4285
897.5 114.857
898.5 20.2857
899.5 105.286
900.5 -0.57147
901.5 138.857
902.5 75.1428
903.5 197.571
904.5 47.1428
905.5 179.571
906.5 172.857
907.5 96.8571
908.5 69.4285
909.5 177.143
910.5 81.1428
911.5 237.143
912.5 32.8571
913.5 70.2857
914.5 90
915.5 54.1428
916.5 16.4285
917.5 165
918.5 140.857
919.5 147
920.5 227.857
921.5 14.7142
922.5 121.286
923.5 101.429
924.5 48.1428
925.5 90.5714
926.5 88.2857
927.5 156.143
928.5 65.7142
929.5 155.143
930.5 87.4285
931.5 108.143
932.5 33.1428
933.5 37.4285
934.5 145.571
935.5 29.4285
936.5 99.8571
937.5 -35.5715
938.5 -61.4286
939.5 136.571
940.5 52.7142
941.5 98.8571
942.5 143
943.5 38.1428
944.5 151.429
945.5 181.429
946.5 193.143
947.5 193.857
948.5 175.571
949.5 156.857
950.5 71.8571
951.5 189.714
952.5 93.7143
953.5 249.857
954.5 275.571
955.5 287.429
956.5 284.429
957.5 252.571
958.5 136.857
959.5 113.429
960.5 -48
961.5 60.2857
962.5 -22.5715
963.5 13.4285
964.5 84.5714
965.5 -41.7143
966.5 95.1428
967.5 -68.4286
968.5 10.8571
969.5 2.28568
970.5 -53.8572
971.5 77.2857
972.5 -85.1429
973.5 -4.85718
974.5 -40
975.5 33
976.5 -37.5715
977.5 82
978.5 61.2857
979.5 147
980.5 59.5714
981.5 1.85711
982.5 -3.00004
983.5 140.429
984.5 103.714
985.5 150.286
986.5 96.1428
987.5 20.4285
988.5 12.1428
989.5 -1.4286
990.5 52.7143
991.5 91.2857
992.5 -14
993.5 18.4285
994.5 82.4285
995.5 83.5714
996.5 62.5714
997.5 44.1428
998.5 -43.2857
999.5 164.571
1000.5 575.857
1001.5 1046.43
1002.5 886.143
1003.5 434.286
1004.5 94.8571
1005.5 95.5714
1006.5 118.571
1007.5 104.857
1008.5 74.5714
1009.5 -154.429
1010.5 -317
1011.5 -477
1012.5 -463.429
1013.5 -336.429
1014.5 -77
1015.5 121.571
1016.5 317.429
1017.5 343.571
1018.5 82.8571
1019.5 32
1020.5 4.71426
1021.5 -7.57146
1022.5 133.286
1023.5 243.429
1024.5 656.571
1025.5 895.429
1026.5 990.857
1027.5 1006.14
1028.5 1005.71
1029.5 910.429
1030.5 802.714
1031.5 463.286
1032.5 229
1033.5 5.85712
1034.5 76.5714
1035.5 -14.2857
1036.5 63.2857
1037.5 139.857
1038.5 3.14283
1039.5 62.5714
1040.5 18.1428
1041.5 -132.429
1042.5 -282.571
1043.5 -525.571
1044.5 -596.857
1045.5 -572.286
1046.5 -324.857
1047.5 -228.857
1048.5 -29.5715
1049.5 -0.142886
1050.5 34.5714
1051.5 -45.7143
1052.5 64.8571
1053.5 -8.42859
1054.5 92.1428
1055.5 100.286
1056.5 5.14283
1057.5 162.429
1058.5 47.8571
1059.5 1.71426
1060.5 11.8571
1061.5 56.8571
1062.5 75.1428
1063.5 67.4286
1064.5 14.2857
1065.5 58
1066.5 39.5714
1067.5 -57.2857
1068.5 -18
1069.5 48.4286
1070.5 -3.57145
1071.5 -18.1429
1072.5 -31.5715
1073.5 -60.143
1074.5 -11.143
1075.5 65.2856
1076.5 113.429
1077.5 25.8571
1078.5 -6.71431
1079.5 70.2857
1080.5 49.7143
1081.5 41.4286
1082.5 44.5714
1083.5 92.5714
1084.5 38.7143
1085.5 62.8571
1086.5 62.7143
1087.5 69.4286
1088.5 -18.2857
1089.5 99.7143
1090.5 232.143
1091.5 199.857
1092.5 127.714
1093.5 30.4286
1094.5 29.1428
1095.5 16
1096.5 31.1428
1097.5 -46.2857
1098.5 28.2857
1099.5 1.71427
1100.5 78.4286
1101.5 44.8571
1102.5 83.4286
1103.5 -14.5714
1104.5 36
1105.5 23.7143
1106.5 88.5714
1107.5 117
1108.5 46.8571
1109.5 61.1428
1110.5 49.7143
1111.5 -20.7143
1112.5 58
1113.5 16.2857
1114.5 51.7143
1115.5 45.8571
1116.5 52.1428
1117.5 -19.7143
1118.5 -1.85717
1119.5 15.1428
1120.5 38.5714
1121.5 33.1428
1122.5 155.714
1123.5 345.714
1124.5 1018
1125.5 2707.43
1126.5 2825.57
1127.5 1060.57
1128.5 502.857
1129.5 140.857
1130.5 6.85712
1131.5 -12.5714
1132.5 77.7143
1133.5 -5.00002
1134.5 0.999983
1135.5 20.1428
1136.5 -10.8572
1137.5 1.99998
1138.5 40.4286
1139.5 -39.1429
1140.5 30.8571
1141.5 30.4286
1142.5 62.4286
1143.5 34.8571
1144.5 53.1428
1145.5 45.1428
1146.5 52.1428
1147.5 8.14284
1148.5 40.4286
1149.5 42.1428
1150.5 63.8571
1151.5 19.4286
1152.5 25.4285
1153.5 70.8571
1154.5 641
1155.5 2049.86
1156.5 4638.71
1157.5 4843.86
1158.5 1956.57
1159.5 388
1160.5 72.1428
1161.5 9.71427
1162.5 -5.00002
1163.5 -13
1164.5 14.7143
1165.5 -35.8572
1166.5 23.5714
1167.5 42.1428
1168.5 -5.7143
1169.5 25.2857
1170.5 20.7143
1171.5 16
1172.5 12.8571
1173.5 54
1174.5 3.57141
1175.5 8.85713
1176.5 13.1428
1177.5 35.1428
1178.5 -29.5714
1179.5 -23
1180.5 -10.1429
1181.5 23.4286
1182.5 84.1428
1183.5 8.42855
1184.5 43.4286
1185.5 106.286
1186.5 60
1187.5 62.7143
1188.5 55.1428
1189.5 44.1428
1190.5 31.4286
1191.5 58.7143
1192.5 65.1428
1193.5 15.7143
1194.5 59
1195.5 10.4286
1196.5 30.8571
1197.5 53.5714
1198.5 -0.857156
1199.5 5.2857
1200.5 2.2857
1201.5 52.1428
1202.5 8.57141
1203.5 19.7143
1204.5 47.5714
1205.5 66.5714
1206.5 27.2857
1207.5 -41
1208.5 -16.7143
1209.5 22.4286
1210.5 50.7143
1211.5 35.7143
1212.5 20.2857
1213.5 0.857129
1214.5 14.5714
1215.5 -1.7143
1216.5 -11
1217.5 124.429
1218.5 161.286
1219.5 72.1428
1220.5 45.5714
1221.5 14
1222.5 2.71427
1223.5 20.1428
1224.5 -16.5714
1225.5 56.1428
1226.5 81.7143
1227.5 86.2857
1228.5 69.4286
1229.5 -35
1230.5 -2.85716
1231.5 -52.5714
1232.5 43.4286
1233.5 -43.8572
1234.5 0.428559
1235.5 -28.5714
1236.5 -2.42858
1237.5 18
1238.5 16.7143
1239.5 -3.57144
1240.5 28.7143
1241.5 57.5714
1242.5 18
1243.5 13.5714
1244.5 -11.4286
1245.5 6.99999
1246.5 3.99999
1247.5 16.8571
1248.5 -8.42858
1249.5 1.2857
1250.5 22.4286
1251.5 54.8571
1252.5 -4.42858
1253.5 13.1428
1254.5 27.2857
1255.5 22.4286
1256.5 -8.57144
1257.5 -1.57144
1258.5 22.7143
1259.5 29.4286
1260.5 15
1261.5 -34.7143
1262.5 5.71427
1263.5 22.5714
1264.5 -3.85716
1265.5 -40.4286
1266.5 -12
1267.5 26.4286
1268.5 0.714271
1269.5 42.2857
1270.5 31.8571
1271.5 28.4286
1272.5 23
1273.5 69.7143
1274.5 37.4286
1275.5 81.8571
1276.5 141
1277.5 101.571
1278.5 -4.85716
1279.5 -8.00001
1280.5 6.99999
1281.5 64.4286
1282.5 81.8571
1283.5 51.7143
1284.5 32.8571
1285.5 34.7143
1286.5 32.4286
1287.5 -29.4286
1288.5 14.2857
1289.5 77.1428
1290.5 40
1291.5 -7.00001
1292.5 90.8571
1293.5 16.7143
1294.5 -38.5714
1295.5 22.1428
1296.5 15.8571
1297.5 -15.4286
1298.5 41.5714
1299.5 47.4286
1300.5 3.2857
1301.5 8.57142
1302.5 -15.5714
1303.5 44.5714
1304.5 -15.7143
1305.5 5.42856
1306.5 6.85713
1307.5 -42.8572
1308.5 3.14284
1309.5 -0.714301
1310.5 87
1311.5 -18.2857
1312.5 35.1428
1313.5 5.99999
1314.5 24.2857
1315.5 37
1316.5 9.57142
1317.5 28.7143
1318.5 -4.42858
1319.5 6.14285
1320.5 24.1428
1321.5 21.8571
1322.5 37.2857
1323.5 20.4286
1324.5 35.5714
1325.5 41.1428
1326.5 -25.7143
1327.5 24
1328.5 -3.42858
1329.5 2.42856
1330.5 -30.4286
1331.5 0.571415
1332.5 -6.28573
1333.5 7.57142
1334.5 71.2857
1335.5 4.71427
1336.5 35.5714
1337.5 12.2857
1338.5 31.8571
1339.5 -4.85715
1340.5 9.42856
1341.5 -0.285726
1342.5 -61.7143
1343.5 -6.85715
1344.5 -2.28573
1345.5 11.7143
1346.5 12.2857
1347.5 23.1428
1348.5 -28.4286
1349.5 -15.7143
1350.5 15.1428
1351.5 -8.42858
1352.5 23.1428
1353.5 3.42856
1354.5 50.7143
1355.5 -44.7143
1356.5 9.85713
1357.5 -32.4286
1358.5 24.8571
1359.5 -19.2857
1360.5 25
1361.5 5.85713
1362.5 -1.28573
1363.5 64.7143
1364.5 -9.85715
1365.5 -17.7143
1366.5 -26.5714
1367.5 15.1428
1368.5 -19.1429
1369.5 28.2857
1370.5 17.5714
1371.5 -40.8572
1372.5 6.85713
1373.5 -32.7143
1374.5 2.14284
1375.5 38.8571
1376.5 7.85713
1377.5 23.4286
1378.5 44.7143
1379.5 23.2857
1380.5 32.8571
1381.5 9.85713
1382.5 10.8571
1383.5 37.7143
1384.5 3.57142
1385.5 42.7143
1386.5 -16.1429
1387.5 30.7143
1388.5 4.14284
1389.5 61
1390.5 57.5714
1391.5 -32.5714
1392.5 -3.85715
1393.5 -56.4286
1394.5 65.5714
1395.5 -12
1396.5 23.7143
1397.5 27.8571
1398.5 -28.2857
1399.5 -14
1400.5 -50.7143
1401.5 -26.5714
1402.5 26.4286
1403.5 -27.8572
1404.5 -23.4286
1405.5 -52.1429
1406.5 15
1407.5 7.42856
1408.5 -6.85715
1409.5 -8.42858
1410.5 3.57142
1411.5 -36.8572
1412.5 -23.1429
1413.5 -28.5714
1414.5 -42.5714
1415.5 16.2857
1416.5 39.1428
1417.5 48.8571
1418.5 56.7143
1419.5 41.4286
1420.5 65.1428
1421.5 71.2857
1422.5 62.1428
1423.5 -1.28573
1424.5 46.8571
1425.5 73.8571
1426.5 199.286
1427.5 550.714
1428.5 751.286
1429.5 510.143
1430.5 123.143
1431.5 57
1432.5 15.1428
1433.5 48.7143
1434.5 -2.85715
1435.5 -6.28573
1436.5 25.5714
1437.5 2.85713
1438.5 -72.5714
1439.5 -8.85715
1440.5 -1.85715
1441.5 -14.1429
1442.5 -19.8572
1443.5 -21
1444.5 -24.1429
1445.5 -20.4286
1446.5 9.2857
1447.5 33.1428
1448.5 12.7143
1449.5 -28.7143
1450.5 -10
1451.5 28.5714
1452.5 -1.00001
1453.5 15.4286
1454.5 0.285704
1455.5 -6.14287
1456.5 2.42856
1457.5 -35.5714
1458.5 -11.5714
1459.5 22.4286
1460.5 -29.5714
1461.5 -15.7143
1462.5 37.8571
1463.5 31.5714
1464.5 17.1428
1465.5 27.4286
1466.5 -14.1429
1467.5 -82.2857
1468.5 2.85713
1469.5 -53.2857
1470.5 -9.00001
1471.5 -34
1472.5 17.5714
1473.5 -53.4286
1474.5 -2.14287
1475.5 31.5714
1476.5 17.7143
1477.5 9.14285
1478.5 -24.4286
1479.5 -6.57144
1480.5 26.7143
1481.5 -3.28573
1482.5 8.57142
1483.5 36.8571
1484.5 -14.8572
1485.5 37.1428
1486.5 46.8571
1487.5 19
1488.5 -53
1489.5 38.2857
1490.5 32
1491.5 -38.4286
1492.5 -13.5714
1493.5 -7.00001
1494.5 75.8571
1495.5 -41.8572
1496.5 -43.8572
1497.5 -5.00003
1498.5 235.857
1499.5 267.857
1500.5 201.857
1501.5 111.857
1502.5 43.4286
1503.5 -27.7143
1504.5 56
1505.5 -5.00001
1506.5 -38.5714
1507.5 -38.4286
1508.5 0.142845
1509.5 47.7143
1510.5 8.71427
1511.5 8.85713
1512.5 15.1428
1513.5 -3.85715
1514.5 14.1428
1515.5 -56.8572
1516.5 44.5714
1517.5 -10.5714
1518.5 -16.8572
1519.5 46.1428
1520.5 63.1428
1521.5 -13.5714
1522.5 -2.7143
1523.5 12
1524.5 -15.8572
1525.5 26.5714
1526.5 79.2857
1527.5 12.1428
1528.5 43.7143
1529.5 9.85713
1530.5 -11.1429
1531.5 10.4286
1532.5 -10.2857
1533.5 16.7143
1534.5 -20.4286
1535.5 46.2857
1536.5 22.8571
1537.5 38.4286
1538.5 77.4286
1539.5 263.429
1540.5 175
1541.5 53.1428
1542.5 19.1428
1543.5 36.1428
1544.5 -18
1545.5 14.7143
1546.5 8.85713
1547.5 -47.1429
1548.5 13.8571
1549.5 -2.7143
1550.5 28.2857
1551.5 34.2857
1552.5 -12.5714
1553.5 29.4286
1554.5 46.8571
1555.5 -8.00001
1556.5 -21.5714
1557.5 38.4286
1558.5 -5.85715
1559.5 19.4286
1560.5 44.2857
1561.5 30
1562.5 47.2857
1563.5 38.4286
1564.5 -42.5714
1565.5 36
1566.5 62.5714
1567.5 -31.5714
1568.5 -21.1429
1569.5 19.4286
1570.5 9.57142
1571.5 -23.5714
1572.5 -16.4286
1573.5 4.85713
1574.5 -9.28573
1575.5 28.4286
1576.5 -26.1429
1577.5 41.7143
1578.5 45.4286
1579.5 -19
1580.5 24.7143
1581.5 -20.7143
1582.5 -61.8572
1583.5 -20
1584.5 39.5714
1585.5 -23.8572
1586.5 46.7143
1587.5 9.71427
1588.5 -15
1589.5 60.1428
1590.5 3.42856
1591.5 7.2857
1592.5 -28.4286
1593.5 -12.8572
1594.5 -24.1429
1595.5 -0.142867
1596.5 1.2857
1597.5 -42.5714
1598.5 19.5714
1599.5 71.2857
1600.5 -61
1601.5 15
1602.5 4.71428
1603.5 37.2857
1604.5 39.8571
1605.5 5.85713
1606.5 43.1428
1607.5 5.2857
1608.5 -4.57144
1609.5 43.1428
1610.5 -3.28572
1611.5 2.2857
1612.5 -40.8572
1613.5 8.42856
1614.5 -76.8572
1615.5 -9.53674e-06
1616.5 18.5714
1617.5 68.1428
1618.5 14.7143
1619.5 65.7143
1620.5 35.1428
1621.5 32.7143
1622.5 29.4286
1623.5 -3.85716
1624.5 -14.7143
1625.5 59.1428
1626.5 18.7143
1627.5 43.5714
1628.5 -0.142869
1629.5 10.1428
1630.5 -61.7143
1631.5 10.1428
1632.5 -26
1633.5 16.4286
1634.5 7.85713
1635.5 46.2857
1636.5 19.1428
1637.5 -10.4286
1638.5 25
1639.5 0.999984
1640.5 -15.8572
1641.5 -49.5714
1642.5 -11
1643.5 -13.2857
1644.5 -2.00001
1645.5 -43.7143
1646.5 -4.14287
1647.5 -52
1648.5 -74.7143
1649.5 4.85713
1650.5 53.2857
1651.5 -8.42858
1652.5 30.5714
1653.5 11.8571
1654.5 -7.57144
1655.5 11.1428
1656.5 -10.1429
1657.5 -97.1429
1658.5 15.7143
1659.5 44.5714
1660.5 39.8571
1661.5 -26.8572
1662.5 34
1663.5 -2.00001
1664.5 -6.28572
1665.5 37.7143
1666.5 18.8571
1667.5 -4.00001
1668.5 -29.4286
1669.5 30.2857
1670.5 31
1671.5 79.5714
1672.5 96.1428
1673.5 137.429
1674.5 32.1428
1675.5 -30.2857
1676.5 78.7143
1677.5 34.5714
1678.5 14.7143
1679.5 14.5714
1680.5 57.7143
1681.5 7.42856
1682.5 6.14285
1683.5 -8.28573
1684.5 11.2857
1685.5 -17.5714
1686.5 -36.2857
1687.5 7.71428
1688.5 7.71428
1689.5 9.42856
1690.5 36.4286
1691.5 12.8571
1692.5 -62.8572
1693.5 0.571419
1694.5 23.5714
1695.5 -35.1429
1696.5 29
1697.5 31.2857
1698.5 -58.2857
1699.5 -11.1429
1700.5 -24.2857
1701.5 -9.7143
1702.5 -5.42858
1703.5 -19.2857
1704.5 31.1428
1705.5 -1.57144
1706.5 -11.8572
1707.5 -0.714296
1708.5 -41.7143
1709.5 -13.4286
1710.5 -12.1429
1711.5 14.5714
1712.5 18.8571
1713.5 3.42856
1714.5 -19.5714
1715.5 31.2857
1716.5 3.2857
1717.5 -64
1718.5 32.2857
1719.5 44.1428
1720.5 -25.1429
1721.5 -17
1722.5 -13
1723.5 32.1428
1724.5 -21.1429
1725.5 6.85713
1726.5 -37
1727.5 -23.8572
1728.5 14
1729.5 9.85713
1730.5 20
1731.5 -6.57144
1732.5 -8.42858
1733.5 0.857133
1734.5 -13.5714
1735.5 -38.1429
1736.5 -36.7143
1737.5 41.8571
1738.5 -20.8572
1739.5 22.5714
1740.5 88.5714
1741.5 182.429
1742.5 140.571
1743.5 95.5714
1744.5 61.4286
1745.5 8.99999
1746.5 2.28571
1747.5 34.8571
1748.5 -3.14287
1749.5 42.7143
1750.5 32
1751.5 58.8571
1752.5 17.1428
1753.5 -16.8572
1754.5 -2.57144
1755.5 -22
1756.5 12.4286
1757.5 26.1428
1758.5 -47.8572
1759.5 -36.7143
1760.5 36.2857
1761.5 33
1762.5 -8.28572
1763.5 41.2857
1764.5 18.7143
1765.5 42.4286
1766.5 -34.7143
1767.5 53.2857
1768.5 -33.7143
1769.5 20.5714
1770.5 -22
1771.5 -49
1772.5 15.4286
1773.5 37
1774.5 -39
1775.5 -34.4286
1776.5 26.4286
1777.5 -43.7143
1778.5 49.4286
1779.5 -10.4286
1780.5 9.99999
1781.5 41.2857
1782.5 4.2857
1783.5 -36.8572
1784.5 1.71428
1785.5 -33.2857
1786.5 -39.5714
1787.5 5.85713
1788.5 30.2857
1789.5 -14.4286
1790.5 18.4286
1791.5 -12.1429
1792.5 12.4286
1793.5 -9.14287
1794.5 9.99999
1795.5 9.71428
1796.5 -11
1797.5 -14.2857
1798.5 73.8571
1799.5 20.2857
1800.5 17.7143
1801.5 47
1802.5 -35
1803.5 10.8571
1804.5 34.7143
1805.5 66
1806.5 79
1807.5 294.143
1808.5 506.571
1809.5 416.714
1810.5 187.857
1811.5 76.1428
1812.5 -6.00001
1813.5 -11
1814.5 31.7143
1815.5 -0.42858
1816.5 1.71428
1817.5 26.4286
1818.5 5.85713
1819.5 16.4286
1820.5 -36.8572
1821.5 14.4286
1822.5 -26.5714
1823.5 -3.85715
1824.5 0.285705
1825.5 -60.5714
1826.5 -5.42858
1827.5 -27.8572
1828.5 35
1829.5 35.2857
1830.5 0.428563
1831.5 -9.42858
1832.5 47.2857
1833.5 -10.2857
1834.5 -33.1429
1835.5 -21.1429
1836.5 36
1837.5 -11.2857
1838.5 15.2857
1839.5 53.8571
1840.5 -23.7143
1841.5 43.5714
1842.5 -22.8572
1843.5 65.7143
1844.5 -18.1429
1845.5 26.1428
1846.5 19.7143
1847.5 0.285706
1848.5 -6.71429
1849.5 -21.2857
1850.5 16.8571
1851.5 -4.57144
1852.5 25
1853.5 2.14285
1854.5 0.857134
1855.5 -9.00001
1856.5 -33.7143
1857.5 31.1428
1858.5 -30.1429
1859.5 15
1860.5 -9.85715
1861.5 -16.2857
1862.5 15.1428
1863.5 20.2857
1864.5 5.57142
1865.5 -6.57144
1866.5 36.7143
1867.5 -11.2857
1868.5 0.714277
1869.5 -26.4286
1870.5 -5.85716
1871.5 -111.571
1872.5 -64
1873.5 -53.4286
1874.5 -4.28573
1875.5 34.4286
1876.5 -17.2857
1877.5 15.1428
1878.5 2.85713
1879.5 15
1880.5 -5.00001
1881.5 -1.71429
1882.5 -0.285724
1883.5 15.7143
1884.5 -29.1429
1885.5 22.2857
1886.5 -154.857
1887.5 -178.714
1888.5 -38.7143
1889.5 -2.7143
1890.5 -29.7143
1891.5 -8.42858
1892.5 -12.2857
1893.5 21.7143
1894.5 13.8571
1895.5 -12
1896.5 -6.42858
1897.5 -29.1429
1898.5 -15.1429
1899.5 27
1900.5 23.8571
1901.5 -9.7143
1902.5 -14.2857
1903.5 -11.4286
1904.5 4.99999
1905.5 2.14285
1906.5 -20
1907.5 49.7143
1908.5 39.1428
1909.5 36.1428
1910.5 25.8571
1911.5 -27.8572
1912.5 -32.4286
1913.5 -38.4286
1914.5 -6.28572
1915.5 45.4286
1916.5 12.7143
1917.5 9.28571
1918.5 16.8571
1919.5 17
1920.5 45.8571
1921.5 9.2857
1922.5 -20.7143
1923.5 0.99999
1924.5 -6.57144
1925.5 43.5714
1926.5 16
1927.5 14
1928.5 5.71428
1929.5 1.71428
1930.5 22.4286
1931.5 -17.2857
1932.5 -2.71429
1933.5 18.1428
1934.5 2.99999
1935.5 22.8571
1936.5 -8.71429
1937.5 35.5714
1938.5 27.8571
1939.5 58.8571
1940.5 -22.1429
1941.5 -8.00002
1942.5 -22.8572
1943.5 23.8571
1944.5 21.8571
1945.5 -7.14287
1946.5 38.2857
1947.5 8.71428
1948.5 -9.42858
1949.5 -2.42858
1950.5 -6.85715
1951.5 49
1952.5 30.2857
1953.5 -24.2857
1954.5 34
1955.5 13.4286
1956.5 21.5714
1957.5 2.85713
1958.5 -19.4286
1959.5 2.2857
1960.5 8.71428
1961.5 22.5714
1962.5 -15.4286
1963.5 13
1964.5 -16.7143
1965.5 2.14285
1966.5 23.4286
1967.5 -5.42858
1968.5 -16.7143
1969.5 -8.14287
1970.5 28.7143
1971.5 25.5714
1972.5 24.2857
1973.5 7.28571
1974.5 22.7143
1975.5 -14.5714
1976.5 -32.4286
1977.5 20.1428
1978.5 -36.7143
1979.5 -6.57144
1980.5 19.7143
1981.5 -4.7143
1982.5 -68.4286
1983.5 -7.00001
1984.5 18.4286
1985.5 -6.28572
1986.5 -8.28572
1987.5 -11.1429
1988.5 -8.57144
1989.5 11.1428
1990.5 10.7143
1991.5 7.99999
1992.5 15.7143
1993.5 2.42855
1994.5 -16.7143
1995.5 14.2857
1996.5 47
1997.5 17.5714
1998.5 4.85713
1999.5 50.4286
2000.5 59.1428
2001.5 18.5714
2002.5 5.85713
2003.5 -9.28572
2004.5 6.28571
2005.5 2.57142
2006.5 -6.28572
2007.5 42
2008.5 -18.4286
2009.5 -63.4286
2010.5 -5.28572
2011.5 47.2857
2012.5 2.85714
2013.5 3.57142
2014.5 -2.14286
2015.5 14
2016.5 14
2017.5 22.2857
2018.5 -20.2857
2019.5 6.99999
2020.5 -34.5714
2021.5 -15.8572
2022.5 11.4286
2023.5 28.8571
2024.5 18.2857
2025.5 9.71428
2026.5 2.99999
2027.5 -1.28572
2028.5 8.99999
2029.5 18.1428
2030.5 -21.8572
2031.5 31.4286
2032.5 -3.00001
2033.5 -19.1429
2034.5 0.999992
2035.5 -7.00001
2036.5 -23
2037.5 1.57142
2038.5 26
2039.5 -15.5714
2040.5 13.4286
2041.5 9.42856
2042.5 -6.00001
2043.5 -4.28572
2044.5 -42.7143
2045.5 58.2857
2046.5 30.1428
2047.5 5.99999
2048.5 15.8571
2049.5 -21.5714
2050.5 -5.57144
2051.5 15.1428
2052.5 15.5714
2053.5 -2.71429
2054.5 -2.42858
2055.5 -31.1429
2056.5 -6.42858
2057.5 7.71428
2058.5 -7.28572
2059.5 14.2857
2060.5 -4.71429
2061.5 53.5714
2062.5 15.4286
2063.5 0.857135
2064.5 -5.42858
2065.5 9.99999
2066.5 26.5714
2067.5 39.8571
2068.5 50
2069.5 3.99999
2070.5 -33.8572
2071.5 -3.85715
2072.5 14.8571
2073.5 -1.57144
2074.5 17.8571
2075.5 -40.2857
2076.5 -22.2857
2077.5 -51.8572
2078.5 18.2857
2079.5 3.57142
2080.5 17.5714
2081.5 -35.8572
2082.5 9.28571
2083.5 -42.2857
2084.5 -32.4286
2085.5 -40.5714
2086.5 -76.4286
2087.5 -46.7143
2088.5 2.14284
2089.5 0.428561
2090.5 -6.57144
2091.5 9.71428
2092.5 39.1428
2093.5 5.14285
2094.5 -0.714293
2095.5 -10.5714
2096.5 -0.571437
2097.5 12.2857
2098.5 19.5714
2099.5 -18.8572
2100.5 29.8571
2101.5 1.28571
2102.5 -14.2857
2103.5 19.4286
2104.5 3.14285
2105.5 55.1428
2106.5 -9.85715
2107.5 11.7143
2108.5 -5.42858
2109.5 19.4286
2110.5 -3.28572
2111.5 -1.42858
2112.5 47.7143
2113.5 95.7143
2114.5 90.4286
2115.5 95
2116.5 107.286
2117.5 59.8571
2118.5 72.7143
2119.5 16.8571
2120.5 19.7143
2121.5 9.99999
2122.5 5.28571
2123.5 -14.5714
2124.5 -6.42858
2125.5 25.4286
2126.5 6.85714
2127.5 -8.71429
2128.5 20.2857
2129.5 6.99999
2130.5 42.7143
2131.5 1.71428
2132.5 9.14285
2133.5 21.4286
2134.5 -0.85715
2135.5 -17.7143
2136.5 37.5714
2137.5 -5.57144
2138.5 2.99999
2139.5 -20.4286
2140.5 20.8571
2141.5 20.5714
2142.5 66.5714
2143.5 2.42856
2144.5 33.8571
2145.5 -34
2146.5 58.5714
2147.5 95.4286
2148.5 200.143
2149.5 425
2150.5 634
2151.5 467.429
2152.5 246
2153.5 46.1428
2154.5 16.4286
2155.5 -54.5714
2156.5 3.42856
2157.5 21.4286
2158.5 -7.14286
2159.5 -6.85715
2160.5 -18
2161.5 -59.1429
2162.5 -8.00001
2163.5 -3.57144
2164.5 14.8571
2165.5 2.28571
2166.5 45.8571
2167.5 10.7143
2168.5 44.4286
2169.5 34.2857
2170.5 8.28571
2171.5 0.571422
2172.5 -23.1429
2173.5 -3.71429
2174.5 -13.4286
2175.5 -36.1429
2176.5 -5.42858
2177.5 24.2857
2178.5 -14.2857
2179.5 -17.4286
2180.5 32.4286
2181.5 -32.2857
2182.5 -33.4286
2183.5 9.85714
2184.5 32
2185.5 -19.4286
2186.5 -7.71429
2187.5 5.71428
2188.5 35.1428
2189.5 7.28571
2190.5 -27.8572
2191.5 26
2192.5 10.7143
2193.5 -55.1429
2194.5 4.99999
2195.5 27.5714
2196.5 -1.00001
2197.5 -15
2198.5 -41.7143
2199.5 12.8571
2200.5 -29.1429
2201.5 32.5714
2202.5 -22.8572
2203.5 20.7143
2204.5 -15.5714
2205.5 2.14285
2206.5 3.85714
2207.5 -12.5714
2208.5 -24.4286
2209.5 -3.14286
2210.5 -10.2857
2211.5 28.7143
2212.5 3.28571
2213.5 -0.571435
2214.5 -34.8572
2215.5 -30.2857
2216.5 -20.5714
2217.5 -22.7143
2218.5 24
2219.5 32.8571
2220.5 -2.85715
2221.5 -41.7143
2222.5 12.2857
2223.5 -32
2224.5 -18.1429
2225.5 33.5714
2226.5 4.42857
2227.5 -7.42858
2228.5 25.4286
2229.5 26.1428
2230.5 5.28571
2231.5 3.14285
2232.5 25.1429
2233.5 -19.7143
2234.5 0.14285
2235.5 -4.71429
2236.5 11.7143
2237.5 7.42857
2238.5 -14.1429
2239.5 -21.8571
2240.5 28.4286
2241.5 25.5714
2242.5 -11.4286
2243.5 14.4286
2244.5 -17
2245.5 -22.4286
2246.5 -24
2247.5 -37
2248.5 -32.8572
2249.5 -31
2250.5 -4.00001
2251.5 27.2857
2252.5 9.99999
2253.5 21.7143
2254.5 -31.7143
2255.5 11.8571
2256.5 -7.85715
2257.5 30.8571
2258.5 5.71428
2259.5 14.8571
2260.5 20.4286
2261.5 -37.5714
2262.5 -5.57144
2263.5 -16.1429
2264.5 8.57142
2265.5 -17.4286
2266.5 8.71428
2267.5 37.8571
2268.5 3.99999
2269.5 55.1429
2270.5 122.143
2271.5 118.714
2272.5 104.571
2273.5 40.4286
2274.5 39.2857
2275.5 13.7143
2276.5 -5.57144
2277.5 -7.28572
2278.5 -43.1429
2279.5 -73.5714
2280.5 -155.143
2281.5 -57
2282.5 -60.1429
2283.5 -35.5714
2284.5 16.1429
2285.5 -4.57144
2286.5 -25
2287.5 -14
2288.5 -20
2289.5 28.1429
2290.5 16.5714
2291.5 -27.5714
2292.5 20.7143
2293.5 -4.57143
2294.5 24.7143
2295.5 -5.57144
2296.5 29.2857
2297.5 24
2298.5 25
2299.5 114
2300.5 173.714
2301.5 166.714
2302.5 121.286
2303.5 48.8571
2304.5 -19.5714
2305.5 -6.07967e-06
2306.5 -4.28572
2307.5 0.571422
2308.5 -6.07967e-06
2309.5 -5.28572
2310.5 -28.5714
2311.5 -1.00001
2312.5 -27.7143
2313.5 12.5714
2314.5 -24.7143
2315.5 -7.57143
2316.5 -10.2857
2317.5 -7.85715
2318.5 30.1429
2319.5 -15.4286
2320.5 7.14285
2321.5 9.71428
2322.5 2.71428
2323.5 -15.4286
2324.5 54
2325.5 5.71428
2326.5 1.14285
2327.5 -12.1429
2328.5 12.7143
2329.5 -21.2857
2330.5 -15.8571
2331.5 -10.8571
2332.5 -1.42858
2333.5 7.71428
2334.5 -5.14286
2335.5 -35.8571
2336.5 -50
2337.5 24.8571
2338.5 -5.57143
2339.5 -2.28572
2340.5 7.14285
2341.5 35.2857
2342.5 -18.4286
2343.5 24.2857
2344.5 15.1428
2345.5 49.5714
2346.5 15.5714
2347.5 -0.428578
2348.5 -17.5714
2349.5 0.285708
2350.5 2.57142
2351.5 -46
2352.5 22.2857
2353.5 -22.2857
2354.5 -21.4286
2355.5 -25
2356.5 -7.85715
2357.5 6.42856
2358.5 -14
2359.5 7.42857
2360.5 5.42857
2361.5 -46.2857
2362.5 -6.19888e-06
2363.5 4.99999
2364.5 6.71428
2365.5 -12
2366.5 -9.85715
2367.5 10.1429
2368.5 -8.28572
2369.5 -22.4286
2370.5 -19.1429
2371.5 -15.5714
2372.5 -9.42858
2373.5 -35.8571
2374.5 4.42856
2375.5 11.1429
2376.5 4.57142
2377.5 5.14285
2378.5 4.57142
2379.5 -31.7143
2380.5 -3.57143
2381.5 1.85714
2382.5 -19
2383.5 -11
2384.5 13
2385.5 -0.857149
2386.5 59.1429
2387.5 -38.5714
2388.5 20.1429
2389.5 -12.2857
2390.5 -8.00001
2391.5 -4.71429
2392.5 34.5714
2393.5 6.99999
2394.5 5.14285
2395.5 15.8571
2396.5 10.5714
2397.5 0.571422
2398.5 -18.1429
2399.5 25.7143
2400.5 35.4286
2401.5 8.99999
2402.5 14.8571
2403.5 8.42857
2404.5 14.4286
2405.5 20
2406.5 8.57142
2407.5 5.85714
2408.5 -11.4286
2409.5 4.42857
2410.5 8.85714
2411.5 58
2412.5 1.14285
2413.5 7.57142
2414.5 32.7143
2415.5 -9.85715
2416.5 32.2857
2417.5 6.28571
2418.5 57.7143
2419.5 -43.7143
2420.5 7.28571
2421.5 20.2857
2422.5 30.7143
2423.5 -10.5714
2424.5 25.8571
2425.5 41.5714
2426.5 9.14285
2427.5 -0.85715
2428.5 12.2857
2429.5 35.4286
2430.5 36.2857
2431.5 16.2857
2432.5 -13.1429
2433.5 -35.2857
2434.5 13.1429
2435.5 -43
2436.5 10.1429
2437.5 -20.1429
2438.5 1.71428
2439.5 -9.57143
2440.5 3.85714
2441.5 -36.1429
2442.5 -19
2443.5 -18.8571
2444.5 -32.7143
2445.5 -15.2857
2446.5 44.8571
2447.5 -14.7143
2448.5 -44
2449.5 14.1429
2450.5 -8.57143
2451.5 -9.42858
2452.5 7.28571
2453.5 5.57142
2454.5 10.4286
2455.5 33
2456.5 11.2857
2457.5 -12.4286
2458.5 -5.71429
2459.5 9.14285
2460.5 5.57142
2461.5 -12.8571
2462.5 -43.2857
2463.5 -28
2464.5 -9.28572
2465.5 1.99999
2466.5 -24.2857
2467.5 -4.85715
2468.5 -16.5714
2469.5 0.142851
2470.5 -28.4286
2471.5 19
2472.5 -10.7143
2473.5 13.2857
2474.5 1.71428
2475.5 -2.71429
2476.5 -30.2857
2477.5 27.5714
2478.5 4.85714
2479.5 -3.85715
2480.5 12.4286
2481.5 40.4286
2482.5 17.2857
2483.5 18.4286
2484.5 -1.71429
2485.5 40.7143
2486.5 32.5714
2487.5 -2.71429
2488.5 -28.4286
2489.5 -1.71429
2490.5 29.2857
2491.5 8.71428
2492.5 1.28571
2493.5 -7.28572
2494.5 -2.71429
2495.5 -24.5714
2496.5 -47.8572
2497.5 -9.42858
2498.5 36.1429
2499.5 0.857136
2500.5 -6.28572
2501.5 23.5714
2502.5 4.71428
2503.5 -18.4286
2504.5 24.2857
2505.5 -16.2857
2506.5 -11.1429
2507.5 -26.7143
2508.5 -8.57144
2509.5 3.14285
2510.5 -30.7143
2511.5 0.428565
2512.5 54
2513.5 39.5714
2514.5 20.4286
2515.5 -24
2516.5 6.99999
2517.5 10.1428
2518.5 21.4286
2519.5 3.71427
2520.5 23.4286
2521.5 -29.4286
2522.5 -11.4286
2523.5 35.8571
2524.5 2.85714
2525.5 -15
2526.5 18.7143
2527.5 -7.14287
2528.5 53.2857
2529.5 11.1428
2530.5 -19.4286
2531.5 2.14285
2532.5 -22.1429
2533.5 -25.1429
2534.5 -27.4286
2535.5 -14.1429
2536.5 -3.42858
2537.5 -29.2857
2538.5 -22.4286
2539.5 -16.8571
2540.5 -28.5714
2541.5 -10.2857
2542.5 22
2543.5 -5.85715
2544.5 -34.1429
2545.5 -24.2857
2546.5 28.4286
2547.5 2.71428
2548.5 -10
2549.5 -1.28572
2550.5 23.1429
2551.5 33.7143
2552.5 -16.5714
2553.5 13
2554.5 12.5714
2555.5 13.8571
2556.5 9.14285
2557.5 -7.85715
2558.5 -20.4286
2559.5 22.4286
2560.5 -5.42858
2561.5 9.28571
2562.5 4.71428
2563.5 -16
2564.5 12.4286
2565.5 -15.2857
2566.5 -5.72205e-06
2567.5 -5.71429
2568.5 10.7143
2569.5 22.1429
2570.5 -4.28572
2571.5 13.7143
2572.5 -3.00001
2573.5 -4.57143
2574.5 -21.7143
2575.5 16.8571
2576.5 10.8571
2577.5 -7.00001
2578.5 11
2579.5 28.7143
2580.5 33
2581.5 33.5714
2582.5 17
2583.5 8.28571
2584.5 11.1429
2585.5 25.8571
2586.5 7.14285
2587.5 0.142851
2588.5 -5.42858
2589.5 -28.1429
2590.5 0.857137
2591.5 19.4286
2592.5 -1.28572
2593.5 -6.85715
2594.5 -1.14286
2595.5 7.28571
2596.5 -35.1429
2597.5 -1.57143
2598.5 6.14285
2599.5 18.7143
2600.5 14.4286
2601.5 -7.00001
2602.5 19.1429
2603.5 35.8571
2604.5 15.1429
2605.5 32.1429
2606.5 -2.57143
2607.5 -29.4286
2608.5 -14
2609.5 8.14285
2610.5 5.71428
2611.5 34.2857
2612.5 7.42856
2613.5 -30.4286
2614.5 -18.1429
2615.5 25.2857
2616.5 -8.71429
2617.5 -1.00001
2618.5 -15.5714
2619.5 12.5714
2620.5 14.8571
2621.5 -41
2622.5 -16.5714
2623.5 27
2624.5 -12.8571
2625.5 -35.4286
2626.5 35.4286
2627.5 39.4286
2628.5 11
2629.5 -8.14286
2630.5 15.4286
2631.5 10.1429
2632.5 29.1429
2633.5 13.5714
2634.5 -33.8571
2635.5 12.2857
2636.5 -13.7143
2637.5 14.8571
2638.5 -40.4286
2639.5 10.7143
2640.5 -36
2641.5 15
2642.5 -22.8571
2643.5 -31.8571
2644.5 -27
2645.5 -8.85715
2646.5 -11.7143
2647.5 -12.4286
2648.5 14.2857
2649.5 7.99999
2650.5 -6.28572
2651.5 24.4286
2652.5 41.2857
2653.5 16.2857
2654.5 6.71428
2655.5 17.5714
2656.5 -20.7143
2657.5 84.7143
2658.5 -24.5714
2659.5 3.99999
2660.5 -18
2661.5 -10.7143
2662.5 3.42857
2663.5 -3.42858
2664.5 -9.42858
2665.5 5.99999
2666.5 17.7143
2667.5 20
2668.5 -0.142863
2669.5 -1.71429
2670.5 -11.8571
2671.5 1.57142
2672.5 -2.85715
2673.5 5.42857
2674.5 -23.7143
2675.5 -4.14286
2676.5 18.8571
2677.5 -24.1429
2678.5 16.7143
2679.5 54.8571
2680.5 -18.2857
2681.5 -16.4286
2682.5 9.42857
2683.5 -16.5714
2684.5 -5.14286
2685.5 -17.8571
2686.5 -2.42858
2687.5 -13.7143
2688.5 41
2689.5 -22.5714
2690.5 3.14285
2691.5 -9.28572
2692.5 6.99999
2693.5 14
2694.5 20
2695.5 3.14285
2696.5 -0.428576
2697.5 -17.5714
2698.5 2.57142
2699.5 -16.4286
2700.5 31.7143
2701.5 -1
2702.5 26
2703.5 -5.24521e-06
2704.5 7.71428
2705.5 27.1429
2706.5 -17.7143
2707.5 16
2708.5 6.42857
2709.5 -7.71429
2710.5 32.5714
2711.5 10.2857
2712.5 17.8571
2713.5 7.57142
2714.5 -27.1429
2715.5 -4.42858
2716.5 0.428565
2717.5 9.42856
2718.5 21.2857
2719.5 -4.00001
2720.5 -41.5714
2721.5 81
2722.5 11.7143
2723.5 26.2857
2724.5 36.7143
2725.5 -4.85715
2726.5 7.42857
2727.5 39.1429
2728.5 47.7143
2729.5 33.1429
2730.5 12.2857
2731.5 3.99999
2732.5 16.8571
2733.5 5.99999
2734.5 30.8571
2735.5 32.8571
2736.5 5.99999
2737.5 -4.00001
2738.5 17.1429
2739.5 8
2740.5 3.42857
2741.5 -10.1429
2742.5 -7.85715
2743.5 7.57142
2744.5 6.42857
2745.5 -24.8571
2746.5 -5.85715
2747.5 7.57142
2748.5 12.4286
2749.5 -43.1429
2750.5 -20
2751.5 36
2752.5 -36
2753.5 40.7143
2754.5 3.57142
2755.5 -27.4286
2756.5 26.5714
2757.5 2.42857
2758.5 -15
2759.5 2.28571
2760.5 -30.8571
2761.5 10.8571
2762.5 5.14285
2763.5 36.1429
2764.5 -3.14286
2765.5 -28.7143
2766.5 29.2857
2767.5 -27.7143
2768.5 -38.8571
2769.5 24.7143
2770.5 -28.1429
2771.5 3.85714
2772.5 -16.1429
2773.5 -23.2857
2774.5 34.7143
2775.5 11.4286
2776.5 11.4286
2777.5 -0.714291
2778.5 4.57142
2779.5 23.8571
2780.5 24.1429
2781.5 -35
2782.5 -23.1429
2783.5 -11.7143
2784.5 25.2857
2785.5 -16.5714
2786.5 -6.71429
2787.5 14.1429
2788.5 10.2857
2789.5 -13.4286
2790.5 -29
2791.5 -29.4286
2792.5 20.8571
2793.5 -14.1429
2794.5 2.42857
2795.5 51.8571
2796.5 11.2857
2797.5 -3.28572
2798.5 18.2857
2799.5 16
2800.5 -11.1429
2801.5 30.1429
2802.5 -12
2803.5 22.4286
2804.5 -5.85715
2805.5 9.42857
2806.5 -20.1429
2807.5 -23.5714
2808.5 1.71428
2809.5 -13.8571
2810.5 -31.4286
2811.5 -16.2857
2812.5 0.571423
2813.5 -1.28572
2814.5 -13
2815.5 1.42856
2816.5 -7.85715
2817.5 24.7143
2818.5 -21.2857
2819.5 8
2820.5 4.42857
2821.5 -1.85715
2822.5 29.2857
2823.5 46.5714
2824.5 23
2825.5 1.71428
2826.5 2.71428
2827.5 16
2828.5 -18.5714
2829.5 1.57142
2830.5 -32.5714
2831.5 13.4286
2832.5 -6.57143
2833.5 -23.8571
2834.5 -19.4286
2835.5 -5.14286
2836.5 22.2857
2837.5 12.5714
2838.5 10
2839.5 38.8571
2840.5 -5.24521e-06
2841.5 30.1429
2842.5 1.57142
2843.5 -16
2844.5 1.57142
2845.5 15.8571
2846.5 -27.5714
2847.5 -3.71429
2848.5 47.2857
2849.5 -26.5714
2850.5 -13.1429
2851.5 -3.14286
2852.5 -11.8571
2853.5 1.28571
2854.5 2.14285
2855.5 1.99999
2856.5 -9.71429
2857.5 -22
2858.5 12.4286
2859.5 28
2860.5 28.1429
2861.5 -28.8571
2862.5 -23.2857
2863.5 4.57142
2864.5 15.1429
2865.5 26.5714
2866.5 -17.7143
2867.5 1.57142
2868.5 -9.14286
2869.5 7.42857
2870.5 11.1429
2871.5 -21.1429
2872.5 -10.4286
2873.5 -12
2874.5 -18.8571
2875.5 50.8571
2876.5 20.2857
2877.5 -1
2878.5 -4.71429
2879.5 25.5714
2880.5 -10.4286
2881.5 8.42857
2882.5 29.5714
2883.5 6
2884.5 -1.85715
2885.5 14.2857
2886.5 10.4286
2887.5 37.5714
2888.5 -0.28572
2889.5 12.4286
2890.5 60.1429
2891.5 -34.8571
2892.5 3.14285
2893.5 28.5714
2894.5 9.85714
2895.5 30.5714
2896.5 -3
2897.5 16.8571
2898.5 43.1429
2899.5 -12
2900.5 -1.28572
2901.5 -17.4286
2902.5 6.28571
2903.5 18.5714
2904.5 11.7143
2905.5 23.5714
2906.5 24.8571
2907.5 24.4286
2908.5 51.5714
2909.5 11.1429
2910.5 4.57142
2911.5 16.4286
2912.5 0.428566
2913.5 13.5714
2914.5 42
2915.5 66.7143
2916.5 41.7143
2917.5 26.8571
2918.5 29.5714
2919.5 17.1429
2920.5 2.71428
2921.5 -2.71429
2922.5 -0.571433
2923.5 -11.4286
2924.5 -5.85715
2925.5 9.14285
2926.5 -16
2927.5 21.7143
2928.5 1.71428
2929.5 -24
2930.5 31.8571
2931.5 -4.85715
2932.5 7.57142
2933.5 -13.4286
2934.5 -21.2857
2935.5 5.99999
2936.5 -4.42858
2937.5 26.8571
2938.5 15.8571
2939.5 -6.14286
2940.5 8
2941.5 18.1429
2942.5 -5.57143
2943.5 -26.2857
2944.5 48.2857
2945.5 24.8571
2946.5 12
2947.5 8.85713
2948.5 -29.4286
2949.5 3.99999
2950.5 -5.57144
2951.5 -1.71429
2952.5 6.71428
2953.5 6.85714
2954.5 -8.42858
2955.5 -8.85715
2956.5 15
2957.5 27.1429
2958.5 32.8571
2959.5 -8.85715
2960.5 18.7143
2961.5 -11.7143
2962.5 7.57142
2963.5 17.4286
2964.5 22.5714
2965.5 13.1429
2966.5 29.7143
2967.5 3.57142
2968.5 20.5714
2969.5 27
2970.5 41.7143
2971.5 24.7143
2972.5 22.4286
2973.5 -2.57143
2974.5 14.4286
2975.5 40.1429
2976.5 3.71428
2977.5 -7.42858
2978.5 3.57142
2979.5 17.2857
2980.5 31.7143
2981.5 -7.85715
2982.5 9.71428
2983.5 14.5714
2984.5 43.5714
2985.5 -15.5714
2986.5 7.85714
2987.5 8
2988.5 19.2857
2989.5 -49.4286
2990.5 6.28571
2991.5 14.4286
2992.5 -16.2857
2993.5 -8.00001
2994.5 -2.85715
2995.5 -1.00001
2996.5 31.4286
2997.5 -6.28572
2998.5 -22.5714
2999.5 -10.1429
3000.5 -26.7143
3001.5 3.85714
3002.5 6.99999
3003.5 26
3004.5 13.2857
3005.5 13.2857
3006.5 12.8571
3007.5 -20.5714
3008.5 41.7143
3009.5 14.7143
3010.5 -23.1429
3011.5 42.4286
3012.5 2.28571
3013.5 26.5714
3014.5 -27.7143
3015.5 34.4286
3016.5 -5.42858
3017.5 -14.2857
3018.5 26.4286
3019.5 -12
3020.5 47.8571
3021.5 3.14285
3022.5 -26.7143
3023.5 50.4286
3024.5 -7.42858
3025.5 0.857138
3026.5 19.2857
3027.5 -19.5714
3028.5 -1.85715
3029.5 17.5714
3030.5 2.14285
3031.5 -31.4286
3032.5 23.7143
3033.5 -11
3034.5 22.4286
3035.5 -42
3036.5 -19.7143
3037.5 -90.2857
3038.5 -74.5714
3039.5 -112.429
3040.5 -32.1429
3041.5 17.5714
3042.5 15.5714
3043.5 -7.00001
3044.5 -2
3045.5 35.4286
3046.5 -17.7143
3047.5 -2.85715
3048.5 20.1429
3049.5 7.14285
3050.5 9.71428
3051.5 -3.57144
3052.5 23.4286
3053.5 -29.7143
3054.5 43.2857
3055.5 45.2857
3056.5 -12.5714
3057.5 16.8571
3058.5 -25.8571
3059.5 2.71428
3060.5 7
3061.5 -10.8571
3062.5 26.5714
3063.5 2.42857
3064.5 37.4286
3065.5 32.4286
3066.5 13.1429
3067.5 -19.2857
3068.5 10
3069.5 6.57142
3070.5 14.4286
3071.5 -5.71429
3072.5 -36.4286
3073.5 -23.1429
3074.5 9.85714
3075.5 4.57142
3076.5 9
3077.5 -21
3078.5 21.2857
3079.5 21.7143
3080.5 -34.7143
3081.5 -9.42858
3082.5 -2
3083.5 8.71428
3084.5 4
3085.5 17.2857
3086.5 26.8571
3087.5 6.71428
3088.5 -11.4286
3089.5 -16
3090.5 29.8571
3091.5 7.14285
3092.5 -20.1429
3093.5 16.5714
3094.5 2.71428
3095.5 19.4286
3096.5 35.2857
3097.5 21.5714
3098.5 -21.2857
3099.5 7.71428
3100.5 -16.8571
3101.5 -9.85715
3102.5 -14.8571
3103.5 -23.5714
3104.5 -21.1429
3105.5 6.57142
3106.5 -18
3107.5 12.7143
3108.5 5.99999
3109.5 -8.85715
3110.5 -0.142862
3111.5 -20.7143
3112.5 17.2857
3113.5 36.5714
3114.5 8.99999
3115.5 42.5714
3116.5 -16.2857
3117.5 31
3118.5 -7.85715
3119.5 -1.00001
3120.5 -5.71429
3121.5 8.14285
3122.5 -11.4286
3123.5 -8.57143
3124.5 10.7143
3125.5 1.42857
3126.5 30.7143
3127.5 5.42857
3128.5 -11.8571
3129.5 26.5714
3130.5 -2.42858
3131.5 62.1429
3132.5 -5.28572
3133.5 16.2857
3134.5 7.57142
3135.5 -14.4286
3136.5 5.42857
3137.5 -16.8571
3138.5 -10.2857
3139.5 15.5714
3140.5 -18.5714
3141.5 15.7143
3142.5 3.42857
3143.5 26.4286
3144.5 7.57142
3145.5 -13.5714
3146.5 -14
3147.5 31.2857
3148.5 -2
3149.5 -19.7143
3150.5 -5.00001
3151.5 0.142852
3152.5 -17.1429
3153.5 -5
3154.5 -9
3155.5 -12.8571
3156.5 4.71428
3157.5 27.2857
3158.5 5.57142
3159.5 -3.42858
3160.5 19.4286
3161.5 -0.71429
3162.5 17.5714
3163.5 -40.4286
3164.5 11.4286
3165.5 -3
3166.5 16
3167.5 -3
3168.5 7.14285
3169.5 16.1429
3170.5 37
3171.5 28
3172.5 17
3173.5 31.1429
3174.5 -3.85715
3175.5 -28.5714
3176.5 16
3177.5 -6.85715
3178.5 32.1429
3179.5 10.1429
3180.5 -33.1429
3181.5 2.14285
3182.5 11.8571
3183.5 6.14285
3184.5 32.4286
3185.5 38.5714
3186.5 28.7143
3187.5 14.4286
3188.5 -3.85715
3189.5 22.7143
3190.5 -7
3191.5 -23.1429
3192.5 27
3193.5 19.5714
3194.5 4.28571
3195.5 -21.7143
3196.5 -18.4286
3197.5 51.8571
3198.5 12.5714
3199.5 -3.85715
3200.5 6.14285
3201.5 -25.7143
3202.5 -3.57144
3203.5 -13.8571
3204.5 -11.4286
3205.5 -17.7143
3206.5 -2.14286
3207.5 -0.428576
3208.5 6
3209.5 -16.7143
3210.5 26.1429
3211.5 14.1429
3212.5 33
3213.5 -3.71429
3214.5 19.7143
3215.5 -3.85715
3216.5 -3
3217.5 -15.5714
3218.5 9
3219.5 -10
3220.5 -16.8571
3221.5 21.8571
3222.5 -2.85715
3223.5 7.42857
3224.5 4
3225.5 -11
3226.5 -7
3227.5 -4.57143
3228.5 -7.85715
3229.5 -12.8571
3230.5 -16
3231.5 6.14285
3232.5 21.4286
3233.5 25.5714
3234.5 33.8571
3235.5 28.7143
3236.5 8.85714
3237.5 27.5714
3238.5 90.7143
3239.5 102.857
3240.5 154
3241.5 291.857
3242.5 314
3243.5 163.857
3244.5 79.7143
3245.5 42.2857
3246.5 -2.14286
3247.5 -19.7143
3248.5 -28.4286
3249.5 19.4286
3250.5 17.5714
3251.5 3.14285
3252.5 -1.57143
3253.5 -46.2857
3254.5 4
3255.5 -11.1429
3256.5 3.85714
3257.5 -6.14286
3258.5 18.2857
3259.5 31.7143
3260.5 52.7143
3261.5 23.7143
3262.5 34.7143
3263.5 33
3264.5 -12.4286
3265.5 27
3266.5 37.8571
3267.5 -1.14286
3268.5 -3.71429
3269.5 -4.85715
3270.5 8.28571
3271.5 4.42857
3272.5 7.57142
3273.5 23.7143
3274.5 6.85714
3275.5 2.28571
3276.5 8.42857
3277.5 -1.85715
3278.5 8
3279.5 3.28571
3280.5 -4.71429
3281.5 -14.1429
3282.5 40.1429
3283.5 -2.57143
3284.5 18.2857
3285.5 12.2857
3286.5 -9.14286
3287.5 -8.28572
3288.5 33
3289.5 8.71428
3290.5 0.571424
3291.5 11.1429
3292.5 24.1429
3293.5 2.28571
3294.5 -11.8571
3295.5 -20.1429
3296.5 11.4286
3297.5 26.8571
3298.5 4.28571
3299.5 20.5714
3300.5 46.2857
3301.5 11
3302.5 36.7143
3303.5 9
3304.5 -10
3305.5 26.2857
3306.5 15.8571
3307.5 -3
3308.5 -26
3309.5 -5.28572
3310.5 -24
3311.5 33.2857
3312.5 16.7143
3313.5 8
3314.5 -11
3315.5 -17.1429
3316.5 12.7143
3317.5 22.5714
3318.5 16.7143
3319.5 -31.5714
3320.5 -4
3321.5 -9.00001
3322.5 18.1429
3323.5 11
3324.5 15.7143
3325.5 14.4286
3326.5 18.1429
3327.5 13.1429
3328.5 -12.4286
3329.5 7.14285
3330.5 28.2857
3331.5 -12.2857
3332.5 4.85714
3333.5 7.57142
3334.5 -20.7143
3335.5 25
3336.5 6.42857
3337.5 10.5714
3338.5 6.85714
3339.5 24
3340.5 -2.42858
3341.5 36.8571
3342.5 0.428568
3343.5 -0.714289
3344.5 -23.8571
3345.5 -4.42857
3346.5 11.4286
3347.5 -22.4286
3348.5 19
3349.5 2.71428
3350.5 4.71428
3351.5 -35
3352.5 -48.7143
3353.5 -17.8571
3354.5 -68
3355.5 -20.1429
3356.5 -26.7143
3357.5 -5.85715
3358.5 16.4286
3359.5 7
3360.5 5.42857
3361.5 34.2857
3362.5 0.857139
3363.5 42.4286
3364.5 3.14285
3365.5 14.2857
3366.5 26.1429
3367.5 -5.85715
3368.5 7.57142
3369.5 30.5714
3370.5 11
3371.5 -34
3372.5 10.8571
3373.5 17.2857
3374.5 11.2857
3375.5 1.28571
3376.5 -1.28572
3377.5 5.42857
3378.5 4.14285
3379.5 2.14285
3380.5 0.428568
3381.5 0.28571
3382.5 9.14285
3383.5 -9.42858
3384.5 -4
3385.5 0.571425
3386.5 58.2857
3387.5 6
3388.5 9.42857
3389.5 32
3390.5 17.8571
3391.5 11.7143
3392.5 6.57142
3393.5 -22.4286
3394.5 3.57142
3395.5 17.1429
3396.5 -1.28572
3397.5 -3.93391e-06
3398.5 -0.285718
3399.5 42
3400.5 -3.28572
3401.5 -15.7143
3402.5 -2.42857
3403.5 -11.2857
3404.5 20.5714
3405.5 9.14285
3406.5 -5
3407.5 1.71428
3408.5 16.4286
3409.5 -14
3410.5 -2.14286
3411.5 1.28571
3412.5 7
3413.5 1.71428
3414.5 28.4286
3415.5 -4.71429
3416.5 24.2857
3417.5 3.71428
3418.5 15.4286
3419.5 0.714282
3420.5 -12.7143
3421.5 29.4286
3422.5 37.1429
3423.5 17.4286
3424.5 75
3425.5 83.1429
3426.5 227.714
3427.5 266.714
3428.5 237.429
3429.5 95.5714
3430.5 43
3431.5 7.71428
3432.5 18.1429
3433.5 -6.28572
3434.5 -55
3435.5 33.4286
3436.5 19.7143
3437.5 -1.57143
3438.5 5.14285
3439.5 -28.2857
3440.5 -2.28572
3441.5 -18.4286
3442.5 15.7143
3443.5 -2.28572
3444.5 -11.4286
3445.5 4.71428
3446.5 5.42857
3447.5 -32.5714
3448.5 7.85714
3449.5 14.7143
3450.5 1.42857
3451.5 15.8571
3452.5 7.71428
3453.5 18.5714
3454.5 7
3455.5 1.28571
3456.5 35.8571
3457.5 -1.28572
3458.5 6.42857
3459.5 -4.28572
3460.5 30.1429
3461.5 -28.8571
3462.5 -4.28572
3463.5 -22.8571
3464.5 -4.57143
3465.5 14.8571
3466.5 30.7143
3467.5 -7
3468.5 20
3469.5 -19.2857
3470.5 0.857139
3471.5 27.4286
3472.5 -7.57143
3473.5 -11.1429
3474.5 2.85714
3475.5 21
3476.5 8.85714
3477.5 21
3478.5 -4.71429
3479.5 -13.4286
3480.5 -1.85715
3481.5 -10.1429
3482.5 21.2857
3483.5 22.2857
3484.5 29.1429
3485.5 -8.57143
3486.5 28.5714
3487.5 11.4286
3488.5 -13.7143
3489.5 15.2857
3490.5 -2.42858
3491.5 22.2857
3492.5 24.7143
3493.5 45.8571
3494.5 9.85714
3495.5 3.71428
3496.5 2.85714
3497.5 -0.285718
3498.5 2
3499.5 30.2857
3500.5 -5
3501.5 -21.2857
3502.5 20.1429
3503.5 -0.285718
3504.5 -10
3505.5 -4
3506.5 1.28571
3507.5 5.42857
3508.5 2.57142
3509.5 10.2857
3510.5 3.14285
3511.5 -25.8571
3512.5 -6.57143
3513.5 -12.2857
3514.5 24.2857
3515.5 27.8571
3516.5 -20.2857
3517.5 19.2857
3518.5 42.1429
3519.5 -25.4286
3520.5 -6.28572
3521.5 -17.7143
3522.5 -32.8571
3523.5 -4.85715
3524.5 -8.42858
3525.5 7.57142
3526.5 27.7143
3527.5 3.42857
3528.5 22.4286
3529.5 -28.2857
3530.5 31.4286
3531.5 -8.57143
3532.5 8.71428
3533.5 -12.2857
3534.5 3.14285
3535.5 -1.85715
3536.5 -3.28572
3537.5 25.8571
3538.5 24.2857
3539.5 0.714282
3540.5 13.1429
3541.5 13.7143
3542.5 21.4286
3543.5 7.71428
3544.5 2.28571
3545.5 -6.14286
3546.5 -5.42858
3547.5 22.4286
3548.5 12.5714
3549.5 -7.28572
3550.5 -3.28572
3551.5 15.1429
3552.5 24
3553.5 12.5714
3554.5 24.7143
3555.5 13.4286
3556.5 -23.5714
3557.5 -28.5714
3558.5 16.4286
3559.5 1.57143
3560.5 -10.4286
3561.5 8.42857
3562.5 12.8571
3563.5 24.7143
3564.5 -14
3565.5 7.42857
3566.5 -1
3567.5 -10.2857
3568.5 -0.71429
3569.5 8.57143
3570.5 25.8571
3571.5 -18.8571
3572.5 -12.1429
3573.5 20.8571
3574.5 14.1429
3575.5 9.28571
3576.5 -10
3577.5 22.5714
3578.5 4.14285
3579.5 21.8571
3580.5 -1.57143
3581.5 29.4286
3582.5 6.57142
3583.5 -20.2857
3584.5 -15.2857
3585.5 -20.7143
3586.5 32.7143
3587.5 -12.2857
3588.5 5.28571
3589.5 29.4286
3590.5 5.71428
3591.5 5.14285
3592.5 -22.8571
3593.5 17.2857
3594.5 -11.5714
3595.5 8.71428
3596.5 -37.7143
3597.5 1.28571
3598.5 14
3599.5 7.71428
3600.5 -11
3601.5 24.2857
3602.5 -9.42858
3603.5 -3.21865e-06
3604.5 -11.5714
3605.5 -21.4286
3606.5 27.4286
3607.5 -8.28572
3608.5 2
3609.5 5.85714
3610.5 22.8571
3611.5 21.8571
3612.5 29.8571
3613.5 20.5714
3614.5 12.5714
3615.5 26.8571
3616.5 17.8571
3617.5 33
3618.5 13.4286
3619.5 34.2857
3620.5 12.1429
3621.5 76.2857
3622.5 30.1429
3623.5 23
3624.5 18.5714
3625.5 27
3626.5 8.57142
3627.5 -12.7143
3628.5 28.1429
3629.5 3.14285
3630.5 10.2857
3631.5 18.8571
3632.5 8.42857
3633.5 -0.14286
3634.5 17.8571
3635.5 -18.7143
3636.5 20.5714
3637.5 1.85714
3638.5 -5
3639.5 15.7143
3640.5 25.5714
3641.5 16.2857
3642.5 16.4286
3643.5 -12.2857
3644.5 18.5714
3645.5 5.28571
3646.5 -12.5714
3647.5 6.14285
3648.5 20.2857
3649.5 22.7143
3650.5 -8.85715
3651.5 -13.7143
3652.5 11.8571
3653.5 15
3654.5 24.2857
3655.5 0.85714
3656.5 -12.1429
3657.5 -1.71429
3658.5 -22.7143
3659.5 -17.8571
3660.5 20
3661.5 1.57142
3662.5 28.4286
3663.5 1.28571
3664.5 21.5714
3665.5 1.42857
3666.5 29.5714
3667.5 -8.42857
3668.5 2.71428
3669.5 -20.8571
3670.5 -11.2857
3671.5 29.2857
3672.5 -31.7143
3673.5 2.57142
3674.5 -19.2857
3675.5 3
3676.5 25.1429
3677.5 -2.57143
3678.5 -1.28572
3679.5 2.14285
3680.5 22
3681.5 0.999996
3682.5 21
3683.5 -28.1429
3684.5 -9
3685.5 6.71428
3686.5 -23
3687.5 7.57143
3688.5 12.1429
3689.5 19
3690.5 -24.1429
3691.5 1.28571
3692.5 -16.8571
3693.5 -16
3694.5 4.28571
3695.5 2.42857
3696.5 32.2857
3697.5 19.5714
3698.5 -6.71429
3699.5 2.42857
3700.5 -1.85715
3701.5 -19.2857
3702.5 -1.85715
3703.5 -16.4286
3704.5 -11.8571
3705.5 40
3706.5 7.14285
3707.5 -41.8571
3708.5 -4.42858
3709.5 0.285711
3710.5 1.28571
3711.5 -3.57628e-06
3712.5 -14.7143
3713.5 9
3714.5 -1.57143
3715.5 11.5714
3716.5 -3.57143
3717.5 21.4286
3718.5 -1.71429
3719.5 13.1429
3720.5 17.7143
3721.5 -11.2857
3722.5 19.4286
3723.5 9.14285
3724.5 12.8571
3725.5 -4.42858
3726.5 7.42857
3727.5 -8.42857
3728.5 -1.71429
3729.5 18.2857
3730.5 -24.2857
3731.5 18.2857
3732.5 15.8571
3733.5 24.5714
3734.5 -0.571432
3735.5 8.14285
3736.5 28.8571
3737.5 -4.28572
3738.5 13.5714
3739.5 -9.14286
3740.5 13.4286
3741.5 1.28571
3742.5 17.4286
3743.5 -16.2857
3744.5 -6.28572
3745.5 36
3746.5 18.5714
3747.5 -20.7143
3748.5 41.8571
3749.5 12
3750.5 20.8571
3751.5 13.5714
3752.5 20.5714
3753.5 11.1429
3754.5 -2
3755.5 -4.28572
3756.5 -5.71429
3757.5 11.2857
3758.5 31.1429
3759.5 -24
3760.5 -12.7143
3761.5 -0.714289
3762.5 12
3763.5 1.85714
3764.5 5.71428
3765.5 6
3766.5 -17.7143
3767.5 -8
3768.5 9.28571
3769.5 -8
3770.5 5
3771.5 -4.14286
3772.5 -5.71429
3773.5 11.1429
3774.5 -16.5714
3775.5 -3
3776.5 -8.14286
3777.5 0.142854
3778.5 12.2857
3779.5 -2.57143
3780.5 7.28571
3781.5 0.428568
3782.5 -16
3783.5 -5.85715
3784.5 13.4286
3785.5 14.4286
3786.5 16.2857
3787.5 12.5714
3788.5 41.2857
3789.5 12.8571
3790.5 -5
3791.5 -9.57143
3792.5 -21.5714
3793.5 -0.571431
3794.5 -6.71429
3795.5 5.85714
3796.5 3.85714
3797.5 -21.1429
3798.5 -12.1429
3799.5 1.28571
3800.5 -11.7143
3801.5 4.85714
3802.5 -16.4286
3803.5 16.1429
3804.5 -4.28572
3805.5 -10
3806.5 -24.2857
3807.5 13.8571
3808.5 26.5714
3809.5 18.5714
3810.5 12.1429
3811.5 10.2857
3812.5 3.28571
3813.5 26
3814.5 -19.8571
3815.5 -2
3816.5 -15.1429
3817.5 6.14285
3818.5 -4.57143
3819.5 20.8571
3820.5 -3.28572
3821.5 20.8571
3822.5 -13.7143
3823.5 -28.4286
3824.5 -0.428575
3825.5 -0.428575
3826.5 -2
3827.5 -19
3828.5 11.4286
3829.5 -21.1429
3830.5 -13.8571
3831.5 -25.5714
3832.5 28.5714
3833.5 22.2857
3834.5 20.4286
3835.5 -17
3836.5 8.57143
3837.5 1.42857
3838.5 -4.71429
3839.5 13.2857
3840.5 10.5714
3841.5 26
3842.5 30
3843.5 25.4286
3844.5 9.57143
3845.5 18.5714
3846.5 6.71428
3847.5 18
3848.5 -13.1429
3849.5 -9.71429
3850.5 -27.8571
3851.5 10.4286
3852.5 15.7143
3853.5 18.2857
3854.5 8.28571
3855.5 4
3856.5 19.7143
3857.5 11.1429
3858.5 2.42857
3859.5 -13.8571
3860.5 32.1429
3861.5 13.5714
3862.5 -6.28572
3863.5 23.7143
3864.5 5.28571
3865.5 -3.57143
3866.5 -3.09944e-06
3867.5 -3
3868.5 10.1429
3869.5 -10
3870.5 19.4286
3871.5 35
3872.5 32.1429
3873.5 1.14285
3874.5 -9.85715
3875.5 3
3876.5 -4.28572
3877.5 0.571425
3878.5 7.28571
3879.5 -13
3880.5 2.28571
3881.5 6.14285
3882.5 27.7143
3883.5 -9.42857
3884.5 9.85714
3885.5 5.71428
3886.5 -5.14286
3887.5 0.714283
3888.5 -6.85715
3889.5 5.71428
3890.5 13.8571
3891.5 13.4286
3892.5 15.7143
3893.5 -1.57143
3894.5 12
3895.5 23.4286
3896.5 -11.5714
3897.5 -6.42857
3898.5 -9
3899.5 -20.7143
3900.5 -3.14286
3901.5 5
3902.5 38.8571
3903.5 62.8571
3904.5 -6.71429
3905.5 17.2857
3906.5 1.14285
3907.5 -21.2857
3908.5 11.7143
3909.5 16.7143
3910.5 17.5714
3911.5 -1
3912.5 7.85714
3913.5 -4.28572
3914.5 11.5714
3915.5 -9
3916.5 12.2857
3917.5 -9.28572
3918.5 -10.4286
3919.5 8.28571
3920.5 14.1429
3921.5 27.4286
3922.5 21.8571
3923.5 -13.1429
3924.5 33.4286
3925.5 0.714283
3926.5 17.4286
3927.5 16.5714
3928.5 -14.7143
3929.5 16.8571
3930.5 -6
3931.5 5.57143
3932.5 -0.14286
3933.5 23.8571
3934.5 -9
3935.5 22.5714
3936.5 13.4286
3937.5 21
3938.5 10
3939.5 25
3940.5 22
3941.5 26.1429
3942.5 -18.1429
3943.5 36.1429
3944.5 12.8571
3945.5 -39.7143
3946.5 -30.5714
3947.5 -9.14286
3948.5 8.57143
3949.5 26.2857
3950.5 24
3951.5 -18.7143
3952.5 -15
3953.5 -10
3954.5 -36.2857
3955.5 -80.8571
3956.5 -51.5714
3957.5 -31.1429
3958.5 18.7143
3959.5 -4.42858
3960.5 25.7143
3961.5 11.2857
3962.5 31.8571
3963.5 11.7143
3964.5 18.4286
3965.5 8.85714
3966.5 -6.57143
3967.5 6.57143
3968.5 18
3969.5 17
3970.5 47
3971.5 16.4286
3972.5 19.2857
3973.5 17.7143
3974.5 -11.2857
3975.5 -13.4286
3976.5 -18.8571
3977.5 3.42857
3978.5 1.28571
3979.5 6.42857
3980.5 -16.1429
3981.5 -5.57143
3982.5 -6.14286
3983.5 -7.57143
3984.5 -8.71429
3985.5 7.14285
3986.5 -29.8571
3987.5 15.5714
3988.5 10.2857
3989.5 -9.71429
3990.5 1.14285
3991.5 20.7143
3992.5 -9.14286
3993.5 25.7143
3994.5 5.28571
3995.5 11.8571
3996.5 14.4286
3997.5 9.14285
3998.5 8.85714
3999.5 -10.1429
4000.5 19.2857
4001.5 -10.5714
4002.5 -15.2857
4003.5 -12.7143
4004.5 12.4286
4005.5 -12.4286
4006.5 -19.7143
4007.5 7
4008.5 -4
4009.5 10.2857
4010.5 6.14285
4011.5 11
4012.5 21.8571
4013.5 23.1429
4014.5 11
4015.5 8.28571
4016.5 7.71428
4017.5 7.85714
4018.5 -11.7143
4019.5 22.1429
4020.5 -18
4021.5 -11
4022.5 0.571425
4023.5 14.5714
4024.5 18.7143
4025.5 29.7143
4026.5 22.5714
4027.5 29.2857
4028.5 -17.5714
4029.5 3.28571
4030.5 -19.1429
4031.5 25.5714
4032.5 5.42857
4033.5 -23.8571
4034.5 14.5714
4035.5 24
4036.5 81.2857
4037.5 3.42857
4038.5 -8
4039.5 -3.85715
4040.5 23.4286
4041.5 3.14285
4042.5 0.85714
4043.5 15.8571
4044.5 -1.14286
4045.5 -8.71429
4046.5 16.2857
4047.5 40
4048.5 14.8571
4049.5 17.2857
4050.5 3.28571
4051.5 5.14285
4052.5 -18.5714
4053.5 -22.2857
4054.5 -22.4286
4055.5 21
4056.5 -1.14286
4057.5 -14.8571
4058.5 24.5714
4059.5 3.14285
4060.5 17.8571
4061.5 12.5714
4062.5 -0.285717
4063.5 5.85714
4064.5 -8
4065.5 -2.57143
4066.5 11.2857
4067.5 18
4068.5 -2.42857
4069.5 4.71428
4070.5 15.2857
4071.5 9.28571
4072.5 -7.28572
4073.5 16.1429
4074.5 6.85714
4075.5 10.5714
4076.5 25.8571
4077.5 22.1429
4078.5 -7.42857
4079.5 27.7143
4080.5 0.714283
4081.5 28.2857
4082.5 -1.71429
4083.5 2.14285
4084.5 -24.4286
4085.5 -0.571432
4086.5 -2.98023e-06
4087.5 10.5714
4088.5 -3.57143
4089.5 -3.14286
4090.5 5.42857
4091.5 -12.5714
4092.5 4.71428
4093.5 8.42857
4094.5 11.1429
4095.5 -7.42857
4096.5 -44.7143
4097.5 -5.57143
4098.5 2.14285
4099.5 -25.2857
4100.5 -9.57143
4101.5 13.5714
4102.5 21.7143
4103.5 -18.5714
4104.5 5.71428
4105.5 -9.14286
4106.5 -4.85715
4107.5 -5.14286
4108.5 -8.28572
4109.5 22.8571
4110.5 -22
4111.5 -11.4286
4112.5 8.85714
4113.5 9.85714
4114.5 9.71428
4115.5 2.57143
4116.5 -2.28572
4117.5 7.14285
4118.5 22.7143
4119.5 5.42857
4120.5 4.28571
4121.5 -11.5714
4122.5 -9.28572
4123.5 -1
4124.5 -2.14286
4125.5 -4.71429
4126.5 13.2857
4127.5 10.7143
4128.5 15.2857
4129.5 31.1429
4130.5 12.4286
4131.5 10.5714
4132.5 45
4133.5 -26
4134.5 -2.85715
4135.5 -0.285717
4136.5 12.4286
4137.5 -6.42857
4138.5 15.1429
4139.5 24.4286
4140.5 -27.5714
4141.5 7.14285
4142.5 15.1429
4143.5 9.85714
4144.5 18.7143
4145.5 22.5714
4146.5 -3.57143
4147.5 -30.8571
4148.5 12.4286
4149.5 0.857139
4150.5 11.4286
4151.5 2.28571
4152.5 14.8571
4153.5 -7.42857
4154.5 -10.5714
4155.5 10.1429
4156.5 13.2857
4157.5 30.2857
4158.5 15.5714
4159.5 51
4160.5 28.5714
4161.5 11.4286
4162.5 4.28571
4163.5 -5.57143
4164.5 2.42857
4165.5 -19.4286
4166.5 24.1429
4167.5 -21.2857
4168.5 11.8571
4169.5 -20.1429
4170.5 -8.71429
4171.5 -3.42858
4172.5 10.4286
4173.5 11.8571
4174.5 -17.7143
4175.5 -9.85715
4176.5 -15.5714
4177.5 -11.1429
4178.5 -1.42857
4179.5 1.71428
4180.5 5.71428
4181.5 -9.71429
4182.5 -18.5714
4183.5 -0.285717
4184.5 -3.42857
4185.5 -15.1429
4186.5 15.7143
4187.5 -15.2857
4188.5 -4.42857
4189.5 5.42857
4190.5 12.7143
4191.5 8.57143
4192.5 16.8571
4193.5 52.8571
4194.5 39.4286
4195.5 -4.42857
4196.5 29.2857
4197.5 5.85714
4198.5 18.4286
4199.5 23.8571
4200.5 10.2857
4201.5 6.28571
4202.5 14
4203.5 9.42857
4204.5 32.4286
4205.5 -16.4286
4206.5 38.8571
4207.5 65
4208.5 31
4209.5 -32
4210.5 -15.4286
4211.5 31.2857
4212.5 6
4213.5 3.28571
4214.5 22.8571
4215.5 -25.5714
4216.5 -17.1429
4217.5 -21.8571
4218.5 -28.5714
4219.5 -7.28572
4220.5 5.28571
4221.5 24.4286
4222.5 -6.28572
4223.5 -24.8571
4224.5 -10.4286
4225.5 17.5714
4226.5 -3.71429
4227.5 17.8571
4228.5 13.4286
4229.5 16
4230.5 -0.14286
4231.5 7.42857
4232.5 6.42857
4233.5 -8.14286
4234.5 33.2857
4235.5 5.28571
4236.5 -1.57143
4237.5 10.2857
4238.5 -12.4286
4239.5 9.85714
4240.5 -1.42857
4241.5 -20
4242.5 7.42857
4243.5 -1.71429
4244.5 0.85714
4245.5 8.28571
4246.5 7.85714
4247.5 4.14285
4248.5 5.28571
4249.5 1.28571
4250.5 1.71428
4251.5 -3.57143
4252.5 1.85714
4253.5 16.2857
4254.5 -19.7143
4255.5 14.4286
4256.5 4.57143
4257.5 32.4286
4258.5 48.1429
4259.5 39
4260.5 54.2857
4261.5 6.42857
4262.5 43.1429
4263.5 1.14285
4264.5 -6.28572
4265.5 16
4266.5 5.42857
4267.5 -1.28572
4268.5 39.7143
4269.5 10.1429
4270.5 -0.285717
4271.5 3.57143
4272.5 19.5714
4273.5 11.2857
4274.5 -4.85715
4275.5 -5
4276.5 29.1429
4277.5 16.2857
4278.5 23.5714
4279.5 1.28571
4280.5 8
4281.5 -10.2857
4282.5 -8.42857
4283.5 -3.28572
4284.5 3.85714
4285.5 12.8571
4286.5 5.28571
4287.5 -7.85715
4288.5 -7.28572
4289.5 7
4290.5 31.8571
4291.5 -0.285717
4292.5 1.57143
4293.5 7.14285
4294.5 16
4295.5 13.8571
4296.5 18.7143
4297.5 12
4298.5 -0.14286
4299.5 15.4286
4300.5 -9
4301.5 -4.28572
4302.5 -14
4303.5 -0.571431
4304.5 30.5714
4305.5 -12.8571
4306.5 -1.71429
4307.5 -9.85715
4308.5 -7.57143
4309.5 9.14285
4310.5 2.57143
4311.5 14.1429
4312.5 21.8571
4313.5 8.85714
4314.5 31.5714
4315.5 5.14285
4316.5 10.5714
4317.5 5
4318.5 5.71428
4319.5 -6.57143
4320.5 9.57143
4321.5 8
4322.5 7.14286
4323.5 5.57143
4324.5 -2.14577e-06
4325.5 25
4326.5 -0.428574
4327.5 8.28571
4328.5 -3
4329.5 5.14285
4330.5 36
4331.5 24.2857
4332.5 11.2857
4333.5 33.5714
4334.5 11.4286
4335.5 17.1429
4336.5 5.42857
4337.5 9.85714
4338.5 11.2857
4339.5 12.1429
4340.5 -9.42857
4341.5 -11.8571
4342.5 26
4343.5 14.2857
4344.5 16.7143
4345.5 42.8571
4346.5 2.28571
4347.5 0.285712
4348.5 11.1429
4349.5 -8.28572
4350.5 -6.71429
4351.5 27.5714
4352.5 -16.7143
4353.5 -1.57143
4354.5 13.4286
4355.5 -7
4356.5 -8
4357.5 6.42857
4358.5 11.1429
4359.5 5.14285
4360.5 2.28571
4361.5 5.14285
4362.5 25.1429
4363.5 17.5714
4364.5 -8.85715
4365.5 -1.71429
4366.5 1.71428
4367.5 6.14285
4368.5 3
4369.5 8.42857
4370.5 -9.14286
4371.5 9
4372.5 10.7143
4373.5 10.4286
4374.5 -12.8571
4375.5 -15
4376.5 -17.1429
4377.5 13.7143
4378.5 -9.71429
4379.5 -5.85715
4380.5 -2.85715
4381.5 5
4382.5 0.571425
4383.5 -21.7143
4384.5 7
4385.5 -3.28572
4386.5 11
4387.5 14.4286
4388.5 4
4389.5 1.14285
4390.5 10.5714
4391.5 13.8571
4392.5 -1
4393.5 3
4394.5 8.57143
4395.5 30.7143
4396.5 17
4397.5 1.85714
4398.5 16
4399.5 20.5714
4400.5 10
4401.5 -10.5714
4402.5 -11.8571
4403.5 24
4404.5 -2.28572
4405.5 0.85714
4406.5 17.2857
4407.5 13.4286
4408.5 7.28571
4409.5 -12
4410.5 -18.2857
4411.5 1.71428
4412.5 8.14285
4413.5 1.71428
4414.5 11
4415.5 -16.1429
4416.5 21.1429
4417.5 -3.85715
4418.5 14.7143
4419.5 -11
4420.5 -2.71429
4421.5 -6.28572
4422.5 27.2857
4423.5 6.57143
4424.5 15.4286
4425.5 2.57143
4426.5 10.4286
4427.5 5
4428.5 23.5714
4429.5 27.1429
4430.5 12.8571
4431.5 8.28571
4432.5 24.7143
4433.5 16.5714
4434.5 27.7143
4435.5 0.428569
4436.5 5
4437.5 -4
4438.5 12.4286
4439.5 0.285712
4440.5 6.42857
4441.5 11.8571
4442.5 25.1429
4443.5 -2.71429
4444.5 17.4286
4445.5 -4.71429
4446.5 2.42857
4447.5 1.28571
4448.5 10.5714
4449.5 -0.428574
4450.5 8.28571
4451.5 12.8571
4452.5 2.42857
4453.5 -0.428576
4454.5 -1.14286
4455.5 -15.8571
4456.5 37.1428
4457.5 -13.8572
4458.5 31
4459.5 11.2857
4460.5 3.28571
4461.5 12.4286
4462.5 4
4463.5 -29.7143
4464.5 -10.7143
4465.5 -2
4466.5 19.1429
4467.5 28.5714
4468.5 17.4286
4469.5 17.4286
4470.5 -0.571431
4471.5 26.8571
4472.5 -15.5714
4473.5 34.7143
4474.5 -1.71429
4475.5 14
4476.5 -5.85715
4477.5 -0.714288
4478.5 6.57143
4479.5 22.8571
4480.5 -9.42857
4481.5 13.8571
4482.5 11.8571
4483.5 28
4484.5 3.71428
4485.5 1.42857
4486.5 8
4487.5 -16.1429
4488.5 38
4489.5 16.1429
4490.5 24.8571
4491.5 7.14285
4492.5 27.1429
4493.5 22.7143
4494.5 20.7143
4495.5 45.8571
4496.5 26.2857
4497.5 27.4286
4498.5 3.57143
4499.5 40.7143
4500.5 20
4501.5 7.42857
4502.5 -10
4503.5 2.42857
4504.5 13.8571
4505.5 26.2857
4506.5 -8.85715
4507.5 10.1429
4508.5 26.4286
4509.5 13.5714
4510.5 14.4286
4511.5 21.8571
4512.5 16.7143
4513.5 31.4286
4514.5 29.4286
4515.5 27.1429
4516.5 8.14285
4517.5 7.85714
4518.5 23.2857
4519.5 2.14285
4520.5 -0.857145
4521.5 19
4522.5 2.71428
4523.5 -9.71429
4524.5 19.8571
4525.5 -11.7143
4526.5 -2.42857
4527.5 11
4528.5 13.8571
4529.5 -4.28572
4530.5 21
4531.5 26
4532.5 25.1429
4533.5 1.57143
4534.5 44
4535.5 6.28571
4536.5 12.8571
4537.5 16
4538.5 -10
4539.5 -6.85715
4540.5 4.28571
4541.5 -13.8571
4542.5 28
4543.5 -8.42857
4544.5 5
4545.5 21.5714
4546.5 14.4286
4547.5 -29.2857
4548.5 8.71428
4549.5 21.4286
4550.5 77
4551.5 49
4552.5 46.4286
4553.5 43
4554.5 11.7143
4555.5 -13.4286
4556.5 9.42857
4557.5 4.28571
4558.5 7.28571
4559.5 -8.85715
4560.5 -5.14286
4561.5 -7.57143
4562.5 3.28571
4563.5 -18.5714
4564.5 -26.7143
4565.5 -21
4566.5 -15.5714
4567.5 -8.14286
4568.5 0.999997
4569.5 -0.142859
4570.5 1.14285
4571.5 -2.57143
4572.5 3.14285
4573.5 5.57143
4574.5 -4.57143
4575.5 -7.57143
4576.5 -2.71429
4577.5 -4.71429
4578.5 -1.28572
4579.5 28.8571
4580.5 8.71428
4581.5 6.42857
4582.5 22.2857
4583.5 28.2857
4584.5 -15.1429
4585.5 13.8571
4586.5 29.7143
4587.5 41.8571
4588.5 -1.28572
4589.5 17.5714
4590.5 25.5714
4591.5 15.2857
4592.5 8.14286
4593.5 32.7143
4594.5 11.4286
4595.5 21.7143
4596.5 19
4597.5 8.42857
4598.5 28.8571
4599.5 16
4600.5 17.8571
4601.5 7.57143
4602.5 7.14286
4603.5 5.85714
4604.5 11.2857
4605.5 -7.28572
4606.5 -12
4607.5 -29.5714
4608.5 -9.28572
4609.5 14.5714
4610.5 3.28571
4611.5 30.4286
4612.5 -2.28572
4613.5 -3.14286
4614.5 4.71428
4615.5 -13.5714
4616.5 16.8571
4617.5 20.5714
4618.5 1.42857
4619.5 7.85714
4620.5 29.5714
4621.5 26.5714
4622.5 -15.1429
4623.5 11.7143
4624.5 18.5714
4625.5 17.2857
4626.5 1.14285
4627.5 -2.42857
4628.5 13.2857
4629.5 -0.571431
4630.5 6.85714
4631.5 24.7143
4632.5 31.5714
4633.5 -17
4634.5 20.5714
4635.5 3.85714
4636.5 6.42857
4637.5 30
4638.5 4.14285
4639.5 21.5714
4640.5 28.7143
4641.5 10.5714
4642.5 26.5714
4643.5 17.7143
4644.5 9.71428
4645.5 5.14285
4646.5 -7.71429
4647.5 -9.14286
4648.5 -1.57143
4649.5 16.4286
4650.5 5
4651.5 -13.8571
4652.5 -13.5714
4653.5 29.4286
4654.5 23.1429
4655.5 1.85714
4656.5 24.7143
4657.5 24.2857
4658.5 16.7143
4659.5 15.5714
4660.5 7.57143
4661.5 5.85714
4662.5 1.85714
4663.5 6.71428
4664.5 6.85714
4665.5 -15.4286
4666.5 -11
4667.5 0.42857
4668.5 24
4669.5 1.85714
4670.5 16.5714
4671.5 16.4286
4672.5 6.42857
4673.5 6.28571
4674.5 6.14286
4675.5 -18.4286
4676.5 10.4286
4677.5 29.7143
4678.5 8.57143
4679.5 -5.42857
4680.5 7.42857
4681.5 36.2857
4682.5 40.2857
4683.5 2
4684.5 -9.71429
4685.5 8.71428
4686.5 18.2857
4687.5 1.42857
4688.5 -15.2857
4689.5 -24
4690.5 15.2857
4691.5 2.85714
4692.5 5.28571
4693.5 19.7143
4694.5 10.8571
4695.5 8
4696.5 25.7143
4697.5 17
4698.5 11
4699.5 29.4286
4700.5 36.1429
4701.5 23.4286
4702.5 29
4703.5 19.2857
4704.5 12.7143
4705.5 7.85714
4706.5 49
4707.5 23.1429
4708.5 19.1429
4709.5 30.8571
4710.5 15.8571
4711.5 25
4712.5 -3.42857
4713.5 9.14285
4714.5 21
4715.5 15.2857
4716.5 -21.2857
4717.5 -6.42857
4718.5 -21
4719.5 -22
4720.5 -23.2857
4721.5 -12.4286
4722.5 -15
4723.5 6.85714
4724.5 -4
4725.5 5
4726.5 28.1429
4727.5 -20.2857
4728.5 -22.2857
4729.5 10.1429
4730.5 10.1429
4731.5 18.5714
4732.5 0.857141
4733.5 13.1429
4734.5 -4.85715
4735.5 -20.5714
4736.5 0.142855
4737.5 15.4286
4738.5 -15.5714
4739.5 10.2857
4740.5 17.2857
4741.5 7.71428
4742.5 12.2857
4743.5 6.14286
4744.5 19.8571
4745.5 4.85714
4746.5 16.5714
4747.5 35.7143
4748.5 27
4749.5 13.8571
4750.5 12.8571
4751.5 15.4286
4752.5 11.2857
4753.5 -10.1429
4754.5 7.14286
4755.5 17.2857
4756.5 10.2857
4757.5 5.28571
4758.5 0.857141
4759.5 12.7143
4760.5 -1.28572
4761.5 10
4762.5 2.28571
4763.5 16.7143
4764.5 -6.14286
4765.5 10.4286
4766.5 21.8571
4767.5 11.8571
4768.5 24.5714
4769.5 19.7143
4770.5 5.57143
4771.5 6.57143
4772.5 8.42857
4773.5 2.71428
4774.5 2.57143
4775.5 20
4776.5 -6.85714
4777.5 2.42857
4778.5 5.85714
4779.5 -12
4780.5 18.2857
4781.5 -7.71429
4782.5 19.7143
4783.5 21
4784.5 20
4785.5 15.5714
4786.5 10.5714
4787.5 5.57143
4788.5 -32.8571
4789.5 14
4790.5 9.71428
4791.5 34.5714
4792.5 15.7143
4793.5 10
4794.5 -4.71429
4795.5 16.4286
4796.5 21
4797.5 -1.85714
4798.5 25.1429
4799.5 36
4800.5 8.71428
4801.5 35.5714
4802.5 31.1429
4803.5 46.2857
4804.5 45.8571
4805.5 39.8571
4806.5 22.8571
4807.5 -4.28572
4808.5 -8.71429
4809.5 24.4286
4810.5 36.2857
4811.5 -3.28572
4812.5 -7.14286
4813.5 2.42857
4814.5 -4.71429
4815.5 5.42857
4816.5 15.4286
4817.5 12.4286
4818.5 59.4286
4819.5 21.8571
4820.5 13.2857
4821.5 -4.14286
4822.5 16
4823.5 -9.71429
4824.5 2.57143
4825.5 29
4826.5 35.1429
4827.5 17.2857
4828.5 18.1429
4829.5 8
4830.5 14
4831.5 7.42857
4832.5 18
4833.5 23.2857
4834.5 14.8571
4835.5 25.8571
4836.5 27.5714
4837.5 29.5714
4838.5 9.57143
4839.5 58.8571
4840.5 58.1429
4841.5 71.8571
4842.5 53
4843.5 115.286
4844.5 95.8571
4845.5 50.2857
4846.5 25.1429
4847.5 13.7143
4848.5 14.4286
4849.5 27.1429
4850.5 30.2857
4851.5 0.571426
4852.5 22
4853.5 6.42857
4854.5 -9
4855.5 24.4286
4856.5 7.14286
4857.5 16.8571
4858.5 2.85714
4859.5 -4.42857
4860.5 11.4286
4861.5 21.4286
4862.5 -6.57143
4863.5 11.5714
4864.5 16.2857
4865.5 11.2857
4866.5 1.71428
4867.5 11.8571
4868.5 -1.57143
4869.5 -2
4870.5 -8.71429
4871.5 -25.2857
4872.5 10.1429
4873.5 18.4286
4874.5 20.1429
4875.5 -2.6226e-06
4876.5 7.28571
4877.5 -13.8571
4878.5 9.57142
4879.5 -13.2857
4880.5 -3.85715
4881.5 -6.14286
4882.5 -0.285717
4883.5 25
4884.5 13
4885.5 5.85714
4886.5 -7.42858
4887.5 22.8571
4888.5 -2.14286
4889.5 -0.14286
4890.5 25.4286
4891.5 27.1429
4892.5 -12.4286
4893.5 17.7143
4894.5 18.2857
4895.5 18.8571
4896.5 11.2857
4897.5 -4.57143
4898.5 0.142855
4899.5 3.85714
4900.5 3
4901.5 4.57143
4902.5 2.71428
4903.5 2.71428
4904.5 9.14285
4905.5 35.8571
4906.5 30.8571
4907.5 6
4908.5 22.7143
4909.5 5.42857
4910.5 -15.4286
4911.5 22.5714
4912.5 11.4286
4913.5 -1.14286
4914.5 26.4286
4915.5 20.1429
4916.5 30.4286
4917.5 11.8571
4918.5 32
4919.5 22.4286
4920.5 5.71428
4921.5 25
4922.5 14.5714
4923.5 7
4924.5 22.1429
4925.5 39.8571
4926.5 -2.28572
4927.5 46.8571
4928.5 12.7143
4929.5 21.5714
4930.5 22.8571
4931.5 4
4932.5 29.4286
4933.5 26.8571
4934.5 18.1429
4935.5 7.85714
4936.5 3.14286
4937.5 22
4938.5 22.2857
4939.5 -2
4940.5 6.71428
4941.5 7.57143
4942.5 -1.71429
4943.5 -5.57143
4944.5 -0.857145
4945.5 -8.42857
4946.5 -3.28572
4947.5 -4
4948.5 0.999998
4949.5 -11.1429
4950.5 20
4951.5 7.57143
4952.5 6.71428
4953.5 3.42857
4954.5 27.1429
4955.5 11.4286
4956.5 0.857141
4957.5 1.71428
4958.5 10.5714
4959.5 16
4960.5 21.8571
4961.5 -1
4962.5 31.2857
4963.5 24.2857
4964.5 14.2857
4965.5 16.8571
4966.5 3.85714
4967.5 13
4968.5 12.8571
4969.5 4.57143
4970.5 -5.57143
4971.5 -0.428573
4972.5 4.28571
4973.5 7.57143
4974.5 14.5714
4975.5 18.4286
4976.5 2.71428
4977.5 -9.14286
4978.5 -1.57143
4979.5 19.7143
4980.5 29.8571
4981.5 10.4286
4982.5 -3.57628e-06
4983.5 15
4984.5 12.5714
4985.5 10
4986.5 2.57143
4987.5 34
4988.5 10.5714
4989.5 3.85714
4990.5 10.1429
4991.5 12.4286
4992.5 9.42857
4993.5 17
4994.5 11.2857
4995.5 17.1429
4996.5 11.4286
4997.5 23.8571
4998.5 12.5714
4999.5 24.1429
5000.5 27.1429
5001.5 25.2857
5002.5 7
5003.5 50.7143
5004.5 64.8571
5005.5 50.2857
5006.5 76
5007.5 80.8571
5008.5 89
5009.5 67
5010.5 12.5714
5011.5 4
5012.5 -11.1429
5013.5 24.2857
5014.5 -19.2857
5015.5 9.14286
5016.5 5.42857
5017.5 -11
5018.5 9
5019.5 15
5020.5 4
5021.5 8
5022.5 58.4286
5023.5 80.1429
5024.5 54.5714
5025.5 75.1429
5026.5 83.4286
5027.5 81.4286
5028.5 18
5029.5 34.1429
5030.5 44.4286
5031.5 1.85714
5032.5 12.1429
5033.5 26
5034.5 7.85714
5035.5 2.28571
5036.5 23.1429
5037.5 12
5038.5 7.71428
5039.5 -6.28572
5040.5 -2
5041.5 39.4286
5042.5 -1.71429
5043.5 -3
5044.5 -2.28572
5045.5 3.71428
5046.5 -8.28572
5047.5 16.1429
5048.5 -5.85714
5049.5 -3.42857
5050.5 16.4286
5051.5 17
5052.5 -17.4286
5053.5 25.7143
5054.5 26
5055.5 6.71428
5056.5 16.2857
5057.5 6.42857
5058.5 13.4286
5059.5 8.28571
5060.5 -3.85714
5061.5 22.8571
5062.5 18.8571
5063.5 4.42857
5064.5 17.8571
5065.5 16.1429
5066.5 10.8571
5067.5 3.42857
5068.5 17.8571
5069.5 18.4286
5070.5 -2.5034e-06
5071.5 16.1429
5072.5 40.2857
5073.5 17
5074.5 10
5075.5 -5.28572
5076.5 0.857141
5077.5 20.1429
5078.5 13.2857
5079.5 20.2857
5080.5 7.57143
5081.5 -11
5082.5 -7.57143
5083.5 20.7143
5084.5 9.57143
5085.5 -1
5086.5 4.71428
5087.5 -2.42857
5088.5 11.8571
5089.5 4.57143
5090.5 -3.71429
5091.5 4.71428
5092.5 -14.1429
5093.5 -7.42857
5094.5 12.7143
5095.5 -5.85714
5096.5 19.8571
5097.5 5.14286
5098.5 14
5099.5 27.2857
5100.5 20.1429
5101.5 48.5714
5102.5 22.1429
5103.5 26.1429
5104.5 18.7143
5105.5 13.7143
5106.5 21.8571
5107.5 40.7143
5108.5 9.85714
5109.5 -7.85714
5110.5 14.1429
5111.5 9.85714
5112.5 6
5113.5 -0.714288
5114.5 0.857141
5115.5 -6.28572
5116.5 16.4286
5117.5 5.85714
5118.5 14
5119.5 16.4286
5120.5 -6.42857
5121.5 14.4286
5122.5 9.42857
5123.5 14.8571
5124.5 0.714284
5125.5 2
5126.5 1.28571
5127.5 11.4286
5128.5 18.5714
5129.5 31.5714
5130.5 -1.28572
5131.5 32.2857
5132.5 10.8571
5133.5 4.57143
5134.5 0.999997
5135.5 28.7143
5136.5 13.1429
5137.5 -16.7143
5138.5 -4.14286
5139.5 -2.85714
5140.5 -9.85714
5141.5 13.2857
5142.5 19
5143.5 29.5714
5144.5 32.8571
5145.5 35.8571
5146.5 1.14286
5147.5 10.1429
5148.5 -4.28572
5149.5 20.2857
5150.5 7.85714
5151.5 10
5152.5 2.71428
5153.5 3.14286
5154.5 -1.57143
5155.5 11.5714
5156.5 -0.571431
5157.5 -8.42857
5158.5 16.7143
5159.5 8
5160.5 35.8571
5161.5 20.5714
5162.5 -9.14286
5163.5 11.5714
5164.5 10.2857
5165.5 6
5166.5 5.42857
5167.5 6.85714
5168.5 19
5169.5 -2.14286
5170.5 -2.71429
5171.5 6.28571
5172.5 0.285712
5173.5 16.5714
5174.5 -3.14286
5175.5 6
5176.5 0.714284
5177.5 -5
5178.5 21.2857
5179.5 3.14286
5180.5 17.1429
5181.5 15.8571
5182.5 -10.4286
5183.5 9
5184.5 35
5185.5 24.5714
5186.5 37.4286
5187.5 19.7143
5188.5 10.8571
5189.5 -0.714287
5190.5 7
5191.5 16.5714
5192.5 -26.2857
5193.5 46.5714
5194.5 26
5195.5 -6.71429
5196.5 48.7143
5197.5 19.2857
5198.5 8.14285
5199.5 19.1429
5200.5 19
5201.5 36.5714
5202.5 48.7143
5203.5 21.1429
5204.5 19.1429
5205.5 20.7143
5206.5 3.28571
5207.5 26.5714
5208.5 -6.28572
5209.5 -5
5210.5 -2.85714
5211.5 12.4286
5212.5 9.71428
5213.5 -7
5214.5 -9.57143
5215.5 17.4286
5216.5 14.2857
5217.5 5.14286
5218.5 6
5219.5 15.5714
5220.5 -1.71429
5221.5 16.2857
5222.5 52.4286
5223.5 42.1429
5224.5 41.7143
5225.5 -9.57143
5226.5 24.8571
5227.5 32.5714
5228.5 14
5229.5 5.14286
5230.5 13.8571
5231.5 37.2857
5232.5 -1.28572
5233.5 -1.71429
5234.5 18
5235.5 5.42857
5236.5 7.57143
5237.5 19.7143
5238.5 -4.57143
5239.5 10.8571
5240.5 4.42857
5241.5 6.85714
5242.5 -1.85715
5243.5 -12.4286
5244.5 20.2857
5245.5 -1.71429
5246.5 -11.4286
5247.5 5.42857
5248.5 29.8571
5249.5 5.57143
5250.5 11.2857
5251.5 23.7143
5252.5 11.1429
5253.5 5.85714
5254.5 12.4286
5255.5 10.2857
5256.5 5.71428
5257.5 -1
5258.5 21.4286
5259.5 6.71428
5260.5 -6
5261.5 -3
5262.5 5.14285
5263.5 5.42857
5264.5 21.8571
5265.5 37.4286
5266.5 -4.14286
5267.5 12.4286
5268.5 13
5269.5 -2
5270.5 6
5271.5 17.1429
5272.5 10.4286
5273.5 13.5714
5274.5 10.5714
5275.5 -7
5276.5 14.1429
5277.5 5.42857
5278.5 15.5714
5279.5 14.5714
5280.5 25.4286
5281.5 16.1429
5282.5 13.4286
5283.5 33.2857
5284.5 26.2857
5285.5 35.5714
5286.5 -17
5287.5 12.7143
5288.5 1.28571
5289.5 11.4286
5290.5 2.57143
5291.5 18
5292.5 20.4286
5293.5 22
5294.5 14.2857
5295.5 14.2857
5296.5 -9.14286
5297.5 12.4286
5298.5 13.1429
5299.5 -0.428573
5300.5 6.14286
5301.5 1.85714
5302.5 18
5303.5 4.42857
5304.5 4.28571
5305.5 24.7143
5306.5 11.1429
5307.5 18.5714
5308.5 15.8571
5309.5 8.57143
5310.5 5.71428
5311.5 22.7143
5312.5 12.8571
5313.5 26.5714
5314.5 17.5714
5315.5 26
5316.5 4.57143
5317.5 -10.2857
5318.5 8.71428
5319.5 4.85714
5320.5 2.28571
5321.5 -1.71429
5322.5 18
5323.5 15.8571
5324.5 38.4286
5325.5 24.7143
5326.5 16.2857
5327.5 -0.714288
5328.5 44.1429
5329.5 33.5714
5330.5 50.2857
5331.5 60.1429
5332.5 58.1429
5333.5 32.5714
5334.5 27.2857
5335.5 12.5714
5336.5 10.7143
5337.5 10.8571
5338.5 -2.71429
5339.5 22.7143
5340.5 24.4286
5341.5 16.5714
5342.5 14.7143
5343.5 6.42857
5344.5 25.1429
5345.5 29.8571
5346.5 -9.42857
5347.5 40.8571
5348.5 30.1429
5349.5 31.1429
5350.5 65.7143
5351.5 46.8571
5352.5 94.5714
5353.5 117.714
5354.5 206
5355.5 198.714
5356.5 178
5357.5 133.143
5358.5 49
5359.5 7.28571
5360.5 17.7143
5361.5 11
5362.5 -8.85714
5363.5 2
5364.5 -7.57143
5365.5 11
5366.5 1.57143
5367.5 -6.14286
5368.5 7.28571
5369.5 16.4286
5370.5 10.4286
5371.5 -2.57143
5372.5 -3.85714
5373.5 9.85714
5374.5 11
5375.5 -1.42857
5376.5 8.28571
5377.5 19.1429
5378.5 19.8571
5379.5 4
5380.5 7.85714
5381.5 1.71428
5382.5 3.42857
5383.5 21.2857
5384.5 20.7143
5385.5 5.14285
5386.5 9.57143
5387.5 -19.5714
5388.5 14.5714
5389.5 -1.71429
5390.5 -6
5391.5 6.42857
5392.5 27.7143
5393.5 27
5394.5 7.42857
5395.5 8.99999
5396.5 35.1429
5397.5 -28
5398.5 -19.5714
5399.5 12.8571
5400.5 10.1429
5401.5 -11
5402.5 14
5403.5 34.1429
5404.5 2.85714
5405.5 13.8571
5406.5 6.85714
5407.5 0.714284
5408.5 9.85714
5409.5 8.42857
5410.5 20.4286
5411.5 18.7143
5412.5 14.8571
5413.5 14.1429
5414.5 -2.42857
5415.5 -19.5714
5416.5 -2.57143
5417.5 -4.28572
5418.5 -4.42857
5419.5 0.571427
5420.5 -5.14286
5421.5 18.8571
5422.5 8.71428
5423.5 9.14286
5424.5 0.571427
5425.5 5.85714
5426.5 -0.857144
5427.5 2.14286
5428.5 3.28571
5429.5 -0.714287
5430.5 1.57143
5431.5 13.2857
5432.5 1.85714
5433.5 -4.71429
5434.5 9.71428
5435.5 5.57143
5436.5 -3.71429
5437.5 6.14286
5438.5 -0.428573
5439.5 11.4286
5440.5 -0.857144
5441.5 -15.8571
5442.5 -4
5443.5 9.42857
5444.5 11.5714
5445.5 4.14286
5446.5 -12.5714
5447.5 0.42857
5448.5 9
5449.5 -1
5450.5 -4.14286
5451.5 -5.71429
5452.5 29.1429
5453.5 30
5454.5 -3
5455.5 -0.857144
5456.5 -5.85714
5457.5 7.85714
5458.5 -5.14286
5459.5 -2
5460.5 18.5714
5461.5 -6
5462.5 7.14286
5463.5 6.28571
5464.5 -11.4286
5465.5 -7.42857
5466.5 15.1429
5467.5 6.14286
5468.5 16.4286
5469.5 9.71428
5470.5 6.28571
5471.5 2.14286
5472.5 13
5473.5 -5.85714
5474.5 -11.7143
5475.5 18.4286
5476.5 6.42857
5477.5 7.85714
5478.5 -6.57143
5479.5 8.28571
5480.5 5.71428
5481.5 6.14286
5482.5 1.71428
5483.5 8.85714
5484.5 -2.85714
5485.5 12.8571
5486.5 -23.1429
5487.5 14.4286
5488.5 21.8571
5489.5 0.714283
5490.5 36.2857
5491.5 21.8571
5492.5 -16.7143
5493.5 -4.85714
5494.5 6
5495.5 -7.85714
5496.5 11
5497.5 -13.4286
5498.5 -11.4286
5499.5 1.28571
5500.5 -15.2857
5501.5 -7.42857
5502.5 1.28571
5503.5 16.4286
5504.5 20.8571
5505.5 10
5506.5 -1.14286
5507.5 -22.7143
5508.5 -3.57143
5509.5 -11
5510.5 5.71428
5511.5 6.42857
5512.5 -2.57143
5513.5 -2.14286
5514.5 8
5515.5 45.2857
5516.5 74.5714
5517.5 98.4286
5518.5 134.286
5519.5 123
5520.5 90.5714
5521.5 36.4286
5522.5 2
5523.5 3
5524.5 -20.4286
5525.5 11.5714
5526.5 -13.1429
5527.5 2.85714
5528.5 18.8571
5529.5 3.85714
5530.5 2.28571
5531.5 32.1429
5532.5 38.5714
5533.5 62.4286
5534.5 93
5535.5 118.857
5536.5 174.857
5537.5 206.143
5538.5 204.286
5539.5 168.857
5540.5 104.571
5541.5 31
5542.5 21.7143
5543.5 8.28571
5544.5 -1
5545.5 17
5546.5 -1.85714
5547.5 11.5714
5548.5 9.28571
5549.5 6
5550.5 7.57143
5551.5 1.57143
5552.5 3.57143
5553.5 10.5714
5554.5 1.85714
5555.5 6
5556.5 -19
5557.5 -7.85714
5558.5 -16.8571
5559.5 -1.14286
5560.5 13.4286
5561.5 0.285713
5562.5 6.71428
5563.5 -18.4286
5564.5 6
5565.5 9
5566.5 0.142856
5567.5 -6.85714
5568.5 0.857142
5569.5 2.85714
5570.5 -12.4286
5571.5 3.85714
5572.5 -8.28572
5573.5 -0.714287
5574.5 -10.5714
5575.5 15.2857
5576.5 1.57143
5577.5 6.28571
5578.5 3
5579.5 -6.14286
5580.5 -4.42857
5581.5 13.7143
5582.5 3.57143
5583.5 -15.5714
5584.5 -5
5585.5 -0.428573
5586.5 2.71428
5587.5 0.142856
5588.5 21.1429
5589.5 -7.57143
5590.5 -1.57143
5591.5 17
5592.5 17.5714
5593.5 -2.71429
5594.5 -17.2857
5595.5 8.42857
5596.5 7.85714
5597.5 5.14286
5598.5 0.714284
5599.5 14.7143
5600.5 4.71428
5601.5 1.14286
5602.5 -0.142859
5603.5 11.4286
5604.5 -0.857144
5605.5 -3.14286
5606.5 -14
5607.5 -1.43051e-06
5608.5 10.2857
5609.5 6.42857
5610.5 5.28571
5611.5 -7.14286
5612.5 -36.1429
5613.5 16.2857
5614.5 -3.28572
5615.5 29.2857
5616.5 11.2857
5617.5 20
5618.5 10.8571
5619.5 17.7143
5620.5 4.85714
5621.5 11
5622.5 -5
5623.5 14.5714
5624.5 8.28571
5625.5 -19.1429
5626.5 -13.4286
5627.5 17
5628.5 6.57143
5629.5 -1.71429
5630.5 -6.42857
5631.5 13.7143
5632.5 19.5714
5633.5 10.1429
5634.5 -0.285716
5635.5 3.14286
5636.5 6.42857
5637.5 -1.85714
5638.5 14
5639.5 19.1429
5640.5 4.28571
5641.5 7.14286
5642.5 0.142856
5643.5 2.14286
5644.5 0.142856
5645.5 -4.14286
5646.5 7.14286
5647.5 5
5648.5 13.4286
5649.5 -6.28572
5650.5 8
5651.5 7.85714
5652.5 17.1429
5653.5 -5.57143
5654.5 -1.71429
5655.5 0.571427
5656.5 -3.42857
5657.5 17.7143
5658.5 -0.142859
5659.5 -0.142858
5660.5 4.42857
5661.5 -5.57143
5662.5 0.857142
5663.5 8.14286
5664.5 -5.85714
5665.5 4.14286
5666.5 15
5667.5 0.571427
5668.5 -1.42857
5669.5 19.7143
5670.5 17.4286
5671.5 -12
5672.5 -3.57143
5673.5 0.142855
5674.5 4.42857
5675.5 -12
5676.5 9
5677.5 -6.71429
5678.5 -4.42857
5679.5 -6.42857
5680.5 -7.28572
5681.5 -0.714287
5682.5 29
5683.5 3.85714
5684.5 -1
5685.5 -3.85714
5686.5 16.1429
5687.5 -4.14286
5688.5 -0.142859
5689.5 -6.42857
5690.5 3.71428
5691.5 -18.8571
5692.5 -4
5693.5 -9.85714
5694.5 7.85714
5695.5 3.85714
5696.5 -13.7143
5697.5 -3.14286
5698.5 -7
5699.5 10.5714
5700.5 11
5701.5 6.85714
5702.5 -3.28572
5703.5 4.14286
5704.5 13.4286
5705.5 -1.71429
5706.5 -9
5707.5 -7.42857
5708.5 23.5714
5709.5 13.1429
5710.5 16.7143
5711.5 40
5712.5 54.7143
5713.5 68.2857
5714.5 31
5715.5 55.8571
5716.5 36.8571
5717.5 4
5718.5 4.28571
5719.5 5.28571
5720.5 -8.85714
5721.5 -15.2857
5722.5 -12.4286
5723.5 -8.14286
5724.5 -12
5725.5 -5.57143
5726.5 -11.5714
5727.5 0.999999
5728.5 -11.7143
5729.5 9.42857
5730.5 -19
5731.5 13.2857
5732.5 -1.42857
5733.5 -6.14286
5734.5 9.57143
5735.5 16.5714
5736.5 4
5737.5 -6.57143
5738.5 -15.2857
5739.5 -6.71429
5740.5 8.57143
5741.5 3.14286
5742.5 -2.57143
5743.5 17
5744.5 -3.28572
5745.5 -6.28572
5746.5 4.14286
5747.5 3.71428
5748.5 3.57143
5749.5 -3.71429
5750.5 -8.71429
5751.5 11
5752.5 -8
5753.5 10.8571
5754.5 -5.28572
5755.5 -27.1429
5756.5 7.42857
5757.5 -12.2857
5758.5 2
5759.5 -7.85714
5760.5 -12.1429
5761.5 -5.71429
5762.5 20.5714
5763.5 -8.42857
5764.5 2.42857
5765.5 -15.1429
5766.5 -0.142859
5767.5 12.2857
5768.5 -5
5769.5 15.7143
5770.5 20.7143
5771.5 -0.714287
5772.5 2.14286
5773.5 14.2857
5774.5 6.57143
5775.5 -2.57143
5776.5 0.285713
5777.5 -9.14286
5778.5 -2.85714
5779.5 4.57143
5780.5 4.85714
5781.5 -23.8571
5782.5 3.57143
5783.5 5
5784.5 0.571427
5785.5 -1
5786.5 5.85714
5787.5 3.71428
5788.5 -10.8571
5789.5 0.571427
5790.5 -7.28572
5791.5 6.57143
5792.5 9.71428
5793.5 0.857142
5794.5 9.71428
5795.5 -4.57143
5796.5 -2.57143
5797.5 -5.28572
5798.5 -3.42857
5799.5 12.1429
5800.5 5.85714
5801.5 3.42857
5802.5 -19.2857
5803.5 -4.71429
5804.5 -0.857144
5805.5 -1
5806.5 -4.14286
5807.5 -5
5808.5 -3.57143
5809.5 -1.28572
5810.5 -21
5811.5 -9.85714
5812.5 9.57143
5813.5 -1.42857
5814.5 -2
5815.5 -6.42857
5816.5 8.28571
5817.5 -1.57143
5818.5 3.14286
5819.5 -14.4286
5820.5 4.42857
5821.5 2.14286
5822.5 2.42857
5823.5 2.42857
5824.5 2
5825.5 -11.5714
5826.5 -1
5827.5 15.5714
5828.5 -4.85715
5829.5 13.2857
5830.5 51
5831.5 -11.1429
5832.5 0.999997
5833.5 11.8571
5834.5 -3.42857
5835.5 6.42857
5836.5 38.7143
5837.5 46.5714
5838.5 84.7143
5839.5 121.857
5840.5 141.429
5841.5 163.857
5842.5 137.857
5843.5 100.571
5844.5 58.7143
5845.5 45.8571
5846.5 19.2857
5847.5 22.2857
5848.5 2.85714
5849.5 10.1429
5850.5 7
5851.5 -1.28572
5852.5 2
5853.5 -1.85714
5854.5 6.57143
5855.5 21.2857
5856.5 9.71428
5857.5 -4.28572
5858.5 -13.7143
5859.5 -4.57143
5860.5 12.5714
5861.5 -8.85714
5862.5 -5.14286
5863.5 7.85714
5864.5 12.7143
5865.5 -9.42857
5866.5 4.28571
5867.5 10.5714
5868.5 3.71428
5869.5 -6.14286
5870.5 -7
5871.5 5.85714
5872.5 -6.14286
5873.5 -6.14286
5874.5 -7.14286
5875.5 -6.28572
5876.5 1.14286
5877.5 0.999999
5878.5 -4
5879.5 -5.71429
5880.5 8.42857
5881.5 -9.28572
5882.5 12.5714
5883.5 8.28571
5884.5 -2.57143
5885.5 3
5886.5 -6.57143
5887.5 14
5888.5 -0.857144
5889.5 2.42857
5890.5 -2.71429
5891.5 -9.85714
5892.5 5.85714
5893.5 1.85714
5894.5 -13.8571
5895.5 -18.8571
5896.5 -3.57143
5897.5 17.7143
5898.5 -4.57143
5899.5 -37.1429
5900.5 -15.2857
5901.5 -35.4286
5902.5 -24.7143
5903.5 8.85714
5904.5 -21.1429
5905.5 9.71428
5906.5 14.5714
5907.5 -4.28572
5908.5 3.28571
5909.5 -21
5910.5 5
5911.5 16.7143
5912.5 1.57143
5913.5 10.8571
5914.5 -0.57143
5915.5 -0.428573
5916.5 -5.85714
5917.5 4.42857
5918.5 8.42857
5919.5 -2.85714
5920.5 -1.42857
5921.5 -10.4286
5922.5 0.857142
5923.5 -12.4286
5924.5 12.1429
5925.5 -8.14286
5926.5 8.14286
5927.5 9.85714
5928.5 13
5929.5 3
5930.5 -4.14286
5931.5 7.14286
5932.5 14.7143
5933.5 7
5934.5 -13
5935.5 -3.14286
5936.5 -5
5937.5 6.14286
5938.5 -7.15256e-07
5939.5 11.1429
5940.5 -14.8571
5941.5 4.14286
5942.5 -1
5943.5 4.85714
5944.5 0.857142
5945.5 -2
5946.5 -4.14286
5947.5 0.714285
5948.5 -4.71429
5949.5 -0.571429
5950.5 9.42857
5951.5 6.57143
5952.5 10.1429
5953.5 20
5954.5 6.85714
5955.5 2.28571
5956.5 9.28571
5957.5 8
5958.5 3.42857
5959.5 3.42857
5960.5 5.14286
5961.5 -12.1429
5962.5 5.71428
5963.5 25.2857
5964.5 16.5714
5965.5 13.4286
5966.5 -9.85714
5967.5 16.4286
5968.5 16.4286
5969.5 -0.285716
5970.5 24
5971.5 -12.2857
5972.5 12.4286
5973.5 -4.28572
5974.5 6.85714
5975.5 0.571428
5976.5 17.7143
5977.5 8
5978.5 10.5714
5979.5 -2.57143
5980.5 19.1429
5981.5 7.28571
5982.5 7.14286
5983.5 13.1429
5984.5 3.71429
5985.5 7.14286
5986.5 1.28571
5987.5 4.71429
5988.5 -13.7143
5989.5 -7.71429
5990.5 5.71429
5991.5 -0.571429
5992.5 -5.85714
5993.5 -15.4286
5994.5 -9.42857
5995.5 -22.1429
5996.5 3.85714
5997.5 3.71428
5998.5 -4.14286
5999.5 1.14285
6000.5 12.8571
6001.5 -13
6002.5 24
6003.5 12.1429
6004.5 -10.4286
6005.5 4.71428
6006.5 14.2857
6007.5 10.1429
6008.5 -1
6009.5 8.42857
6010.5 20.4286
6011.5 11.7143
6012.5 -6.42857
6013.5 2.28571
6014.5 14.5714
6015.5 -0.571429
6016.5 5.28571
6017.5 2.71429
6018.5 15.2857
6019.5 13.2857
6020.5 -2.71429
6021.5 12.8571
6022.5 11.5714
6023.5 5.42857
6024.5 4.14286
6025.5 -10.8571
6026.5 -1.71429
6027.5 -3.71429
6028.5 -17
6029.5 -35.8571
6030.5 -32.5714
6031.5 -38.4286
6032.5 -111.857
6033.5 -77.2857
6034.5 -84.8571
6035.5 -56.1429
6036.5 -18.8571
6037.5 -23
6038.5 1.85714
6039.5 26.7143
6040.5 13.5714
6041.5 -10.8571
6042.5 -6.57143
6043.5 -5
6044.5 10.7143
6045.5 0.428571
6046.5 8.57143
6047.5 -4.85714
6048.5 5.14286
6049.5 -5
6050.5 2.42857
6051.5 4.28571
6052.5 -5.28571
6053.5 -5.28572
6054.5 -12.7143
6055.5 0.571428
6056.5 -1.71429
6057.5 -1.14286
6058.5 3.57143
6059.5 10.7143
6060.5 -1.14286
6061.5 -7.57143
6062.5 -4.57143
6063.5 -1.57143
6064.5 8.28571
6065.5 4.85714
6066.5 5.85714
6067.5 -1.57143
6068.5 -1.14286
6069.5 -2.57143
6070.5 -7.28572
6071.5 2.28571
6072.5 10.4286
6073.5 7.28571
6074.5 -4.85714
6075.5 5
6076.5 17.1429
6077.5 0.857142
6078.5 5.71429
6079.5 -0.142858
6080.5 -2.14286
6081.5 -0.857144
6082.5 5.57143
6083.5 -2
6084.5 0.142856
6085.5 0.999999
6086.5 -9
6087.5 -6.57143
6088.5 1.57143
6089.5 6.57143
6090.5 9.14286
6091.5 -10.8571
6092.5 7
6093.5 -10.5714
6094.5 5.57143
6095.5 -1.14286
6096.5 -0.857144
6097.5 10.2857
6098.5 -3.42857
6099.5 7.14286
6100.5 -3.14286
6101.5 -4.28572
6102.5 -9.28572
6103.5 -6.42857
6104.5 6.71428
6105.5 5.42857
6106.5 -13
6107.5 5.57143
6108.5 1.57143
6109.5 -12.5714
6110.5 -5.85714
6111.5 8.42857
6112.5 9.57143
6113.5 8
6114.5 3.57143
6115.5 7.71428
6116.5 4
6117.5 14.7143
6118.5 -5.57143
6119.5 6.28571
6120.5 -13.5714
6121.5 -17.1429
6122.5 -40.2857
6123.5 15.2857
6124.5 18.7143
6125.5 4.57142
6126.5 -6.71429
6127.5 -8
6128.5 -9.71429
6129.5 -9.14286
6130.5 -1.14286
6131.5 9.28571
6132.5 14.1429
6133.5 2.57143
6134.5 -5.14286
6135.5 0.571428
6136.5 16.1429
6137.5 2
6138.5 6.57143
6139.5 6.28571
6140.5 -3.57143
6141.5 9.85714
6142.5 -5.42857
6143.5 -1.71429
6144.5 -0.857144
6145.5 1.85714
6146.5 1.57143
6147.5 -4.14286
6148.5 -6
6149.5 0.285714
6150.5 -2
6151.5 -5.42857
6152.5 15.4286
6153.5 -5
6154.5 -0.428572
6155.5 0.714285
6156.5 6
6157.5 1.57143
6158.5 -1.85714
6159.5 8
6160.5 -0.857143
6161.5 11.5714
6162.5 -7
6163.5 6.28571
6164.5 -1
6165.5 -4.42857
6166.5 -0.285715
6167.5 5
6168.5 -11.1429
6169.5 13.4286
6170.5 7.71429
6171.5 -0.714286
6172.5 8
6173.5 1.71429
6174.5 -4.57143
6175.5 0.571428
6176.5 0.142857
6177.5 -4.57143
6178.5 4.71429
6179.5 7.42857
6180.5 0.428571
6181.5 -2.85714
6182.5 7
6183.5 -0.714286
6184.5 21.8571
6185.5 -13.1429
6186.5 -7.28572
6187.5 1.14286
6188.5 5.14286
6189.5 3
6190.5 -2.42857
6191.5 -11.1429
6192.5 2.28571
6193.5 -6.42857
6194.5 6.71429
6195.5 -6.71429
6196.5 -3.85714
6197.5 3.57143
6198.5 1.42857
6199.5 -17.7143
6200.5 -2.57143
6201.5 -13
6202.5 -10.7143
6203.5 -6
6204.5 6.42857
6205.5 -2.28571
6206.5 -14.1429
6207.5 9.71429
6208.5 -10.5714
6209.5 6.42857
6210.5 -6.85714
6211.5 -5.14286
6212.5 -1.85714
6213.5 5.14286
6214.5 13.7143
6215.5 8.57143
6216.5 6.85714
6217.5 18.1429
6218.5 21
6219.5 29.5714
6220.5 63.7143
6221.5 58.8571
6222.5 75
6223.5 93.7143
6224.5 123.429
6225.5 118.714
6226.5 105.714
6227.5 70
6228.5 22.1429
6229.5 34.4286
6230.5 10.8571
6231.5 1.85714
6232.5 -8.14286
6233.5 -2.57143
6234.5 -8.85714
6235.5 -3.42857
6236.5 0.285714
6237.5 -7.71429
6238.5 -15.4286
6239.5 -23.1429
6240.5 -3.71429
6241.5 0.714285
6242.5 -4.71429
6243.5 -2.28571
6244.5 -7
6245.5 12
6246.5 -12.4286
6247.5 -9.28572
6248.5 -1.85714
6249.5 2.71429
6250.5 -1.42857
6251.5 -8.85714
6252.5 9.71429
6253.5 4
6254.5 6.28571
6255.5 4.57143
6256.5 14.4286
6257.5 -6.14286
6258.5 11.5714
6259.5 -4.85714
6260.5 -1.57143
6261.5 8.14286
6262.5 -6.42857
6263.5 -5.14286
6264.5 -8.14286
6265.5 -1.71429
6266.5 1.71429
6267.5 -1.85714
6268.5 -6.28571
6269.5 -0.285715
6270.5 1.42857
6271.5 -12.7143
6272.5 2.14286
6273.5 -4.14286
6274.5 -10.1429
6275.5 -5.28571
6276.5 -0.428572
6277.5 1.42857
6278.5 -10
6279.5 -2.42857
6280.5 2.57143
6281.5 -0.428572
6282.5 0.571428
6283.5 -4.85714
6284.5 11.2857
6285.5 5.85714
6286.5 2.42857
6287.5 6.85714
6288.5 -0.714286
6289.5 7.14286
6290.5 4.28571
6291.5 4.71429
6292.5 3.71429
6293.5 9.71429
6294.5 -3.42857
6295.5 10.7143
6296.5 -2.42857
6297.5 11.1429
6298.5 -0.857143
6299.5 -1.71429
6300.5 0.428571
6301.5 -2.28571
6302.5 8.85714
6303.5 -1.57143
6304.5 4.85714
6305.5 8.85714
6306.5 -3.42857
6307.5 -5.85714
6308.5 -3
6309.5 0.857142
6310.5 7
6311.5 -2.57143
6312.5 -1.57143
6313.5 1.14286
6314.5 8.57143
6315.5 6.57143
6316.5 2.71429
6317.5 -1
6318.5 4
6319.5 5.71429
6320.5 7.28571
6321.5 3.57143
6322.5 12.7143
6323.5 8.14286
6324.5 -7.57143
6325.5 10.8571
6326.5 -3.57143
6327.5 -8.71429
6328.5 -15
6329.5 -0.57143
6330.5 6.57143
6331.5 -10.7143
6332.5 6
6333.5 -5
6334.5 6.57143
6335.5 -3.28571
6336.5 0.285714
6337.5 -4.57143
6338.5 0.714285
6339.5 -7
6340.5 4.14286
6341.5 3
6342.5 2.42857
6343.5 -11.8571
6344.5 4.28571
6345.5 4
6346.5 -3.14286
6347.5 4.14286
6348.5 -0.428572
6349.5 -3
6350.5 -4
6351.5 4.85714
6352.5 -2.57143
6353.5 8.57143
6354.5 -7.14286
6355.5 4.42857
6356.5 2.42857
6357.5 4
6358.5 0.428571
6359.5 3
6360.5 4.42857
6361.5 8.42857
6362.5 -1.42857
6363.5 -6
6364.5 -8.85714
6365.5 0.857142
6366.5 -3.42857
6367.5 -6.85714
6368.5 -10.2857
6369.5 -11.2857
6370.5 3.57143
6371.5 1.85714
6372.5 1
6373.5 -4.85714
6374.5 -3.71429
6375.5 8.42857
6376.5 -1.71429
6377.5 -5.28571
6378.5 4.57143
6379.5 -1.71429
6380.5 -6.28571
6381.5 16.8571
6382.5 10.4286
6383.5 3.28571
6384.5 2.85714
6385.5 -7.71429
6386.5 -6.57143
6387.5 2.42857
6388.5 2.42857
6389.5 -2
6390.5 -8.42857
6391.5 10.1429
6392.5 -3
6393.5 -9.85714
6394.5 4.28571
6395.5 0.285714
6396.5 2.85714
6397.5 11.2857
6398.5 -13.4286
6399.5 7.42857
6400.5 3.14286
6401.5 2.57143
6402.5 1.42857
6403.5 -0.285715
6404.5 7.85714
6405.5 -8.28571
6406.5 -2.71429
6407.5 3.57143
6408.5 -3.71429
6409.5 0.857142
6410.5 10.4286
6411.5 -3.57143
6412.5 8.85714
6413.5 -3.71429
6414.5 -0.714286
6415.5 -14.7143
6416.5 -6.14286
6417.5 10.8571
6418.5 -24.7143
6419.5 19
6420.5 -8.85714
6421.5 -12.5714
6422.5 12.1429
6423.5 -16.2857
6424.5 -6.28572
6425.5 4
6426.5 -2.85714
6427.5 8.14286
6428.5 -2.14286
6429.5 5.71429
6430.5 -9.14286
6431.5 -7.71429
6432.5 4
6433.5 -2
6434.5 7.85714
6435.5 12.1429
6436.5 -0.571429
6437.5 11.4286
6438.5 12.1429
6439.5 1.57143
6440.5 2.14286
6441.5 -12.1429
6442.5 5.85714
6443.5 2.28571
6444.5 -2.14286
6445.5 -9.71429
6446.5 6.57143
6447.5 -2.28571
6448.5 -4.76837e-07
6449.5 15.4286
6450.5 8.14286
6451.5 6.57143
6452.5 -9.85714
6453.5 19.8571
6454.5 1
6455.5 -2
6456.5 -2.71429
6457.5 -5.57143
6458.5 -1.57143
6459.5 -2
6460.5 -1.28571
6461.5 0.285714
6462.5 -8.42857
6463.5 1.57143
6464.5 -1.14286
6465.5 -4.85714
6466.5 10.4286
6467.5 -12.4286
6468.5 -0.428572
6469.5 -3.85714
6470.5 -3.85714
6471.5 3.71429
6472.5 4.14286
6473.5 2.28571
6474.5 -2.57143
6475.5 -4.14286
6476.5 -9
6477.5 25.4286
6478.5 6
6479.5 19.7143
6480.5 8.14285
6481.5 -14
6482.5 4.28571
6483.5 6.42857
6484.5 -8
6485.5 -10.2857
6486.5 4.57143
6487.5 1.71429
6488.5 -1.85714
6489.5 12.7143
6490.5 10.2857
6491.5 -6.28571
6492.5 1.85714
6493.5 -2.85714
6494.5 -0.285715
6495.5 0.714285
6496.5 7.14286
6497.5 -0.285715
6498.5 5.57143
6499.5 6.42857
6500.5 -1.42857
6501.5 -3.42857
6502.5 2.42857
6503.5 6
6504.5 6.28571
6505.5 -1.28571
6506.5 -4.71429
6507.5 -3.57143
6508.5 2.71429
6509.5 -3.28571
6510.5 -4.57143
6511.5 2.28571
6512.5 -1.14286
6513.5 -7.57143
6514.5 -5.57143
6515.5 1.14286
6516.5 -5.85714
6517.5 4.57143
6518.5 2.14286
6519.5 -3.57143
6520.5 -0.571429
6521.5 -8.14286
6522.5 -2
6523.5 7.71429
6524.5 -2.28571
6525.5 3.57143
6526.5 5.14286
6527.5 5.71429
6528.5 5.71429
6529.5 5.71429
6530.5 8
6531.5 6.71429
6532.5 3
6533.5 0.714285
6534.5 11.8571
6535.5 -1.57143
6536.5 14.8571
6537.5 -3.42857
6538.5 1.57143
6539.5 -1.71429
6540.5 7.28571
6541.5 -9
6542.5 -4.42857
6543.5 4
6544.5 -1.57143
6545.5 -28
6546.5 -21.4286
6547.5 14.4286
6548.5 -6.42857
6549.5 5.57143
6550.5 -12.8571
6551.5 -7.85714
6552.5 -3
6553.5 -0.285715
6554.5 2.14286
6555.5 -3.57628e-07
6556.5 -7.71429
6557.5 -8
6558.5 -11.1429
6559.5 -5.71429
6560.5 -4.57143
6561.5 -12.2857
6562.5 -2
6563.5 -11.4286
6564.5 -8.14286
6565.5 -11
6566.5 0.285714
6567.5 -13.1429
6568.5 -1.85714
6569.5 -2
6570.5 -0.857143
6571.5 2.57143
6572.5 7.14286
6573.5 4.42857
6574.5 9.42857
6575.5 4.71429
6576.5 3.42857
6577.5 0.142857
6578.5 4.85714
6579.5 10.7143
6580.5 -2.14286
6581.5 -2
6582.5 7.42857
6583.5 -6.14286
6584.5 -3.57143
6585.5 -2.38419e-07
6586.5 -12.7143
6587.5 7.14286
6588.5 -4.28571
6589.5 12
6590.5 -2.57143
6591.5 1
6592.5 -2.57143
6593.5 -6.28571
6594.5 -0.142857
6595.5 7.14286
6596.5 8.28571
6597.5 3.28571
6598.5 -1.14286
6599.5 -7.28571
6600.5 6.57143
6601.5 4
6602.5 1.57143
6603.5 2.14286
6604.5 7.28571
6605.5 0.428571
6606.5 -1.71429
6607.5 -2.38419e-07
6608.5 -3.71429
6609.5 1.71429
6610.5 -2
6611.5 -1
6612.5 -4.85714
6613.5 -1.14286
6614.5 -5.28571
6615.5 -10.4286
6616.5 3.28571
6617.5 -1.85714
6618.5 7.71429
6619.5 6
6620.5 -2.71429
6621.5 3.28571
6622.5 4.14286
6623.5 -0.857143
6624.5 5.57143
6625.5 -1
6626.5 -2
6627.5 6.28571
6628.5 -2
6629.5 13.1429
6630.5 3.14286
6631.5 4.42857
6632.5 -2.28571
6633.5 0.857143
6634.5 6
6635.5 7
6636.5 6.28571
6637.5 9.42857
6638.5 -1.57143
6639.5 -3.42857
6640.5 -4.57143
6641.5 -0.142857
6642.5 -4.42857
6643.5 -11
6644.5 -0.571429
6645.5 0.857143
6646.5 -3
6647.5 -4.57143
6648.5 2.14286
6649.5 -6.42857
6650.5 4.42857
6651.5 11.8571
6652.5 17
6653.5 -2.57143
6654.5 -7.57143
6655.5 -0.142857
6656.5 -4.57143
6657.5 11.7143
6658.5 -0.142857
6659.5 -4.85714
6660.5 5.57143
6661.5 -4.71429
6662.5 -1.28571
6663.5 -5.14286
6664.5 1.71429
6665.5 -0.285715
6666.5 4.57143
6667.5 -9.57143
6668.5 -3.71429
6669.5 3.71429
6670.5 5.85714
6671.5 -1.42857
6672.5 1.57143
6673.5 0.714285
6674.5 -5.28571
6675.5 -1.85714
6676.5 -0.285715
6677.5 3.28571
6678.5 -3.57143
6679.5 5.28571
6680.5 -3.42857
6681.5 -4.71429
6682.5 -2
6683.5 0.285714
6684.5 -5.42857
6685.5 -8.57143
6686.5 1.57143
6687.5 3.71429
6688.5 4.42857
6689.5 -3.85714
6690.5 0.857143
6691.5 8
6692.5 0.571428
6693.5 -4.42857
6694.5 5.14286
6695.5 1.85714
6696.5 4.28571
6697.5 8.42857
6698.5 9.57143
6699.5 4.42857
6700.5 4.57143
6701.5 -8.42857
6702.5 3.57143
6703.5 -3.42857
6704.5 5.71429
6705.5 -2.71429
6706.5 -7
6707.5 -0.857143
6708.5 4.71429
6709.5 -4.57143
6710.5 -4.57143
6711.5 -2.28571
6712.5 -6.71429
6713.5 5.42857
6714.5 8.57143
6715.5 -2.14286
6716.5 -4.71429
6717.5 -1.28571
6718.5 -0.142857
6719.5 -3.85714
6720.5 -3.85714
6721.5 -1.28571
6722.5 -0.285715
6723.5 4.42857
6724.5 2
6725.5 -7.71429
6726.5 0.857143
6727.5 -3.14286
6728.5 3.14286
6729.5 -3.42857
6730.5 -4.85714
6731.5 2.85714
6732.5 -7.57143
6733.5 -1
6734.5 -6
6735.5 -9.42857
6736.5 -3
6737.5 -1.28571
6738.5 -1.14286
6739.5 -3.14286
6740.5 -6.57143
6741.5 -4
6742.5 -0.285715
6743.5 8.14286
6744.5 2.57143
6745.5 5.28571
6746.5 3
6747.5 -3.42857
6748.5 -8.57143
6749.5 -6.85714
6750.5 -6.28571
6751.5 0.714285
6752.5 -2.57143
6753.5 1.71429
6754.5 -3.14286
6755.5 3.85714
6756.5 4.85714
6757.5 -1.57143
6758.5 2.71429
6759.5 6.85714
6760.5 8.14286
6761.5 2.14286
6762.5 -9.28571
6763.5 -5.57143
6764.5 -5.57143
6765.5 2.71429
6766.5 -2.42857
6767.5 -3.42857
6768.5 -3.42857
6769.5 -15
6770.5 11.4286
6771.5 2.14286
6772.5 -17.2857
6773.5 -5.85714
6774.5 -7.71429
6775.5 10.4286
6776.5 0.714285
6777.5 -1
6778.5 -0.428572
6779.5 1.14286
6780.5 10.2857
6781.5 4.57143
6782.5 1.42857
6783.5 2.71429
6784.5 -3.57143
6785.5 -3.14286
6786.5 -1.57143
6787.5 -2.42857
6788.5 0.857143
6789.5 -0.285715
6790.5 5
6791.5 -1.85714
6792.5 1.57143
6793.5 -0.285715
6794.5 -3.57143
6795.5 -0.857143
6796.5 0.857143
6797.5 -4.57143
6798.5 3.42857
6799.5 8.14286
6800.5 -4.28571
6801.5 -2.42857
6802.5 3.71429
6803.5 -1.71429
6804.5 -3.42857
6805.5 0.571428
6806.5 -4.28571
6807.5 7.42857
6808.5 1.71429
6809.5 -3.57143
6810.5 -2.71429
6811.5 1.85714
6812.5 -0.857143
6813.5 -5.71429
6814.5 2.28571
6815.5 -4.85714
6816.5 2
6817.5 -2.38419e-07
6818.5 -1
6819.5 -7.57143
6820.5 -0.285714
6821.5 -5.57143
6822.5 -6
6823.5 3.28571
6824.5 1.42857
6825.5 -2.71429
6826.5 6
6827.5 4.71429
6828.5 -2
6829.5 -0.857143
6830.5 -2.14286
6831.5 0.571428
6832.5 -6.14286
6833.5 2.14286
6834.5 5.28571
6835.5 -2.14286
6836.5 0.285714
6837.5 -3.14286
6838.5 -1.57143
6839.5 -3
6840.5 4.71429
6841.5 -0.857143
6842.5 -3
6843.5 -6.42857
6844.5 -0.142857
6845.5 1.57143
6846.5 -2.42857
6847.5 -7.28571
6848.5 -1.85714
6849.5 -2
6850.5 -1.28571
6851.5 5
6852.5 -1.28571
6853.5 -1.14286
6854.5 -2.28571
6855.5 0.142857
6856.5 3.14286
6857.5 -5.14286
6858.5 -0.857143
6859.5 1.14286
6860.5 0.428571
6861.5 -5.85714
6862.5 -0.571429
6863.5 7
6864.5 3.42857
6865.5 4.28571
6866.5 0.428571
6867.5 1.42857
6868.5 -1.85714
6869.5 0.285714
6870.5 -3.57143
6871.5 -1.57143
6872.5 1.42857
6873.5 0.142857
6874.5 -7.85714
6875.5 -3.71429
6876.5 1.28571
6877.5 -10.5714
6878.5 -5.42857
6879.5 -4.85714
6880.5 -5.28571
6881.5 2.57143
6882.5 0.714285
6883.5 2.14286
6884.5 -3.57143
6885.5 0.142857
6886.5 1.85714
6887.5 9.71429
6888.5 5.85714
6889.5 11.1429
6890.5 0.857143
6891.5 5
6892.5 3.71429
6893.5 5.57143
6894.5 9.14286
6895.5 -0.857143
6896.5 6
6897.5 2.28571
6898.5 -2.38419e-07
6899.5 -5.85714
6900.5 -1.71429
6901.5 6.42857
6902.5 5.14286
6903.5 -1
6904.5 -3.28571
6905.5 -9.85714
6906.5 8.28571
6907.5 4.71429
6908.5 -6
6909.5 -4
6910.5 4.85714
6911.5 -11.7143
6912.5 -16
6913.5 3
6914.5 -2.42857
6915.5 -4.71429
6916.5 -0.857143
6917.5 -2.14286
6918.5 -2
6919.5 8.71429
6920.5 -1.85714
6921.5 -2.14286
6922.5 -2.57143
6923.5 0.714285
6924.5 0.571428
6925.5 -1.57143
6926.5 -6.71429
6927.5 -8.85714
6928.5 8.71429
6929.5 -7.57143
6930.5 6.14286
6931.5 -7.42857
6932.5 7.42857
6933.5 -3.57143
6934.5 11.8571
6935.5 2.42857
6936.5 -0.571429
6937.5 8.85714
6938.5 6.42857
6939.5 -5
6940.5 3.28571
6941.5 -0.142857
6942.5 -1.28571
6943.5 3.57143
6944.5 3.14286
6945.5 2.85714
6946.5 -0.714286
6947.5 4.57143
6948.5 -3.28571
6949.5 3.28571
6950.5 -1.85714
6951.5 -0.857143
6952.5 3.57143
6953.5 1.14286
6954.5 3.28571
6955.5 -1.71429
6956.5 0.714285
6957.5 1
6958.5 -0.857143
6959.5 -2.38419e-07
6960.5 -4.71429
6961.5 -0.285715
6962.5 -1.71429
6963.5 -2.57143
6964.5 -0.857143
6965.5 -4.71429
6966.5 2.57143
6967.5 6.28571
6968.5 2.57143
6969.5 -4.42857
6970.5 0.285714
6971.5 -1.57143
6972.5 2.28571
6973.5 -2.14286
6974.5 -0.142857
6975.5 -5.14286
6976.5 -0.285715
6977.5 6.42857
6978.5 -5.71429
6979.5 -2.14286
6980.5 3.14286
6981.5 -3.85714
6982.5 -1.85714
6983.5 -2.38419e-07
6984.5 -5.28571
6985.5 1.42857
6986.5 1.14286
6987.5 -6.71429
6988.5 1.57143
6989.5 -0.571429
6990.5 -2.14286
6991.5 -2.85714
6992.5 0.428571
6993.5 3
6994.5 1.28571
6995.5 -1.85714
6996.5 1.57143
6997.5 3
6998.5 -2.85714
6999.5 -4.28571
7000.5 -1.85714
7001.5 3.28571
7002.5 3.57143
7003.5 2.71429
7004.5 1.42857
7005.5 0.857143
7006.5 -3
7007.5 -9.14286
7008.5 -4.42857
7009.5 -5.71429
7010.5 -3.85714
7011.5 -1.28571
7012.5 1.28571
7013.5 -3.71429
7014.5 -1.57143
7015.5 1.71429
7016.5 -1.14286
7017.5 -0.285715
7018.5 -1.57143
7019.5 8
7020.5 -2.71429
7021.5 7.85714
7022.5 1.42857
7023.5 4.57143
7024.5 3.57143
7025.5 3.85714
7026.5 -5.42857
7027.5 -1.57143
7028.5 3.71429
7029.5 -1.57143
7030.5 -1.14286
7031.5 0.142857
7032.5 6.42857
7033.5 -4
7034.5 0.285714
7035.5 2.85714
7036.5 -2.38419e-07
7037.5 9.14286
7038.5 -0.285715
7039.5 0.857143
7040.5 2.28571
7041.5 -1.57143
7042.5 4.28571
7043.5 -0.285715
7044.5 -1.14286
7045.5 5.71429
7046.5 0.571428
7047.5 -1.42857
7048.5 -8.14286
7049.5 2.71429
7050.5 3
7051.5 6.42857
7052.5 -5.85714
7053.5 2.85714
7054.5 -1.71429
7055.5 -5.14286
7056.5 -1.57143
7057.5 -2.28571
7058.5 2.57143
7059.5 6.57143
7060.5 -3.57143
7061.5 -1.57143
7062.5 10.5714
7063.5 -4.42857
7064.5 1.28571
7065.5 2.85714
7066.5 0.857143
7067.5 0.857143
7068.5 3.28571
7069.5 1.42857
7070.5 3.85714
7071.5 -4.57143
7072.5 1.14286
7073.5 2.14286
7074.5 -1.57143
7075.5 2.57143
7076.5 2.71429
7077.5 -6.42857
7078.5 5
7079.5 -0.857143
7080.5 0.714285
7081.5 -1
7082.5 0.428571
7083.5 -1.57143
7084.5 2.28571
7085.5 -2.28571
7086.5 3.28571
7087.5 1.57143
7088.5 -3.42857
7089.5 0.571428
7090.5 -2.42857
7091.5 3.57143
7092.5 5.85714
7093.5 3.14286
7094.5 0.142857
7095.5 1.85714
7096.5 1.14286
7097.5 2
7098.5 -0.714286
7099.5 0.142857
7100.5 2
7101.5 -2.14286
7102.5 5.57143
7103.5 -0.571429
7104.5 3.28571
7105.5 2.28571
7106.5 -2.42857
7107.5 -4.28571
7108.5 0.571428
7109.5 4.57143
7110.5 5.57143
7111.5 0.142857
7112.5 5
7113.5 2.85714
7114.5 12.4286
7115.5 0.142857
7116.5 -1.28571
7117.5 -4
7118.5 3.42857
7119.5 -4.28571
7120.5 -1.71429
7121.5 -2.28571
7122.5 -4
7123.5 -1.28571
7124.5 4.85714
7125.5 1.85714
7126.5 0.571428
7127.5 2.57143
7128.5 -8.85714
7129.5 -1.57143
7130.5 6.14286
7131.5 2.42857
7132.5 -0.142857
7133.5 3.42857
7134.5 0.571428
7135.5 -6.28571
7136.5 3
7137.5 -5
7138.5 -0.285715
7139.5 -0.857143
7140.5 8.42857
7141.5 3.14286
7142.5 0.571428
7143.5 5.28571
7144.5 8.71429
7145.5 -0.428572
7146.5 -1.28571
7147.5 0.857143
7148.5 -2.57143
7149.5 0.571428
7150.5 -1.42857
7151.5 4
7152.5 -1.19209e-07
7153.5 -2.28571
7154.5 -1.14286
7155.5 1
7156.5 5.14286
7157.5 -1.14286
7158.5 -2.85714
7159.5 -1.42857
7160.5 -2
7161.5 -4.14286
7162.5 -2.71429
7163.5 -7.71429
7164.5 1.28571
7165.5 -0.428572
7166.5 2
7167.5 2
7168.5 4.57143
7169.5 2.57143
7170.5 -1.19209e-07
7171.5 7.57143
7172.5 1.85714
7173.5 0.714286
7174.5 -1.57143
7175.5 0.714286
7176.5 0.571428
7177.5 4
7178.5 2
7179.5 -1.28571
7180.5 -1.85714
7181.5 5.28571
7182.5 -0.714286
7183.5 -2.42857
7184.5 0.285714
7185.5 -4
7186.5 2.42857
7187.5 4.28571
7188.5 8.57143
7189.5 -0.857143
7190.5 -1.57143
7191.5 -8
7192.5 -1
7193.5 1.42857
7194.5 -0.571429
7195.5 -0.142857
7196.5 -2.14286
7197.5 2.28571
7198.5 3.28571
7199.5 -0.142857
7200.5 -2.28571
7201.5 -2.14286
7202.5 -5.28571
7203.5 -1.71429
7204.5 3.71429
7205.5 3.85714
7206.5 -8.28571
7207.5 -14.8571
7208.5 -14.7143
7209.5 4.42857
7210.5 10.4286
7211.5 -3.85714
7212.5 -3.14286
7213.5 13
7214.5 -4
7215.5 -4.42857
7216.5 -3
7217.5 3.42857
7218.5 -4.28571
7219.5 -0.857143
7220.5 -4.57143
7221.5 -2.14286
7222.5 -1.14286
7223.5 4.71429
7224.5 -0.428572
7225.5 -1.71429
7226.5 -3
7227.5 -3.14286
7228.5 -1.19209e-07
7229.5 -1.42857
7230.5 0.857143
7231.5 -0.142857
7232.5 2.14286
7233.5 -1.57143
7234.5 -0.571429
7235.5 -3.42857
7236.5 -2.14286
7237.5 1.42857
7238.5 -3.85714
7239.5 3.57143
7240.5 -3
7241.5 -7
7242.5 3.28571
7243.5 -0.857143
7244.5 2.71429
7245.5 -4.14286
7246.5 -2
7247.5 3.14286
7248.5 -0.571429
7249.5 -2.38419e-07
7250.5 -3.85714
7251.5 3.42857
7252.5 -2.85714
7253.5 8.42857
7254.5 2.57143
7255.5 6.14286
7256.5 -0.142857
7257.5 -3.14286
7258.5 2.14286
7259.5 4.28571
7260.5 3.57143
7261.5 -7.57143
7262.5 2.57143
7263.5 -9
7264.5 -13.4286
7265.5 3.28571
7266.5 -3.28571
7267.5 1.42857
7268.5 4.14286
7269.5 0.142857
7270.5 -5.28571
7271.5 -1.28571
7272.5 -9
7273.5 4.85714
7274.5 -0.285714
7275.5 7
7276.5 4.28571
7277.5 2.85714
7278.5 -2.85714
7279.5 1.28571
7280.5 -1.71429
7281.5 -0.285714
7282.5 -1.85714
7283.5 -0.857143
7284.5 -1.57143
7285.5 2.85714
7286.5 -1.71429
7287.5 1
7288.5 -1.42857
7289.5 5.71429
7290.5 5.85714
7291.5 -4.71429
7292.5 -1
7293.5 -4.14286
7294.5 3.85714
7295.5 -0.571429
7296.5 0.714286
7297.5 5
7298.5 1.42857
7299.5 -3.57143
7300.5 2
7301.5 1.14286
7302.5 0.571428
7303.5 2.42857
7304.5 -1.85714
7305.5 10.1429
7306.5 -2.85714
7307.5 -8
7308.5 -2
7309.5 8.42857
7310.5 2.42857
7311.5 -4
7312.5 -2.85714
7313.5 -3.14286
7314.5 -4.42857
7315.5 -3.14286
7316.5 -0.714286
7317.5 -3.42857
7318.5 4.28571
7319.5 -1.42857
7320.5 -2
7321.5 -6
7322.5 -3.14286
7323.5 0.857143
7324.5 -7.28571
7325.5 -1.14286
7326.5 -1.85714
7327.5 -2.28571
7328.5 -1.19209e-07
7329.5 -4.57143
7330.5 1
7331.5 -2
7332.5 4.85714
7333.5 0.714286
7334.5 1
7335.5 -1.71429
7336.5 -2.14286
7337.5 0.285714
7338.5 2.14286
7339.5 1.71429
7340.5 -1
7341.5 3.85714
7342.5 0.571428
7343.5 -3.85714
7344.5 -0.571429
7345.5 0.428571
7346.5 0.714286
7347.5 -0.428572
7348.5 -2.57143
7349.5 1.28571
7350.5 7.57143
7351.5 -4.57143
7352.5 12.2857
7353.5 4.28571
7354.5 -1.85714
7355.5 3.85714
7356.5 -3.71429
7357.5 4.57143
7358.5 -1.28571
7359.5 -2.85714
7360.5 5.85714
7361.5 5.14286
7362.5 -1
7363.5 1.42857
7364.5 0.428571
7365.5 -2.42857
7366.5 -3.14286
7367.5 -0.857143
7368.5 4.42857
7369.5 -0.571429
7370.5 4.85714
7371.5 2.42857
7372.5 5.14286
7373.5 -1.19209e-07
7374.5 0.142857
7375.5 4.14286
7376.5 -0.428572
7377.5 -4.14286
7378.5 -1.71429
7379.5 4.42857
7380.5 -1.57143
7381.5 0.428571
7382.5 -4
7383.5 5.28571
7384.5 1
7385.5 -2.71429
7386.5 1.14286
7387.5 -3.28571
7388.5 2.71429
7389.5 1.14286
7390.5 -2.42857
7391.5 -1
7392.5 -2.71429
7393.5 -4.57143
7394.5 -3.71429
7395.5 -3.28571
7396.5 -2
7397.5 -3.57143
7398.5 -2
7399.5 -6.14286
7400.5 2.85714
7401.5 -2.28571
7402.5 -1.42857
7403.5 -6.42857
7404.5 -3.71429
7405.5 1.14286
7406.5 1.14286
7407.5 5.85714
7408.5 3
7409.5 -1.28571
7410.5 -2.38419e-07
7411.5 5.71429
7412.5 1.85714
7413.5 8
7414.5 -1.71429
7415.5 -1.28571
7416.5 4
7417.5 13
7418.5 -0.571429
7419.5 -2.42857
7420.5 13.5714
7421.5 8
7422.5 -8.28571
7423.5 12
7424.5 -2.71429
7425.5 -4.85714
7426.5 4.28571
7427.5 1
7428.5 -1.42857
7429.5 -0.428572
7430.5 -1.28571
7431.5 -0.285714
7432.5 -2.28571
7433.5 -3.71429
7434.5 -2.71429
7435.5 2.85714
7436.5 0.142857
7437.5 -1.28571
7438.5 -0.285714
7439.5 3.57143
7440.5 -3
7441.5 1.57143
7442.5 -2.71429
7443.5 0.857143
7444.5 1.71429
7445.5 -1
7446.5 -4.14286
7447.5 1.28571
7448.5 1.28571
7449.5 -0.714286
7450.5 -0.285714
7451.5 0.714286
7452.5 8.42857
7453.5 3.42857
7454.5 -0.285715
7455.5 0.571428
7456.5 -0.714286
7457.5 -4.42857
7458.5 -5.57143
7459.5 1.71429
7460.5 -1
7461.5 5.85714
7462.5 -3.71429
7463.5 -0.142857
7464.5 1.28571
7465.5 -4.42857
7466.5 -2
7467.5 -1
7468.5 -1.19209e-07
7469.5 1
7470.5 -1.14286
7471.5 -0.714286
7472.5 -4
7473.5 2.85714
7474.5 0.428571
7475.5 1.42857
7476.5 2.14286
7477.5 -0.285714
7478.5 0.142857
7479.5 0.428571
7480.5 -3
7481.5 0.142857
7482.5 1.42857
7483.5 -0.571429
7484.5 4.85714
7485.5 3.28571
7486.5 -0.285714
7487.5 2.14286
7488.5 -0.571429
7489.5 -0.285714
7490.5 -0.714286
7491.5 0.428571
7492.5 -1.14286
7493.5 4.85714
7494.5 -2.28571
7495.5 -1.71429
7496.5 4.42857
7497.5 -1.19209e-07
7498.5 2.71429
7499.5 1.42857
7500.5 5.42857
7501.5 5.14286
7502.5 -5.14286
7503.5 0.857143
7504.5 1.85714
7505.5 -0.285715
7506.5 0.428571
7507.5 -3.14286
7508.5 -3
7509.5 2.57143
7510.5 -3.71429
7511.5 0.142857
7512.5 0.285714
7513.5 -0.857143
7514.5 1
7515.5 3.42857
7516.5 -1.42857
7517.5 0.142857
7518.5 1.71429
7519.5 -4.57143
7520.5 0.571429
7521.5 -3.42857
7522.5 -3.42857
7523.5 -1.19209e-07
7524.5 -3.42857
7525.5 -1
7526.5 -0.285714
7527.5 0.142857
7528.5 -3.14286
7529.5 -0.428571
7530.5 3.42857
7531.5 -0.857143
7532.5 0.857143
7533.5 3.85714
7534.5 1.14286
7535.5 -6.42857
7536.5 2
7537.5 -1.71429
7538.5 -0.285714
7539.5 1.71429
7540.5 -1.19209e-07
7541.5 -1.71429
7542.5 -3.57143
7543.5 2.57143
7544.5 3.85714
7545.5 -0.857143
7546.5 3.28571
7547.5 1.42857
7548.5 -0.571429
7549.5 1.85714
7550.5 -1
7551.5 -0.142857
7552.5 0.428571
7553.5 1.85714
7554.5 -1.71429
7555.5 -1.14286
7556.5 5.85714
7557.5 5.14286
7558.5 -0.571429
7559.5 -1.28571
7560.5 0.142857
7561.5 -0.428571
7562.5 2.14286
7563.5 0.428571
7564.5 -4.14286
7565.5 -5
7566.5 3.42857
7567.5 -2.28571
7568.5 -0.285714
7569.5 1.85714
7570.5 2.85714
7571.5 0.285714
7572.5 2.57143
7573.5 -5
7574.5 2.85714
7575.5 -0.857143
7576.5 0.571428
7577.5 -1.71429
7578.5 1.85714
7579.5 1.85714
7580.5 -2.85714
7581.5 0.142857
7582.5 -2.85714
7583.5 1.14286
7584.5 -2
7585.5 5.14286
7586.5 -3.42857
7587.5 3.42857
7588.5 -5.57143
7589.5 -2.28571
7590.5 3.28571
7591.5 -2.85714
7592.5 3.57143
7593.5 -1.57143
7594.5 1.85714
7595.5 2.85714
7596.5 -1.28571
7597.5 0.428571
7598.5 1.28571
7599.5 -1.28571
7600.5 -0.571429
7601.5 9.57143
7602.5 -2.57143
7603.5 -5
7604.5 -3.14286
7605.5 -2.28571
7606.5 1.42857
7607.5 1.57143
7608.5 -2.57143
7609.5 2.14286
7610.5 -2.14286
7611.5 -2
7612.5 -1.28571
7613.5 -2.28571
7614.5 1.14286
7615.5 0.142857
7616.5 -1.28571
7617.5 1.85714
7618.5 0.714286
7619.5 4.85714
7620.5 -3.57143
7621.5 -2
7622.5 2.57143
7623.5 -1.19209e-07
7624.5 0.142857
7625.5 1.85714
7626.5 -2
7627.5 -1.28571
7628.5 -1.19209e-07
7629.5 -2.71429
7630.5 3.42857
7631.5 4
7632.5 -5.14286
7633.5 -5.14286
7634.5 -8
7635.5 0.428571
7636.5 -4
7637.5 -1.28571
7638.5 -1.71429
7639.5 1.14286
7640.5 0.857143
7641.5 2.14286
7642.5 1.42857
7643.5 -0.571429
7644.5 -0.857143
7645.5 1.14286
7646.5 0.714286
7647.5 3.42857
7648.5 5.42857
7649.5 1.14286
7650.5 1.85714
7651.5 -0.428571
7652.5 3.85714
7653.5 -0.857143
7654.5 4.85714
7655.5 3.14286
7656.5 5.71429
7657.5 4.85714
7658.5 2.14286
7659.5 2.85714
7660.5 -0.285714
7661.5 -1.85714
7662.5 -0.142857
7663.5 0.285714
7664.5 2.14286
7665.5 -0.428571
7666.5 -0.142857
7667.5 -0.857143
7668.5 -2.28571
7669.5 1.42857
7670.5 -2.85714
7671.5 0.142857
7672.5 0.571429
7673.5 -0.571429
7674.5 -1.28571
7675.5 0.857143
7676.5 -2.71429
7677.5 1.42857
7678.5 -1.14286
7679.5 -0.571429
7680.5 1.85714
7681.5 -2.28571
7682.5 0.571429
7683.5 -2.71429
7684.5 0.285714
7685.5 0.571429
7686.5 -1
7687.5 -3.71429
7688.5 2
7689.5 -2.28571
7690.5 0.857143
7691.5 0.142857
7692.5 -1.42857
7693.5 2.57143
7694.5 -0.857143
7695.5 1.57143
7696.5 -1.28571
7697.5 -0.142857
7698.5 -1
7699.5 -1.57143
7700.5 -2.85714
7701.5 -0.142857
7702.5 -2.57143
7703.5 1.42857
7704.5 -0.142857
7705.5 2.85714
7706.5 -1.28571
7707.5 1.85714
7708.5 0.857143
7709.5 -2.85714
7710.5 -0.571429
7711.5 -1.71429
7712.5 4
7713.5 -1.42857
7714.5 -5.42857
7715.5 2.28571
7716.5 -0.857143
7717.5 -1.57143
7718.5 -1.57143
7719.5 2.57143
7720.5 0.571428
7721.5 4.14286
7722.5 1
7723.5 -2.28571
7724.5 4.57143
7725.5 -0.571429
7726.5 -0.142857
7727.5 -2
7728.5 3.28571
7729.5 -2.28571
7730.5 1.28571
7731.5 0.857143
7732.5 -0.857143
7733.5 1
7734.5 -1.57143
7735.5 0.571429
7736.5 0.285714
7737.5 -3
7738.5 3.85714
7739.5 -0.857143
7740.5 -1.14286
7741.5 1.85714
7742.5 2.85714
7743.5 -1.85714
7744.5 0.857143
7745.5 0.857143
7746.5 -1.14286
7747.5 -0.142857
7748.5 0.142857
7749.5 3.42857
7750.5 -0.142857
7751.5 -0.142857
7752.5 -2.85714
7753.5 0.857143
7754.5 0.285714
7755.5 -3.71429
7756.5 -0.857143
7757.5 1.85714
7758.5 0.714286
7759.5 0.142857
7760.5 0.142857
7761.5 -2.57143
7762.5 -0.571429
7763.5 3.57143
7764.5 -4
7765.5 -1.42857
7766.5 -5.57143
7767.5 -0.857143
7768.5 -10
7769.5 -3.57143
7770.5 -4.57143
7771.5 -2.71429
7772.5 -4.85714
7773.5 -13.5714
7774.5 -19.8571
7775.5 -4
7776.5 -16.1429
7777.5 -2.42857
7778.5 -2.71429
7779.5 0.714286
7780.5 -4
7781.5 -0.142857
7782.5 1.57143
7783.5 0.571429
7784.5 -4
7785.5 1.57143
7786.5 1.42857
7787.5 -1.42857
7788.5 -2.57143
7789.5 6.28571
7790.5 3.71429
7791.5 -1.85714
7792.5 -1.28571
7793.5 2
7794.5 0.857143
7795.5 4.28571
7796.5 4.14286
7797.5 0.571429
7798.5 1.57143
7799.5 -0.428571
7800.5 -4
7801.5 -0.142857
7802.5 2.57143
7803.5 1.85714
7804.5 -0.142857
7805.5 2.57143
7806.5 1.57143
7807.5 2.28571
7808.5 1.85714
7809.5 0.285714
7810.5 2.14286
7811.5 -0.142857
7812.5 -0.428571
7813.5 -0.142857
7814.5 -0.857143
7815.5 -3
7816.5 -5.14286
7817.5 -7.57143
7818.5 1.28571
7819.5 -1.42857
7820.5 -0.285714
7821.5 9.14286
7822.5 -2.42857
7823.5 -6.42857
7824.5 0.714285
7825.5 1.57143
7826.5 -0.142857
7827.5 -3.28571
7828.5 -9
7829.5 -12.1429
7830.5 -6.14286
7831.5 3
7832.5 -2.57143
7833.5 8.57143
7834.5 -1.19209e-07
7835.5 -3.57143
7836.5 1.57143
7837.5 0.285714
7838.5 -0.142857
7839.5 -0.142857
7840.5 -5
7841.5 1.57143
7842.5 -0.142857
7843.5 2.85714
7844.5 -1.85714
7845.5 -1.85714
7846.5 -2.85714
7847.5 -3.57143
7848.5 -1.42857
7849.5 0
7850.5 0.142857
7851.5 -0.428571
7852.5 3.14286
7853.5 -2.14286
7854.5 2.57143
7855.5 2.57143
7856.5 0
7857.5 -1
7858.5 1.14286
7859.5 0.571429
7860.5 0.428571
7861.5 0.285714
7862.5 1.28571
7863.5 0
7864.5 1.85714
7865.5 -1.28571
7866.5 -1.14286
7867.5 1.57143
7868.5 -1.42857
7869.5 2.28571
7870.5 1.28571
7871.5 0.142857
7872.5 3.28571
7873.5 0.571429
7874.5 -1.85714
7875.5 -4.71429
7876.5 -3
7877.5 2.71429
7878.5 0.857143
7879.5 1.57143
7880.5 0.142857
7881.5 -0.857143
7882.5 -2.28571
7883.5 0.142857
7884.5 -1.85714
7885.5 2.57143
7886.5 -0.142857
7887.5 -0.428571
7888.5 0.571429
7889.5 -2.28571
7890.5 0.285714
7891.5 -0.714286
7892.5 0.571429
7893.5 -0.428571
7894.5 1.28571
7895.5 0.571429
7896.5 0.285714
7897.5 -1.14286
7898.5 2.57143
7899.5 -1.85714
7900.5 1.28571
7901.5 -2.14286
7902.5 -1.28571
7903.5 0.285714
7904.5 0.285714
7905.5 0.571429
7906.5 2.85714
7907.5 0.285714
7908.5 0.285714
7909.5 -2.85714
7910.5 -1.14286
7911.5 -2.28571
7912.5 0.571429
7913.5 -2.28571
7914.5 3.85714
7915.5 2.28571
7916.5 -0.142857
7917.5 -0.857143
7918.5 3.28571
7919.5 4.28571
7920.5 0.571429
7921.5 -1.19209e-07
7922.5 1
7923.5 -0.428571
7924.5 0.285714
7925.5 -1.14286
7926.5 0.571429
7927.5 1.28571
7928.5 2.28571
7929.5 -0.428571
7930.5 -2.85714
7931.5 -0.428571
7932.5 0.857143
7933.5 -1.85714
7934.5 -0.428571
7935.5 1
7936.5 -1.14286
7937.5 2
7938.5 1.57143
7939.5 -0.142857
7940.5 -0.714286
7941.5 -1.14286
7942.5 1.28571
7943.5 0.285714
7944.5 -0.142857
7945.5 0.285714
7946.5 2.57143
7947.5 0.142857
7948.5 -1.42857
7949.5 0.285714
7950.5 0.142857
7951.5 -0.714286
7952.5 -0.428571
7953.5 -0.714286
7954.5 1.57143
7955.5 -0.142857
7956.5 -3.28571
7957.5 1.42857
7958.5 -0.714286
7959.5 -4.42857
7960.5 -1
7961.5 2.57143
7962.5 3.85714
7963.5 -0.571429
7964.5 2
7965.5 0.714286
7966.5 -0.428571
7967.5 0.571429
7968.5 1.85714
7969.5 1.85714
7970.5 1
7971.5 1.42857
7972.5 -1.57143
7973.5 -2.14286
7974.5 0.571429
7975.5 -1.85714
7976.5 -0.428571
7977.5 -1.14286
7978.5 0.857143
7979.5 -0.428571
7980.5 -0.142857
7981.5 1.57143
7982.5 -2.14286
7983.5 -2.85714
7984.5 2
7985.5 0.857143
7986.5 -1.14286
7987.5 -0.857143
7988.5 0.857143
7989.5 0.285714
7990.5 -0.142857
7991.5 2.57143
7992.5 -1.85714
7993.5 -0.857143
7994.5 1
7995.5 -1.42857
7996.5 -1.42857
7997.5 0.571429
7998.5 0.571429
7999.5 1.85714
8000.5 1
8001.5 1.28571
8002.5 0.285714
8003.5 2.57143
8004.5 -1.57143
8005.5 2.57143
8006.5 2.14286
8007.5 2.57143
8008.5 0.142857
8009.5 4.57143
8010.5 -0.428571
8011.5 2
8012.5 1.28571
8013.5 -3.28571
8014.5 -1.14286
8015.5 0.571429
8016.5 -2.14286
8017.5 -1.85714
8018.5 -0.857143
8019.5 -0.714286
8020.5 2
8021.5 0.857143
8022.5 -2.85714
8023.5 1.28571
8024.5 -0.428571
8025.5 -1.85714
8026.5 2.28571
8027.5 0.857143
8028.5 -0.857143
8029.5 1.14286
8030.5 -1.85714
8031.5 -2.28571
8032.5 -2
8033.5 4
8034.5 -0.714286
8035.5 0.571429
8036.5 -0.428571
8037.5 0.857143
8038.5 3
8039.5 3
8040.5 -1.14286
8041.5 -0.142857
8042.5 -2.28571
8043.5 0.571429
8044.5 0.571429
8045.5 -1.42857
8046.5 -0.714286
8047.5 1
8048.5 -1.85714
8049.5 -0.428571
8050.5 -1.85714
8051.5 1
8052.5 1.57143
8053.5 -0.428571
8054.5 -1.42857
8055.5 -1.57143
8056.5 -0.714286
8057.5 3
8058.5 1
8059.5 1
8060.5 -0.428571
8061.5 1
8062.5 -3.57143
8063.5 3
8064.5 -1.42857
8065.5 -0.428571
8066.5 -2.14286
8067.5 -0.428571
8068.5 -0.428571
8069.5 -0.142857
8070.5 -1.14286
8071.5 1
8072.5 1.28571
8073.5 -1.14286
8074.5 0.571429
8075.5 0.571429
8076.5 1.85714
8077.5 -1.57143
8078.5 0.285714
8079.5 -1.14286
8080.5 -1.28571
8081.5 1.28571
8082.5 4.71429
8083.5 -1.42857
8084.5 5.42857
8085.5 -9
8086.5 -4.71429
8087.5 -2.57143
8088.5 -3.28571
8089.5 -1.14286
8090.5 7.28571
8091.5 0
8092.5 1.57143
8093.5 2.28571
8094.5 0.571429
8095.5 1.28571
8096.5 -0.714286
8097.5 0
8098.5 0.285714
8099.5 0.285714
8100.5 0.142857
8101.5 0.285714
8102.5 1.28571
8103.5 0.571429
8104.5 -0.428571
8105.5 -0.428571
8106.5 1
8107.5 1.85714
8108.5 1.57143
8109.5 -2.14286
8110.5 -2.14286
8111.5 0.142857
8112.5 -0.714286
8113.5 -1.42857
8114.5 -2.85714
8115.5 -0.428571
8116.5 -1.14286
8117.5 -0.714286
8118.5 -1.42857
8119.5 0.285714
8120.5 0
8121.5 -2.57143
8122.5 0.857143
8123.5 0.857143
8124.5 -0.714286
8125.5 -1.42857
8126.5 3
8127.5 -1.14286
8128.5 -1.42857
8129.5 -2.14286
8130.5 -1.14286
8131.5 1
8132.5 0.285714
8133.5 -2.14286
8134.5 2.28571
8135.5 -0.428571
8136.5 -0.714286
8137.5 1
8138.5 -1.14286
8139.5 0.285714
8140.5 0.571429
8141.5 0.285714
8142.5 -2.14286
8143.5 0.571429
8144.5 -1.42857
8145.5 0.571429
8146.5 0.285714
8147.5 0.285714
8148.5 0.285714
8149.5 -0.714286
8150.5 -1.42857
8151.5 0.142857
8152.5 -1.85714
8153.5 -1.42857
8154.5 0.285714
8155.5 -0.857143
8156.5 1.28571
8157.5 0.285714
8158.5 0.285714
8159.5 0.285714
8160.5 -2.85714
8161.5 1
8162.5 0.571429
8163.5 0
8164.5 -1.42857
8165.5 -3.57143
8166.5 0.571429
8167.5 1.28571
8168.5 1
8169.5 0
8170.5 -2.14286
8171.5 -1.85714
8172.5 0.285714
8173.5 -0.714286
8174.5 -0.714286
8175.5 1.57143
8176.5 0
8177.5 -0.714286
8178.5 -0.428571
8179.5 -0.428571
8180.5 -0.428571
8181.5 1.28571
8182.5 -1.42857
8183.5 0
8184.5 -0.428571
8185.5 0.285714
8186.5 -1.42857
8187.5 -0.428571
8188.5 3
8189.5 2.28571
8190.5 0.285714
8191.5 -0.714286
8192.5 2.28571
8193.5 0.285714
8194.5 -0.714286
8195.5 1
8196.5 0.285714
8197.5 -2.14286
8198.5 0.285714
8199.5 -0.714286
8200.5 3
8201.5 -0.714286
8202.5 0.285714
8203.5 -0.142857
8204.5 -1.14286
8205.5 -0.428571
8206.5 1.28571
8207.5 0.571429
8208.5 2.28571
8209.5 -0.428571
8210.5 0.571429
8211.5 0.571429
8212.5 0
8213.5 2.57143
8214.5 0.285714
8215.5 1
8216.5 -1.42857
8217.5 2.57143
8218.5 2
8219.5 -0.857143
8220.5 -0.142857
8221.5 1.42857
8222.5 1
8223.5 -1.14286
8224.5 2.42857
8225.5 -0.142857
8226.5 -1.42857
8227.5 -0.714286
8228.5 0.571429
8229.5 -3.57143
8230.5 -1.42857
8231.5 -1.14286
8232.5 1
8233.5 -1.14286
8234.5 0.285714
8235.5 0.285714
8236.5 -0.142857
8237.5 -2.85714
8238.5 -0.428571
8239.5 0.285714
8240.5 1
8241.5 -2.28571
8242.5 4
8243.5 -0.714286
8244.5 -1.42857
8245.5 1.28571
8246.5 -2.85714
8247.5 0.285714
8248.5 1.57143
8249.5 1
8250.5 2.28571
8251.5 0
8252.5 -1.42857
8253.5 0.285714
8254.5 -3.57143
8255.5 1.28571
8256.5 1.28571
8257.5 -2.14286
8258.5 1.28571
8259.5 -0.142857
8260.5 -0.714286
8261.5 1
8262.5 1.85714
8263.5 -0.428571
8264.5 1
8265.5 -1.14286
8266.5 -0.714286
8267.5 -0.428571
8268.5 0
8269.5 2
8270.5 2
8271.5 1
8272.5 1.28571
8273.5 -1.14286
8274.5 -0.142857
8275.5 -1.42857
8276.5 -0.428571
8277.5 -1.42857
8278.5 0.285714
8279.5 -0.428571
8280.5 -2.85714
8281.5 2.28571
8282.5 -1.57143
8283.5 -2.14286
8284.5 1.28571
8285.5 -0.714286
8286.5 -0.428571
8287.5 -0.714286
8288.5 -1.42857
8289.5 -1.42857
8290.5 -2.14286
8291.5 2.28571
8292.5 -1.42857
8293.5 2
8294.5 0.285714
8295.5 -0.714286
8296.5 0.857143
8297.5 1.28571
8298.5 -0.857143
8299.5 -0.714286
8300.5 -1.42857
8301.5 0.571429
8302.5 0
8303.5 0.571429
8304.5 1
8305.5 0.857143
8306.5 1
8307.5 -2.14286
8308.5 -2.14286
8309.5 -0.428571
8310.5 0.285714
8311.5 -0.428571
8312.5 -0.714286
8313.5 -0.857143
8314.5 -1.42857
8315.5 0.285714
8316.5 2
8317.5 0
8318.5 1
8319.5 -0.142857
8320.5 -0.714286
8321.5 1.28571
8322.5 -0.142857
8323.5 1
8324.5 1.28571
8325.5 -0.428571
8326.5 0.285714
8327.5 -2.14286
8328.5 0.571429
8329.5 0.571429
8330.5 4
8331.5 0.571429
8332.5 -2.14286
8333.5 1.28571
8334.5 -2.14286
8335.5 1
8336.5 4
8337.5 -0.714286
8338.5 -0.714286
8339.5 1.14286
8340.5 -0.714286
8341.5 1
8342.5 -0.714286
8343.5 -2.85714
8344.5 3
8345.5 1
8346.5 -1.42857
8347.5 1
8348.5 -0.714286
8349.5 -0.428571
8350.5 0.571429
8351.5 0.285714
8352.5 1.28571
8353.5 -0.714286
8354.5 0
8355.5 -0.714286
8356.5 0.285714
8357.5 0.571429
8358.5 -1.42857
8359.5 -0.428571
8360.5 0.285714
8361.5 -0.714286
8362.5 -0.714286
8363.5 -2.14286
8364.5 -2.85714
8365.5 -0.428571
8366.5 -2.14286
8367.5 3
8368.5 -0.428571
8369.5 -2.14286
8370.5 -1.14286
8371.5 0
8372.5 5
8373.5 0.285714
8374.5 -2.14286
8375.5 1.28571
8376.5 0.285714
8377.5 -1.42857
8378.5 -1.14286
8379.5 -0.714286
8380.5 -0.714286
8381.5 1
8382.5 -0.714286
8383.5 -2.14286
8384.5 -0.428571
8385.5 -0.714286
8386.5 1
8387.5 -1.14286
8388.5 0.571429
8389.5 0
8390.5 -2.14286
8391.5 -4.28571
8392.5 -0.428571
8393.5 -1.42857
8394.5 -1.42857
8395.5 -0.714286
8396.5 -0.428571
8397.5 0
8398.5 -2.14286
8399.5 1
8400.5 -0.142857
8401.5 -1.42857
8402.5 -1.42857
8403.5 -1.42857
8404.5 -0.714286
8405.5 0.285714
8406.5 0.285714
8407.5 -0.714286
8408.5 0
8409.5 -1.42857
8410.5 2
8411.5 0
8412.5 -0.714286
8413.5 1.28571
8414.5 -1.42857
8415.5 0
8416.5 0
8417.5 0
8418.5 -0.428571
8419.5 -0.714286
8420.5 0.285714
8421.5 1
8422.5 0
8423.5 0.285714
8424.5 1
8425.5 -1.14286
8426.5 0.285714
8427.5 -0.428571
8428.5 1
8429.5 -0.857143
8430.5 -0.428571
8431.5 4
8432.5 0.285714
8433.5 0.285714
8434.5 0.285714
8435.5 0.285714
8436.5 -0.428571
8437.5 0
8438.5 0
8439.5 0.285714
8440.5 -1.42857
8441.5 2
8442.5 0.285714
8443.5 0.285714
8444.5 2
8445.5 -1.14286
8446.5 1
8447.5 2
8448.5 1
8449.5 -0.428571
8450.5 0.285714
8451.5 0
8452.5 0
8453.5 1.28571
8454.5 0.285714
8455.5 -1.14286
8456.5 2
8457.5 -1.42857
8458.5 0
8459.5 -1.42857
8460.5 0
8461.5 -1.42857
8462.5 0
8463.5 -2.14286
8464.5 -0.428571
8465.5 -0.714286
8466.5 0.571429
8467.5 0.571429
8468.5 1.28571
8469.5 -0.428571
8470.5 -2.85714
8471.5 -3.57143
8472.5 -2.57143
8473.5 -2.71429
8474.5 3.57143
8475.5 -1.28571
8476.5 -2.14286
8477.5 0.857143
8478.5 0.285714
8479.5 -2.14286
8480.5 2
8481.5 2
8482.5 -2.14286
8483.5 -1.42857
8484.5 -0.428571
8485.5 -1.42857
8486.5 1
8487.5 -0.714286
8488.5 -1.85714
8489.5 1.28571
8490.5 -0.428571
8491.5 -0.714286
8492.5 -2.14286
8493.5 -0.428571
8494.5 -0.714286
8495.5 1.28571
8496.5 0.285714
8497.5 -0.142857
8498.5 -1.14286
8499.5 0.285714
8500.5 -0.142857
8501.5 -0.428571
8502.5 -2.14286
8503.5 -1.42857
8504.5 0
8505.5 1.28571
8506.5 1
8507.5 0
8508.5 -0.428571
8509.5 -0.714286
8510.5 0.285714
8511.5 -1.42857
8512.5 1
8513.5 -0.714286
8514.5 0
8515.5 0.285714
8516.5 0.285714
8517.5 0
8518.5 2
8519.5 0.285714
8520.5 -0.714286
8521.5 0
8522.5 1
8523.5 -0.428571
8524.5 1.28571
8525.5 0
8526.5 1.28571
8527.5 -1.14286
8528.5 1.28571
8529.5 -0.714286
8530.5 -1.42857
8531.5 -0.714286
8532.5 -0.714286
8533.5 1.28571
8534.5 3
8535.5 -2.85714
8536.5 -0.714286
8537.5 0.285714
8538.5 0.285714
8539.5 1.28571
8540.5 0
8541.5 2
8542.5 1
8543.5 1
8544.5 0.571429
8545.5 0
8546.5 -0.714286
8547.5 0
8548.5 -1.42857
8549.5 0.285714
8550.5 0
8551.5 0
8552.5 3
8553.5 1.28571
8554.5 -0.714286
8555.5 0
8556.5 0
8557.5 -0.714286
8558.5 0
8559.5 0.285714
8560.5 -0.714286
8561.5 -0.714286
8562.5 -1.42857
8563.5 0
8564.5 0
8565.5 2.57143
8566.5 0
8567.5 -0.428571
8568.5 0
8569.5 0
8570.5 1
8571.5 0
8572.5 0
8573.5 2
8574.5 0
8575.5 -0.714286
8576.5 0
8577.5 2.28571
8578.5 1.28571
8579.5 -0.142857
8580.5 0.285714
8581.5 -1.42857
8582.5 0
8583.5 -1.42857
8584.5 -0.714286
8585.5 -0.714286
8586.5 -0.714286
8587.5 0
8588.5 1
8589.5 -1.42857
8590.5 0
8591.5 0.285714
8592.5 -0.714286
8593.5 0.285714
8594.5 1
8595.5 1
8596.5 0
8597.5 -2.14286
8598.5 4
8599.5 2
8600.5 -1.14286
8601.5 0
8602.5 0
8603.5 0
8604.5 -1.14286
8605.5 1
8606.5 0
8607.5 2
8608.5 0.285714
8609.5 0.571429
8610.5 -0.714286
8611.5 1
8612.5 0
8613.5 0
8614.5 0.285714
8615.5 -0.428571
8616.5 0
8617.5 2
8618.5 0
8619.5 -0.714286
8620.5 3
8621.5 -0.714286
8622.5 0.285714
8623.5 0.285714
8624.5 1
8625.5 1
8626.5 0.571429
8627.5 0.285714
8628.5 -0.428571
8629.5 -0.714286
8630.5 -1.14286
8631.5 -0.714286
8632.5 -0.714286
8633.5 0.285714
8634.5 -0.714286
8635.5 0.285714
8636.5 -0.714286
8637.5 -0.714286
8638.5 -0.428571
8639.5 -0.714286
8640.5 1.28571
8641.5 0
8642.5 -1.42857
8643.5 0.285714
8644.5 -0.714286
8645.5 0
8646.5 -0.428571
8647.5 0.285714
8648.5 1
8649.5 0
8650.5 0.285714
8651.5 0
8652.5 -0.142857
8653.5 1.28571
8654.5 -0.714286
8655.5 -1.42857
8656.5 2.28571
8657.5 0.285714
8658.5 -1.42857
8659.5 0.285714
8660.5 0
8661.5 -0.714286
8662.5 0
8663.5 0.571429
8664.5 -0.714286
8665.5 0
8666.5 1
8667.5 0
8668.5 -0.714286
8669.5 0
8670.5 0.285714
8671.5 0
8672.5 0
8673.5 1
8674.5 -0.714286
8675.5 1
8676.5 -1.42857
8677.5 1
8678.5 0.285714
8679.5 0
8680.5 0
8681.5 0
8682.5 0
8683.5 0.285714
8684.5 0.285714
8685.5 0.285714
8686.5 -0.428571
8687.5 -1.42857
8688.5 1
8689.5 -0.714286
8690.5 0.571429
8691.5 0
8692.5 -1.42857
8693.5 1
8694.5 0.285714
8695.5 0.285714
8696.5 0
8697.5 1
8698.5 0.285714
8699.5 0
8700.5 -0.714286
8701.5 0
8702.5 -0.428571
8703.5 0
8704.5 0
8705.5 -1.42857
8706.5 1
8707.5 0
8708.5 -0.428571
8709.5 -0.714286
8710.5 0
8711.5 1
8712.5 0
8713.5 -0.714286
8714.5 0.285714
8715.5 -0.714286
8716.5 0
8717.5 -0.714286
8718.5 -1.42857
8719.5 0.285714
8720.5 -0.142857
8721.5 3
8722.5 0
8723.5 -0.714286
8724.5 2.28571
8725.5 1
8726.5 0
8727.5 -0.428571
8728.5 2
8729.5 -2.14286
8730.5 1
8731.5 2
8732.5 -0.714286
8733.5 1
8734.5 1
8735.5 -0.714286
8736.5 1
8737.5 -1.42857
8738.5 -1.42857
8739.5 0
8740.5 0
8741.5 0.285714
8742.5 1
8743.5 0
8744.5 2
8745.5 0.285714
8746.5 -0.714286
8747.5 0
8748.5 1
8749.5 0
8750.5 0
8751.5 3.28571
8752.5 0
8753.5 0
8754.5 0
8755.5 0
8756.5 -0.714286
8757.5 -0.714286
8758.5 -2.14286
8759.5 0
8760.5 -0.714286
8761.5 -1.14286
8762.5 -0.714286
8763.5 -2.14286
8764.5 -1.42857
8765.5 0
8766.5 2.28571
8767.5 0.285714
8768.5 0
8769.5 0.285714
8770.5 0
8771.5 0.285714
8772.5 0.285714
8773.5 -0.714286
8774.5 0
8775.5 2
8776.5 0
8777.5 -0.428571
8778.5 -0.714286
8779.5 1
8780.5 1
8781.5 2
8782.5 2
8783.5 0
8784.5 -0.714286
8785.5 -1.42857
8786.5 -0.428571
8787.5 -2.14286
8788.5 0.285714
8789.5 -0.714286
8790.5 -1.42857
8791.5 0
8792.5 -0.714286
8793.5 -2.14286
8794.5 1
8795.5 -0.714286
8796.5 -1.42857
8797.5 1
8798.5 -0.714286
8799.5 0
8800.5 1
8801.5 0.285714
8802.5 0
8803.5 1
8804.5 0.285714
8805.5 0.285714
8806.5 0
8807.5 0
8808.5 0
8809.5 -0.714286
8810.5 -0.714286
8811.5 0
8812.5 0
8813.5 0
8814.5 0
8815.5 1.28571
8816.5 0.285714
8817.5 3
8818.5 1
8819.5 0
8820.5 0
8821.5 -0.714286
8822.5 0
8823.5 0
8824.5 1
8825.5 0
8826.5 -1.42857
8827.5 1.28571
8828.5 0
8829.5 0.285714
8830.5 2
8831.5 -0.714286
8832.5 2
8833.5 0.285714
8834.5 1.28571
8835.5 1
8836.5 0
8837.5 0.285714
8838.5 0
8839.5 0.285714
8840.5 0
8841.5 -0.714286
8842.5 -0.714286
8843.5 2.28571
8844.5 0
8845.5 -0.714286
8846.5 -1.42857
8847.5 0.285714
8848.5 0.285714
8849.5 0
8850.5 -1.42857
8851.5 0
8852.5 0
8853.5 0
8854.5 2
8855.5 1
8856.5 2
8857.5 0
8858.5 0
8859.5 1
8860.5 0
8861.5 0.285714
8862.5 0.285714
8863.5 0
8864.5 2.28571
8865.5 -0.714286
8866.5 -2.14286
8867.5 1.28571
8868.5 -0.714286
8869.5 1
8870.5 0
8871.5 0
8872.5 2
8873.5 -0.714286
8874.5 0
8875.5 1
8876.5 -0.714286
8877.5 -0.714286
8878.5 1
8879.5 0
8880.5 -0.714286
8881.5 -1.42857
8882.5 0
8883.5 -1.42857
8884.5 1
8885.5 0
8886.5 1.28571
8887.5 0
8888.5 -0.714286
8889.5 0
8890.5 0
8891.5 0
8892.5 0
8893.5 -0.714286
8894.5 2
8895.5 0
8896.5 -0.714286
8897.5 1
8898.5 -1.42857
8899.5 0
8900.5 0.285714
8901.5 0
8902.5 -0.714286
8903.5 0
8904.5 1
8905.5 0
8906.5 -0.714286
8907.5 -0.714286
8908.5 1
8909.5 0
8910.5 0.285714
8911.5 0
8912.5 1
8913.5 0
8914.5 -0.714286
8915.5 -1.42857
8916.5 0
8917.5 -0.714286
8918.5 -0.714286
8919.5 0
8920.5 -0.714286
8921.5 0
8922.5 -0.714286
8923.5 1
8924.5 0
8925.5 0
8926.5 -0.714286
8927.5 -0.714286
8928.5 0
8929.5 0.285714
8930.5 -0.714286
8931.5 1
8932.5 1
8933.5 1
8934.5 1
8935.5 0
8936.5 0
8937.5 0
8938.5 1
8939.5 1
8940.5 0
8941.5 1
8942.5 0
8943.5 1
8944.5 0
8945.5 0
8946.5 0
8947.5 0
8948.5 -0.714286
8949.5 -0.714286
8950.5 0
8951.5 0
8952.5 -0.714286
8953.5 1
8954.5 -0.714286
8955.5 0
8956.5 -0.714286
8957.5 0
8958.5 0
8959.5 -0.428571
8960.5 2
8961.5 1.28571
8962.5 0
8963.5 -0.714286
8964.5 0
8965.5 -0.714286
8966.5 -1.42857
8967.5 1
8968.5 0.285714
8969.5 1.28571
8970.5 0
8971.5 1
8972.5 0
8973.5 0
8974.5 -0.714286
8975.5 -0.714286
8976.5 -0.714286
8977.5 0
8978.5 -1.42857
8979.5 -0.714286
8980.5 0
8981.5 -0.714286
8982.5 -0.714286
8983.5 0
8984.5 0.285714
8985.5 -0.714286
8986.5 -0.714286
8987.5 0
8988.5 0
8989.5 2
8990.5 0
8991.5 0.285714
8992.5 1
8993.5 -0.714286
8994.5 -0.714286
8995.5 0
8996.5 0.285714
8997.5 2
8998.5 1
8999.5 0
9000.5 0.285714
9001.5 0
9002.5 -0.714286
9003.5 0
9004.5 0
9005.5 0
9006.5 1
9007.5 0
9008.5 -0.714286
9009.5 1
9010.5 0
9011.5 0
9012.5 0
9013.5 0
9014.5 -0.714286
9015.5 0
9016.5 -0.714286
9017.5 -0.714286
9018.5 0.285714
9019.5 1
9020.5 -0.714286
9021.5 0.285714
9022.5 0.285714
9023.5 0
9024.5 -0.714286
9025.5 -0.714286
9026.5 0
9027.5 0
9028.5 0
9029.5 0
9030.5 1
9031.5 -0.714286
9032.5 0
9033.5 0.285714
9034.5 0
9035.5 1
9036.5 0.285714
9037.5 -0.714286
9038.5 1
9039.5 0
9040.5 0
9041.5 -0.714286
9042.5 1
9043.5 0
9044.5 -0.714286
9045.5 1
9046.5 0
9047.5 0
9048.5 -0.714286
9049.5 0
9050.5 0
9051.5 1
9052.5 1
9053.5 0
9054.5 -0.714286
9055.5 1
9056.5 0
9057.5 0
9058.5 1
9059.5 0
9060.5 0
9061.5 0
9062.5 0
9063.5 0
9064.5 0
9065.5 1
9066.5 1
9067.5 0
9068.5 0
9069.5 1
9070.5 0
9071.5 -0.714286
9072.5 0.285714
9073.5 0
9074.5 0
9075.5 -0.714286
9076.5 -1.42857
9077.5 0
9078.5 -0.714286
9079.5 0
9080.5 0
9081.5 1
9082.5 1.28571
9083.5 0
9084.5 1
9085.5 1
9086.5 0
9087.5 -0.714286
9088.5 -0.428571
9089.5 -0.714286
9090.5 -1.42857
9091.5 0
9092.5 0
9093.5 0
9094.5 0
9095.5 -0.714286
9096.5 -0.714286
9097.5 0
9098.5 0
9099.5 -0.714286
9100.5 0
9101.5 0
9102.5 0
9103.5 0
9104.5 0
9105.5 -0.714286
9106.5 -0.714286
9107.5 1
9108.5 0
9109.5 0
9110.5 0
9111.5 0
9112.5 -0.714286
9113.5 1.28571
9114.5 -0.714286
9115.5 1.28571
9116.5 -0.714286
9117.5 0
9118.5 -0.714286
9119.5 0.285714
9120.5 -1.42857
9121.5 0
9122.5 0
9123.5 0
9124.5 0
9125.5 0
9126.5 0
9127.5 0
9128.5 0
9129.5 0
9130.5 1
9131.5 0
9132.5 0
9133.5 -1.42857
9134.5 -0.714286
9135.5 0
9136.5 0
9137.5 -0.714286
9138.5 -0.714286
9139.5 -0.714286
9140.5 0.285714
9141.5 0
9142.5 0
9143.5 0
9144.5 -0.714286
9145.5 0
9146.5 0
9147.5 1
9148.5 0
9149.5 0
9150.5 0
9151.5 0
9152.5 0
9153.5 0.285714
9154.5 0
9155.5 0
9156.5 -0.714286
9157.5 0.285714
9158.5 0
9159.5 0
9160.5 0
9161.5 1
9162.5 0
9163.5 0
9164.5 -0.714286
9165.5 1
9166.5 0
9167.5 0
9168.5 -0.714286
9169.5 0
9170.5 -0.714286
9171.5 1.28571
9172.5 0
9173.5 -0.714286
9174.5 0
9175.5 0
9176.5 0
9177.5 0
9178.5 0
9179.5 -0.714286
9180.5 -0.714286
9181.5 -0.714286
9182.5 0
9183.5 0
9184.5 -1.14286
9185.5 -0.714286
9186.5 0
9187.5 0
9188.5 0
9189.5 -1.14286
9190.5 -0.714286
9191.5 0
9192.5 1
9193.5 0
9194.5 1
9195.5 1
9196.5 0
9197.5 0
9198.5 -0.714286
9199.5 0
9200.5 0.285714
9201.5 -2.14286
9202.5 1
9203.5 0
9204.5 0.285714
9205.5 -0.714286
9206.5 1
9207.5 0
9208.5 -0.714286
9209.5 0
9210.5 0
9211.5 0
9212.5 1
9213.5 0
9214.5 0
9215.5 0.285714
9216.5 -0.714286
9217.5 0
9218.5 0
9219.5 -0.714286
9220.5 0
9221.5 1
9222.5 0
9223.5 0
9224.5 0
9225.5 -0.714286
9226.5 0
9227.5 1
9228.5 0
9229.5 0
9230.5 -0.428571
9231.5 0.285714
9232.5 0
9233.5 0
9234.5 1
9235.5 0
9236.5 2
9237.5 -0.714286
9238.5 -1.42857
9239.5 -0.714286
9240.5 0
9241.5 0
9242.5 0
9243.5 1
9244.5 0
9245.5 1
9246.5 1
9247.5 2
9248.5 0
9249.5 0
9250.5 1
9251.5 -0.714286
9252.5 -0.714286
9253.5 0
9254.5 0
9255.5 0.285714
9256.5 0
9257.5 0
9258.5 0
9259.5 0
9260.5 0
9261.5 -0.714286
9262.5 0
9263.5 0
9264.5 0
9265.5 -0.714286
9266.5 0
9267.5 -0.714286
9268.5 0.285714
9269.5 -0.714286
9270.5 0.285714
9271.5 0
9272.5 0
9273.5 0
9274.5 1
9275.5 0
9276.5 1
9277.5 -0.714286
9278.5 0
9279.5 1
9280.5 0
9281.5 0
9282.5 0
9283.5 1
9284.5 0
9285.5 1
9286.5 -1.42857
9287.5 0
9288.5 -0.714286
9289.5 1
9290.5 0
9291.5 0
9292.5 0
9293.5 0
9294.5 0
9295.5 -1.42857
9296.5 0
9297.5 0
9298.5 0
9299.5 0
9300.5 0
9301.5 0
9302.5 1
9303.5 -0.714286
9304.5 -0.714286
9305.5 0
9306.5 0
9307.5 0
9308.5 1
9309.5 0
9310.5 0
9311.5 0
9312.5 0
9313.5 1
9314.5 1
9315.5 0.285714
9316.5 -0.714286
9317.5 0
9318.5 0
9319.5 -0.714286
9320.5 1
9321.5 0.285714
9322.5 -1.42857
9323.5 1
9324.5 0
9325.5 0
9326.5 -0.714286
9327.5 0
9328.5 0
9329.5 -1.42857
9330.5 0
9331.5 0
9332.5 1
9333.5 0
9334.5 0
9335.5 0
9336.5 0
9337.5 0
9338.5 1
9339.5 0
9340.5 0
9341.5 0
9342.5 -1.42857
9343.5 1
9344.5 1
9345.5 -0.714286
9346.5 -0.714286
9347.5 0
9348.5 0
9349.5 0
9350.5 0
9351.5 0
9352.5 0
9353.5 0
9354.5 0
9355.5 -0.714286
9356.5 0
9357.5 0
9358.5 -0.714286
9359.5 -0.714286
9360.5 0
9361.5 0
9362.5 0
9363.5 1
9364.5 0
9365.5 0
9366.5 0
9367.5 1
9368.5 -0.714286
9369.5 0
9370.5 0
9371.5 0
9372.5 0
9373.5 1
9374.5 0
9375.5 0
9376.5 -0.714286
9377.5 0
9378.5 0
9379.5 1
9380.5 0
9381.5 0
9382.5 0
9383.5 0
9384.5 -0.714286
9385.5 0
9386.5 0
9387.5 0
9388.5 0
9389.5 0
9390.5 0
9391.5 0
9392.5 0
9393.5 -0.714286
9394.5 0
9395.5 0
9396.5 0
9397.5 2
9398.5 0
9399.5 1
9400.5 0
9401.5 0
9402.5 0
9403.5 -0.714286
9404.5 0
9405.5 -0.714286
9406.5 0
9407.5 1
9408.5 0
9409.5 0
9410.5 0
9411.5 0
9412.5 -0.714286
9413.5 1
9414.5 0
9415.5 1
9416.5 0
9417.5 -0.714286
9418.5 0
9419.5 0
9420.5 0
9421.5 -0.714286
9422.5 0
9423.5 1
9424.5 0
9425.5 0
9426.5 0.285714
9427.5 0.285714
9428.5 0
9429.5 0
9430.5 0
9431.5 -0.714286
9432.5 0
9433.5 -0.714286
9434.5 1
9435.5 1
9436.5 0
9437.5 0
9438.5 0
9439.5 0
9440.5 0
9441.5 0
9442.5 1
9443.5 0
9444.5 0
9445.5 1
9446.5 -0.714286
9447.5 0
9448.5 0
9449.5 0
9450.5 0
9451.5 -0.714286
9452.5 0
9453.5 0
9454.5 1
9455.5 -0.714286
9456.5 -0.714286
9457.5 0
9458.5 1
9459.5 0
9460.5 -1.42857
9461.5 -0.714286
9462.5 0
9463.5 0
9464.5 0
9465.5 0.285714
9466.5 0
9467.5 0
9468.5 1
9469.5 0
9470.5 0
9471.5 0
9472.5 0
9473.5 0
9474.5 1
9475.5 0
9476.5 0
9477.5 0.285714
9478.5 0
9479.5 0
9480.5 0
9481.5 0
9482.5 0
9483.5 1
9484.5 0
9485.5 -0.714286
9486.5 0
9487.5 1
9488.5 0
9489.5 0
9490.5 0
9491.5 0
9492.5 1
9493.5 0
9494.5 0
9495.5 0
9496.5 0
9497.5 0
9498.5 -0.714286
9499.5 -0.714286
9500.5 0
9501.5 0
9502.5 -0.714286
9503.5 0
9504.5 0
9505.5 0
9506.5 0
9507.5 0
9508.5 -0.714286
9509.5 0
9510.5 0
9511.5 0
9512.5 0
9513.5 0
9514.5 -0.714286
9515.5 0
9516.5 0
9517.5 0
9518.5 0
9519.5 -0.714286
9520.5 0
9521.5 0
9522.5 1
9523.5 0.285714
9524.5 0
9525.5 0
9526.5 0
9527.5 0
9528.5 -0.714286
9529.5 1
9530.5 -0.714286
9531.5 0
9532.5 0
9533.5 0.285714
9534.5 -0.714286
9535.5 0
9536.5 0
9537.5 0
9538.5 0
9539.5 0
9540.5 0
9541.5 0
9542.5 1
9543.5 0
9544.5 1
9545.5 0
9546.5 1
9547.5 0
9548.5 0
9549.5 -0.714286
9550.5 0
9551.5 0
9552.5 -1.42857
9553.5 0
9554.5 0
9555.5 0
9556.5 0
9557.5 0
9558.5 -0.714286
9559.5 0
9560.5 0
9561.5 0
9562.5 -0.714286
9563.5 0
9564.5 -0.714286
9565.5 0
9566.5 0
9567.5 0
9568.5 -0.714286
9569.5 2
9570.5 0
9571.5 0
9572.5 0
9573.5 0
9574.5 -0.714286
9575.5 0
9576.5 0
9577.5 -0.714286
9578.5 0
9579.5 0
9580.5 0
9581.5 0
9582.5 0
9583.5 1
9584.5 0
9585.5 0
9586.5 0
9587.5 0
9588.5 0
9589.5 1
9590.5 0
9591.5 0
9592.5 1
9593.5 0
9594.5 0
9595.5 -0.714286
9596.5 -0.714286
9597.5 0
9598.5 -1.42857
9599.5 0
9600.5 0
9601.5 0
9602.5 0
9603.5 0
9604.5 0
9605.5 0
9606.5 0
9607.5 0
9608.5 0
9609.5 0
9610.5 -0.714286
9611.5 0
9612.5 0
9613.5 -0.714286
9614.5 0
9615.5 0
9616.5 0
9617.5 0
9618.5 0
9619.5 0
9620.5 0
9621.5 1
9622.5 -0.714286
9623.5 -0.714286
9624.5 -0.714286
9625.5 0
9626.5 1
9627.5 0
9628.5 0
9629.5 0
9630.5 0
9631.5 -0.714286
9632.5 0
9633.5 0
9634.5 -0.714286
9635.5 1
9636.5 0
9637.5 0
9638.5 -0.714286
9639.5 0
9640.5 0
9641.5 0
9642.5 0
9643.5 0
9644.5 0
9645.5 0
9646.5 0
9647.5 0
9648.5 0
9649.5 0
9650.5 0
9651.5 0
9652.5 0
9653.5 0
9654.5 0
9655.5 0
9656.5 0
9657.5 0
9658.5 0
9659.5 0
9660.5 0
9661.5 -0.714286
9662.5 0
9663.5 2
9664.5 0
9665.5 0
9666.5 0
9667.5 0.285714
9668.5 0
9669.5 0
9670.5 0
9671.5 0
9672.5 0
9673.5 0
9674.5 1
9675.5 0
9676.5 0
9677.5 0
9678.5 0
9679.5 0
9680.5 0
9681.5 0
9682.5 0
9683.5 0
9684.5 0
9685.5 -0.714286
9686.5 0
9687.5 0
9688.5 0
9689.5 0
9690.5 0
9691.5 0
9692.5 0
9693.5 -0.714286
9694.5 1
9695.5 0
9696.5 0
9697.5 -0.714286
9698.5 0
9699.5 0
9700.5 0
9701.5 0
9702.5 0
9703.5 0
9704.5 0
9705.5 -0.714286
9706.5 0
9707.5 1
9708.5 0
9709.5 0
9710.5 0
9711.5 0
9712.5 0
9713.5 0
9714.5 0
9715.5 0
9716.5 1
9717.5 0
9718.5 0
9719.5 -0.714286
9720.5 0
9721.5 0
9722.5 -0.714286
9723.5 0
9724.5 0
9725.5 0
9726.5 -0.714286
9727.5 1
9728.5 0
9729.5 0
9730.5 0
9731.5 0
9732.5 0
9733.5 0
9734.5 0
9735.5 0.285714
9736.5 0
9737.5 0
9738.5 0
9739.5 -0.714286
9740.5 0
9741.5 0
9742.5 0
9743.5 0
9744.5 0
9745.5 1
9746.5 0
9747.5 0
9748.5 0
9749.5 -0.714286
9750.5 0
9751.5 0
9752.5 0
9753.5 -0.714286
9754.5 0
9755.5 0
9756.5 -0.714286
9757.5 -0.714286
9758.5 1
9759.5 0
9760.5 -0.714286
9761.5 0
9762.5 0
9763.5 0
9764.5 0
9765.5 0
9766.5 0
9767.5 0
9768.5 0
9769.5 0
9770.5 -1.42857
9771.5 0
9772.5 0
9773.5 0
9774.5 0
9775.5 0
9776.5 -0.714286
9777.5 0
9778.5 1
9779.5 1
9780.5 0
9781.5 0
9782.5 0
9783.5 0
9784.5 0
9785.5 0
9786.5 0
9787.5 -0.714286
9788.5 0
9789.5 0
9790.5 0
9791.5 0
9792.5 0
9793.5 0
9794.5 1
9795.5 0
9796.5 -0.714286
9797.5 0
9798.5 0
9799.5 1
9800.5 0
9801.5 1
9802.5 0
9803.5 0
9804.5 0
9805.5 0
9806.5 0
9807.5 0
9808.5 0
9809.5 0
9810.5 0
9811.5 0
9812.5 0
9813.5 -0.714286
9814.5 0
9815.5 -0.714286
9816.5 -0.714286
9817.5 -0.714286
9818.5 0
9819.5 0
9820.5 0
9821.5 0
9822.5 0
9823.5 0
9824.5 -0.714286
9825.5 0
9826.5 1
9827.5 -0.714286
9828.5 0
9829.5 0
9830.5 0
9831.5 0
9832.5 0
9833.5 0
9834.5 0
9835.5 0
9836.5 0
9837.5 0
9838.5 0
9839.5 0
9840.5 0
9841.5 1
9842.5 0
9843.5 0
9844.5 -0.714286
9845.5 0
9846.5 0
9847.5 0
9848.5 0
9849.5 0
9850.5 0
9851.5 0
9852.5 0
9853.5 -0.714286
9854.5 0
9855.5 0
9856.5 0
9857.5 0
9858.5 0
9859.5 0
9860.5 0
9861.5 0
9862.5 0
9863.5 0
9864.5 0
9865.5 0
9866.5 0
9867.5 1
9868.5 0
9869.5 0
9870.5 0
9871.5 0
9872.5 1
9873.5 -0.714286
9874.5 0
9875.5 0
9876.5 0
9877.5 0
9878.5 0
9879.5 0
9880.5 0
9881.5 0
9882.5 0
9883.5 0
9884.5 0
9885.5 0
9886.5 0
9887.5 0
9888.5 0
9889.5 0
9890.5 0
9891.5 0
9892.5 0
9893.5 0
9894.5 0
9895.5 0
9896.5 0
9897.5 0
9898.5 0
9899.5 -0.714286
9900.5 0.285714
9901.5 0
9902.5 0
9903.5 0
9904.5 0
9905.5 0
9906.5 0
9907.5 0
9908.5 0
9909.5 0
9910.5 0
9911.5 0
9912.5 0
9913.5 0
9914.5 0
9915.5 0
9916.5 0
9917.5 0
9918.5 0
9919.5 0
9920.5 0
9921.5 0
9922.5 0
9923.5 2
9924.5 0
9925.5 0
9926.5 0
9927.5 0
9928.5 0
9929.5 0
9930.5 0
9931.5 0
9932.5 0
9933.5 0
9934.5 0
9935.5 0
9936.5 0
9937.5 0
9938.5 0
9939.5 0
9940.5 0
9941.5 0
9942.5 0
9943.5 0
9944.5 0
9945.5 0
9946.5 0
9947.5 0
9948.5 0
9949.5 0
9950.5 0
9951.5 0
9952.5 0
9953.5 -0.714286
9954.5 0
9955.5 -0.714286
9956.5 -0.714286
9957.5 0
9958.5 0
9959.5 0
9960.5 0
9961.5 -0.714286
9962.5 -0.714286
9963.5 0
9964.5 0
9965.5 0
9966.5 0
9967.5 0
9968.5 0
9969.5 1
9970.5 -0.714286
9971.5 0
9972.5 0
9973.5 0
9974.5 0
9975.5 0
9976.5 0
9977.5 0
9978.5 -0.714286
9979.5 0
9980.5 0
9981.5 0
9982.5 0
9983.5 0
9984.5 0
9985.5 0
9986.5 1
9987.5 0
9988.5 0
9989.5 0
9990.5 0
9991.5 0
9992.5 -0.714286
9993.5 0
9994.5 0
9995.5 0
9996.5 0
9997.5 0
9998.5 0
9999.5 0
10000.5 0
10001.5 0
10002.5 0
10003.5 0
10004.5 0
10005.5 -0.714286
10006.5 0
10007.5 -0.714286
10008.5 0
10009.5 0
10010.5 0
10011.5 0
10012.5 0
10013.5 0
10014.5 0
10015.5 0
10016.5 0
10017.5 0
10018.5 0
10019.5 0
10020.5 0
10021.5 -0.714286
10022.5 0
10023.5 0
10024.5 1
10025.5 0
10026.5 0
10027.5 0
10028.5 0
10029.5 0
10030.5 0
10031.5 0
10032.5 0
10033.5 0
10034.5 0
10035.5 0
10036.5 0
10037.5 0
10038.5 0
10039.5 0
10040.5 0
10041.5 0
10042.5 0
10043.5 -0.714286
10044.5 0
10045.5 -0.714286
10046.5 0
10047.5 0
10048.5 0
10049.5 0
10050.5 1
10051.5 0
10052.5 0
10053.5 0
10054.5 0
10055.5 0
10056.5 0
10057.5 0
10058.5 -0.714286
10059.5 -0.714286
10060.5 0
10061.5 0
10062.5 0
10063.5 0
10064.5 0
10065.5 0
10066.5 0
10067.5 0
10068.5 0
10069.5 0
10070.5 0
10071.5 0
10072.5 1
10073.5 0
10074.5 0
10075.5 0
10076.5 0
10077.5 0
10078.5 0
10079.5 0
10080.5 0
10081.5 0
10082.5 0
10083.5 0
10084.5 0
10085.5 0
10086.5 0
10087.5 0
10088.5 0
10089.5 0
10090.5 0
10091.5 0
10092.5 0
10093.5 0
10094.5 0
10095.5 0
10096.5 0
10097.5 0
10098.5 0
10099.5 0
10100.5 0
10101.5 0
10102.5 0
10103.5 0
10104.5 0
10105.5 0
10106.5 0
10107.5 0
10108.5 0
10109.5 0
10110.5 -0.714286
10111.5 0
10112.5 0
10113.5 0
10114.5 0
10115.5 0
10116.5 0
10117.5 -0.714286
10118.5 0
10119.5 0
10120.5 0
10121.5 0
10122.5 0
10123.5 0
10124.5 0
10125.5 0
10126.5 0
10127.5 -0.714286
10128.5 0
10129.5 0
10130.5 0
10131.5 0
10132.5 0
10133.5 -0.714286
10134.5 1
10135.5 -0.714286
10136.5 0
10137.5 0
10138.5 0
10139.5 0
10140.5 0
10141.5 1
10142.5 -0.714286
10143.5 0
10144.5 0
10145.5 0
10146.5 0
10147.5 0
10148.5 0
10149.5 0
10150.5 0
10151.5 0
10152.5 0
10153.5 0
10154.5 0
10155.5 0
10156.5 0
10157.5 0
10158.5 0
10159.5 0
10160.5 0
10161.5 0
10162.5 0
10163.5 0
10164.5 -0.714286
10165.5 0
10166.5 0
10167.5 0
10168.5 0
10169.5 0
10170.5 0
10171.5 0
10172.5 0
10173.5 0
10174.5 0
10175.5 0
10176.5 0
10177.5 0
10178.5 0
10179.5 1
10180.5 0
10181.5 0
10182.5 0
10183.5 0
10184.5 0
10185.5 0
10186.5 0
10187.5 0
10188.5 0
10189.5 0
10190.5 0
10191.5 0
10192.5 0
10193.5 0
10194.5 -0.714286
10195.5 0
10196.5 0
10197.5 0
10198.5 0
10199.5 0
10200.5 0
10201.5 0
10202.5 0
10203.5 0
10204.5 0
10205.5 0
10206.5 0
10207.5 0
10208.5 0
10209.5 0
10210.5 0
10211.5 0
10212.5 0
10213.5 0
10214.5 0
10215.5 0
10216.5 0
10217.5 0
10218.5 0
10219.5 0
10220.5 0
10221.5 0
10222.5 0
10223.5 0
10224.5 0
10225.5 0
10226.5 0
10227.5 0
10228.5 0
10229.5 1
10230.5 0
10231.5 1
10232.5 0
10233.5 0
10234.5 0
10235.5 0
10236.5 0
10237.5 0
10238.5 0
10239.5 0
10240.5 -0.714286
10241.5 0
10242.5 0
10243.5 0
10244.5 0
10245.5 0
10246.5 0
10247.5 0
10248.5 0
10249.5 0
10250.5 0
10251.5 0
10252.5 0
10253.5 0
10254.5 0
10255.5 0
10256.5 0
10257.5 0
10258.5 0
10259.5 0
10260.5 0
10261.5 0
10262.5 0
10263.5 0
10264.5 0
10265.5 0
10266.5 0
10267.5 0
10268.5 0
10269.5 0
10270.5 0
10271.5 0
10272.5 0
10273.5 0
10274.5 0
10275.5 1
10276.5 0
10277.5 1
10278.5 0
10279.5 0
10280.5 0
10281.5 0
10282.5 0
10283.5 0
10284.5 0
10285.5 0
10286.5 0
10287.5 0
10288.5 0
10289.5 0
10290.5 0
10291.5 1
10292.5 0
10293.5 0
10294.5 -0.714286
10295.5 0
10296.5 0
10297.5 0
10298.5 0
10299.5 0
10300.5 0
10301.5 1
10302.5 0
10303.5 0
10304.5 0
10305.5 0
10306.5 0
10307.5 0
10308.5 0
10309.5 1
10310.5 0
10311.5 0
10312.5 0
10313.5 0
10314.5 0
10315.5 0
10316.5 0
10317.5 0
10318.5 0
10319.5 -0.714286
10320.5 0
10321.5 0
10322.5 0
10323.5 0
10324.5 0
10325.5 0
10326.5 -0.714286
10327.5 0
10328.5 0
10329.5 0
10330.5 0
10331.5 0
10332.5 0
10333.5 0
10334.5 0
10335.5 0
10336.5 0
10337.5 0
10338.5 0
10339.5 0
10340.5 0
10341.5 0
10342.5 -0.714286
10343.5 0
10344.5 0
10345.5 0
10346.5 0
10347.5 0
10348.5 0
10349.5 0
10350.5 1
10351.5 -0.714286
10352.5 0
10353.5 0
10354.5 0
10355.5 -0.714286
10356.5 0
10357.5 0
10358.5 0
10359.5 0
10360.5 0
10361.5 0
10362.5 1
10363.5 0
10364.5 0
10365.5 0
10366.5 0
10367.5 0
10368.5 0
10369.5 0
10370.5 0
10371.5 0
10372.5 0
10373.5 0
10374.5 0
10375.5 0
10376.5 0
10377.5 0
10378.5 0
10379.5 0
10380.5 0
10381.5 0
10382.5 0
10383.5 0
10384.5 0
10385.5 -0.714286
10386.5 0
10387.5 0
10388.5 0
10389.5 0
10390.5 0
10391.5 0
10392.5 0
10393.5 0
10394.5 0
10395.5 0
10396.5 0
10397.5 0
10398.5 0
10399.5 0
10400.5 0
10401.5 0
10402.5 0
10403.5 0
10404.5 0
10405.5 0
10406.5 0
10407.5 0
10408.5 0
10409.5 0
10410.5 0
10411.5 0
10412.5 0
10413.5 0
10414.5 0
10415.5 0
10416.5 -0.714286
10417.5 0
10418.5 0
10419.5 0
10420.5 0
10421.5 0
10422.5 0
10423.5 0
10424.5 0
10425.5 0
10426.5 0
10427.5 0
10428.5 0
10429.5 0
10430.5 0
10431.5 0
10432.5 0
10433.5 0
10434.5 0
10435.5 0
10436.5 0
10437.5 0
10438.5 0
10439.5 0
10440.5 0
10441.5 0
10442.5 0
10443.5 0
10444.5 0
10445.5 0
10446.5 0
10447.5 0
10448.5 0
10449.5 0
10450.5 0
10451.5 0
10452.5 0
10453.5 0
10454.5 0
10455.5 0
10456.5 0
10457.5 0
10458.5 0
10459.5 0
10460.5 0
10461.5 0
10462.5 0
10463.5 0
10464.5 0
10465.5 0
10466.5 0
10467.5 0
10468.5 0
10469.5 0
10470.5 1
10471.5 0
10472.5 0
10473.5 0
10474.5 0
10475.5 0
10476.5 0
10477.5 0
10478.5 0
10479.5 0
10480.5 0
10481.5 0
10482.5 0
10483.5 0
10484.5 0
10485.5 0
10486.5 0
10487.5 0
10488.5 0
10489.5 0
10490.5 0
10491.5 0
10492.5 0
10493.5 1
10494.5 0
10495.5 0
10496.5 0
10497.5 0
10498.5 0
10499.5 0
10500.5 0
10501.5 1
10502.5 0
10503.5 0
10504.5 0
10505.5 0
10506.5 0
10507.5 0
10508.5 0
10509.5 0
10510.5 0
10511.5 0
10512.5 0
10513.5 0
10514.5 0
10515.5 0
10516.5 0
10517.5 0
10518.5 0
10519.5 0
10520.5 0
10521.5 0
10522.5 0
10523.5 0
10524.5 0
10525.5 0
10526.5 1
10527.5 0
10528.5 0
10529.5 0
10530.5 0
10531.5 0
10532.5 0
10533.5 0
10534.5 0
10535.5 0
10536.5 -0.714286
10537.5 -0.714286
10538.5 0
10539.5 0
10540.5 0
10541.5 0
10542.5 0
10543.5 0
10544.5 0
10545.5 0
10546.5 0
10547.5 0
10548.5 0
10549.5 0
10550.5 0
10551.5 0
10552.5 0
10553.5 0
10554.5 0
10555.5 0
10556.5 0
10557.5 0
10558.5 0
10559.5 0
10560.5 0
10561.5 0
10562.5 0
10563.5 0
10564.5 0
10565.5 0
10566.5 0
10567.5 0
10568.5 0
10569.5 0
10570.5 0
10571.5 0
10572.5 -0.714286
10573.5 0
10574.5 -0.714286
10575.5 0
10576.5 0
10577.5 0
10578.5 0
10579.5 0
10580.5 0
10581.5 0
10582.5 0
10583.5 0
10584.5 0
10585.5 0
10586.5 0
10587.5 0
10588.5 0
10589.5 0
10590.5 0
10591.5 0
10592.5 0
10593.5 0
10594.5 0
10595.5 0
10596.5 0
10597.5 0
10598.5 0
10599.5 0
10600.5 0
10601.5 0
10602.5 0
10603.5 0
10604.5 0
10605.5 0
10606.5 0
10607.5 0
10608.5 0
10609.5 0
10610.5 0
10611.5 0
10612.5 0
10613.5 -0.714286
10614.5 0
10615.5 0
10616.5 0
10617.5 0
10618.5 0
10619.5 0
10620.5 0
10621.5 0
10622.5 0
10623.5 0
10624.5 0
10625.5 0
10626.5 0
10627.5 0
10628.5 0
10629.5 0
10630.5 1
10631.5 0
10632.5 0
10633.5 0
10634.5 0
10635.5 0
10636.5 0
10637.5 0
10638.5 0
10639.5 0
10640.5 0
10641.5 0
10642.5 -0.714286
10643.5 0
10644.5 0
10645.5 0
10646.5 0
10647.5 0
10648.5 0
10649.5 0
10650.5 0
10651.5 0
10652.5 0
10653.5 0
10654.5 0
10655.5 0
10656.5 0
10657.5 0
10658.5 0
10659.5 0
10660.5 0
10661.5 0
10662.5 0
10663.5 0
10664.5 0
10665.5 0
10666.5 0
10667.5 0
10668.5 0
10669.5 0
10670.5 1
10671.5 0
10672.5 0
10673.5 0
10674.5 0
10675.5 0
10676.5 0
10677.5 0
10678.5 0
10679.5 0
10680.5 0
10681.5 0
10682.5 1
10683.5 0
10684.5 0
10685.5 0
10686.5 0
10687.5 0
10688.5 0
10689.5 0
10690.5 0
10691.5 0
10692.5 -0.714286
10693.5 0
10694.5 0
10695.5 0
10696.5 0
10697.5 0
10698.5 0
10699.5 0
10700.5 0
10701.5 0
10702.5 0
10703.5 0
10704.5 0
10705.5 0
10706.5 0
10707.5 0
10708.5 0
10709.5 0
10710.5 0
10711.5 0
10712.5 0
10713.5 0
10714.5 0
10715.5 -0.714286
10716.5 0
10717.5 0
10718.5 0
10719.5 -0.714286
10720.5 0
10721.5 1
10722.5 0
10723.5 0
10724.5 0
10725.5 0
10726.5 0
10727.5 0
10728.5 -0.714286
10729.5 0
10730.5 0
10731.5 0
10732.5 1
10733.5 0
10734.5 0
10735.5 0
10736.5 0
10737.5 0
10738.5 -0.714286
10739.5 0
10740.5 0
10741.5 0
10742.5 0
10743.5 0
10744.5 0
10745.5 0
10746.5 0
10747.5 0
10748.5 0
10749.5 0
10750.5 -0.714286
10751.5 0
10752.5 0
10753.5 0
10754.5 0
10755.5 0
10756.5 0
10757.5 1
10758.5 0
10759.5 -0.714286
10760.5 0
10761.5 0
10762.5 0
10763.5 0
10764.5 0
10765.5 0
10766.5 0
10767.5 0
10768.5 0
10769.5 0
10770.5 0
10771.5 0
10772.5 0
10773.5 0
10774.5 0
10775.5 0
10776.5 0
10777.5 0
10778.5 0
10779.5 0
10780.5 0
10781.5 0
10782.5 0
10783.5 0
10784.5 0
10785.5 0
10786.5 0
10787.5 0
10788.5 0
10789.5 0
10790.5 0
10791.5 0
10792.5 0
10793.5 0
10794.5 0
10795.5 0
10796.5 0
10797.5 0
10798.5 0
10799.5 0
10800.5 0
10801.5 0
10802.5 0
10803.5 0
10804.5 0
10805.5 0
10806.5 0
10807.5 0
10808.5 0
10809.5 0
10810.5 0
10811.5 0
10812.5 0
10813.5 0
10814.5 0
10815.5 0
10816.5 0
10817.5 0
10818.5 0
10819.5 0
10820.5 0
10821.5 0
10822.5 0
10823.5 0
10824.5 0
10825.5 0
10826.5 0
10827.5 0
10828.5 0
10829.5 -0.714286
10830.5 0
10831.5 0
10832.5 0
10833.5 0
10834.5 0
10835.5 0
10836.5 0
10837.5 0
10838.5 0
10839.5 0
10840.5 0
10841.5 0
10842.5 0
10843.5 0
10844.5 -0.714286
10845.5 0
10846.5 0
10847.5 0
10848.5 0
10849.5 1
10850.5 0
10851.5 0
10852.5 0
10853.5 0
10854.5 0
10855.5 0
10856.5 0
10857.5 0
10858.5 0
10859.5 0
10860.5 0
10861.5 0
10862.5 0
10863.5 0
10864.5 0
10865.5 0
10866.5 0
10867.5 0
10868.5 0
10869.5 0
10870.5 1
10871.5 0
10872.5 -0.714286
10873.5 0
10874.5 0
10875.5 0
10876.5 0
10877.5 0
10878.5 0
10879.5 0
10880.5 0
10881.5 0
10882.5 -0.714286
10883.5 0
10884.5 0
10885.5 0
10886.5 1
10887.5 0
10888.5 0
10889.5 0
10890.5 0
10891.5 0
10892.5 0
10893.5 0
10894.5 0
10895.5 0
10896.5 1
10897.5 0
10898.5 0
10899.5 0
10900.5 0
10901.5 1
10902.5 0
10903.5 0
10904.5 0
10905.5 0
10906.5 0
10907.5 0
10908.5 0
10909.5 0
10910.5 0
10911.5 0
10912.5 0
10913.5 0
10914.5 0
10915.5 0
10916.5 0
10917.5 0
10918.5 0
10919.5 0
10920.5 0
10921.5 0
10922.5 0
10923.5 0
10924.5 0
10925.5 0
10926.5 0
10927.5 0
10928.5 0
10929.5 0
10930.5 0
10931.5 0
10932.5 0
10933.5 0
10934.5 0
10935.5 0
10936.5 0
10937.5 0
10938.5 0
10939.5 0
10940.5 0
10941.5 0
10942.5 0
10943.5 0
10944.5 0
10945.5 0
10946.5 0
10947.5 0
10948.5 0
10949.5 0
10950.5 0
10951.5 0
10952.5 0
10953.5 0
10954.5 0
10955.5 0
10956.5 0
10957.5 0
10958.5 0
10959.5 0
10960.5 0
10961.5 0
10962.5 0
10963.5 0
10964.5 0
10965.5 0
10966.5 0
10967.5 0
10968.5 0
10969.5 0
10970.5 0
10971.5 0
10972.5 0
10973.5 0
10974.5 0
10975.5 0
10976.5 0
10977.5 0
10978.5 0
10979.5 0
10980.5 -0.714286
10981.5 0
10982.5 0
10983.5 0
10984.5 0
10985.5 0
10986.5 0
10987.5 0
10988.5 0
10989.5 0
10990.5 0
10991.5 0
10992.5 0
10993.5 0
10994.5 0
10995.5 0
10996.5 0
10997.5 0
10998.5 0
10999.5 0
11000.5 0
11001.5 0
11002.5 0
11003.5 0
11004.5 0
11005.5 0
11006.5 0
11007.5 0
11008.5 0
11009.5 0
11010.5 0
11011.5 0
11012.5 0
11013.5 0
11014.5 0
11015.5 0
11016.5 0
11017.5 0
11018.5 0
11019.5 0
11020.5 0
11021.5 0
11022.5 0
11023.5 0
11024.5 0
11025.5 0
11026.5 0
11027.5 0
11028.5 0
11029.5 0
11030.5 0
11031.5 0
11032.5 0
11033.5 0
11034.5 0
11035.5 0
11036.5 0
11037.5 0
11038.5 0
11039.5 0
11040.5 0
11041.5 0
11042.5 0
11043.5 0
11044.5 0
11045.5 0
11046.5 0
11047.5 0
11048.5 0
11049.5 1
11050.5 -0.714286
11051.5 0
11052.5 0
11053.5 0
11054.5 0
11055.5 0
11056.5 0
11057.5 0
11058.5 0
11059.5 0
11060.5 0
11061.5 0
11062.5 0
11063.5 0
11064.5 0
11065.5 0
11066.5 0
11067.5 0
11068.5 0
11069.5 0
11070.5 0
11071.5 0
11072.5 0
11073.5 0
11074.5 0
11075.5 0
11076.5 0
11077.5 0
11078.5 0
11079.5 0
11080.5 1
11081.5 0
11082.5 0
11083.5 0
11084.5 0
11085.5 0
11086.5 0
11087.5 0
11088.5 0
11089.5 0
11090.5 -0.714286
11091.5 0
11092.5 0
11093.5 0
11094.5 0
11095.5 0
11096.5 0
11097.5 0
11098.5 0
11099.5 1
11100.5 0
11101.5 0
11102.5 0
11103.5 0
11104.5 0
11105.5 0
11106.5 0
11107.5 0
11108.5 0
11109.5 0
11110.5 0
11111.5 0
11112.5 0
11113.5 0
11114.5 0
11115.5 0
11116.5 0
11117.5 0
11118.5 0
11119.5 0
11120.5 0
11121.5 0
11122.5 0
11123.5 0
11124.5 0
11125.5 0
11126.5 0
11127.5 0
11128.5 0
11129.5 0
11130.5 0
11131.5 0
11132.5 0
11133.5 0
11134.5 0
11135.5 0
11136.5 0
11137.5 0
11138.5 0
11139.5 0
11140.5 0
11141.5 0
11142.5 0
11143.5 0
11144.5 0
11145.5 0
11146.5 0
11147.5 0
11148.5 0
11149.5 0
11150.5 -0.714286
11151.5 0
11152.5 0
11153.5 0
11154.5 0
11155.5 0
11156.5 0
11157.5 0
11158.5 0
11159.5 0
11160.5 0
11161.5 0
11162.5 0
11163.5 0
11164.5 0
11165.5 0
11166.5 0
11167.5 0
11168.5 0
11169.5 0
11170.5 0
11171.5 0
11172.5 0
11173.5 0
11174.5 0
11175.5 0
11176.5 0
11177.5 0
11178.5 0
11179.5 0
11180.5 0
11181.5 0
11182.5 0
11183.5 0
11184.5 0
11185.5 0
11186.5 0
11187.5 0
11188.5 0
11189.5 0
11190.5 0
11191.5 0
11192.5 0
11193.5 0
11194.5 0
11195.5 0
11196.5 0
11197.5 0
11198.5 0
11199.5 0
11200.5 0
11201.5 0
11202.5 0
11203.5 0
11204.5 0
11205.5 0
11206.5 0
11207.5 0
11208.5 0
11209.5 0
11210.5 -0.714286
11211.5 0
11212.5 0
11213.5 0
11214.5 0
11215.5 0
11216.5 0
11217.5 1
11218.5 0
11219.5 0
11220.5 0
11221.5 0
11222.5 0
11223.5 0
11224.5 0
11225.5 0
11226.5 0
11227.5 0
11228.5 0
11229.5 0
11230.5 0
11231.5 0
11232.5 0
11233.5 0
11234.5 0
11235.5 0
11236.5 0
11237.5 0
11238.5 0
11239.5 0
11240.5 0
11241.5 0
11242.5 0
11243.5 0
11244.5 0
11245.5 0
11246.5 0
11247.5 0
11248.5 0
11249.5 0
11250.5 -0.714286
11251.5 0
11252.5 0
11253.5 0
11254.5 0
11255.5 0
11256.5 0
11257.5 0
11258.5 0
11259.5 0
11260.5 0
11261.5 0
11262.5 0
11263.5 0
11264.5 0
11265.5 0
11266.5 0
11267.5 0
11268.5 0
11269.5 0
11270.5 0
11271.5 0
11272.5 0
11273.5 0
11274.5 0
11275.5 0
11276.5 0
11277.5 0
11278.5 0
11279.5 0
11280.5 0
11281.5 0
11282.5 0
11283.5 0
11284.5 0
11285.5 0
11286.5 0
11287.5 0
11288.5 -0.714286
11289.5 0
11290.5 0
11291.5 0
11292.5 0
11293.5 0
11294.5 0
11295.5 0
11296.5 0
11297.5 0
11298.5 0
11299.5 0
11300.5 -0.714286
11301.5 0
11302.5 0
11303.5 0
11304.5 0
11305.5 0
11306.5 0
11307.5 0
11308.5 0
11309.5 0
11310.5 0
11311.5 0
11312.5 0
11313.5 0
11314.5 0
11315.5 0
11316.5 0
11317.5 0
11318.5 0
11319.5 0
11320.5 0
11321.5 0
11322.5 0
11323.5 0
11324.5 0
11325.5 0
11326.5 0
11327.5 0
11328.5 0
11329.5 0
11330.5 0
11331.5 0
11332.5 0
11333.5 0
11334.5 0
11335.5 0
11336.5 0
11337.5 0
11338.5 0
11339.5 0
11340.5 0
11341.5 0
11342.5 0
11343.5 0
11344.5 0
11345.5 0
11346.5 0
11347.5 0
11348.5 0
11349.5 0
11350.5 0
11351.5 0
11352.5 0
11353.5 0
11354.5 0
11355.5 0
11356.5 0
11357.5 0
11358.5 0
11359.5 0
11360.5 0
11361.5 1
11362.5 0
11363.5 0
11364.5 0
11365.5 0
11366.5 0
11367.5 0
11368.5 0
11369.5 0
11370.5 0
11371.5 0
11372.5 1
11373.5 0
11374.5 0
11375.5 0
11376.5 0
11377.5 1
11378.5 0
11379.5 0
11380.5 0
11381.5 0
11382.5 0
11383.5 0
11384.5 0
11385.5 0
11386.5 0
11387.5 0
11388.5 0
11389.5 0
11390.5 0
11391.5 0
11392.5 0
11393.5 0
11394.5 0
11395.5 0
11396.5 0
11397.5 0
11398.5 0
11399.5 0
11400.5 0
11401.5 0
11402.5 0
11403.5 0
11404.5 0
11405.5 0
11406.5 0
11407.5 0
11408.5 0
11409.5 0
11410.5 0
11411.5 0
11412.5 0
11413.5 0
11414.5 0
11415.5 0
11416.5 0
11417.5 0
11418.5 0
11419.5 0
11420.5 0
11421.5 0
11422.5 0
11423.5 0
11424.5 0
11425.5 0
11426.5 0
11427.5 0
11428.5 0
11429.5 0
11430.5 0
11431.5 0
11432.5 0
11433.5 0
11434.5 0
11435.5 0
11436.5 0
11437.5 0
11438.5 0
11439.5 0
11440.5 0
11441.5 0
11442.5 0
11443.5 0
11444.5 0
11445.5 0
11446.5 0
11447.5 0
11448.5 0
11449.5 0
11450.5 0
11451.5 0
11452.5 0
11453.5 0
11454.5 0
11455.5 0
11456.5 0
11457.5 0
11458.5 0
11459.5 0
11460.5 0
11461.5 0
11462.5 0
11463.5 0
11464.5 0
11465.5 0
11466.5 0
11467.5 0
11468.5 0
11469.5 0
11470.5 0
11471.5 0
11472.5 0
11473.5 0
11474.5 0
11475.5 0
11476.5 0
11477.5 0
11478.5 0
11479.5 0
11480.5 0
11481.5 0
11482.5 0
11483.5 0
11484.5 0
11485.5 0
11486.5 0
11487.5 0
11488.5 0
11489.5 0
11490.5 0
11491.5 0
11492.5 0
11493.5 0
11494.5 0
11495.5 -0.714286
11496.5 0
11497.5 0
11498.5 0
11499.5 0
11500.5 0
11501.5 0
11502.5 0
11503.5 0
11504.5 0
11505.5 0
11506.5 0
11507.5 0
11508.5 0
11509.5 0
11510.5 0
11511.5 0
11512.5 0
11513.5 0
11514.5 0
11515.5 0
11516.5 0
11517.5 0
11518.5 0
11519.5 0
11520.5 0
11521.5 0
11522.5 0
11523.5 0
11524.5 0
11525.5 0
11526.5 0
11527.5 0
11528.5 0
11529.5 0
11530.5 0
11531.5 0
11532.5 0
11533.5 0
11534.5 0
11535.5 0
11536.5 0
11537.5 0
11538.5 0
11539.5 0
11540.5 0
11541.5 0
11542.5 0
11543.5 0
11544.5 0
11545.5 0
11546.5 0
11547.5 0
11548.5 0
11549.5 0
11550.5 0
11551.5 0
11552.5 0
11553.5 0
11554.5 0
11555.5 0
11556.5 0
11557.5 0
11558.5 0
11559.5 0
11560.5 0
11561.5 0
11562.5 1
11563.5 0
11564.5 0
11565.5 0
11566.5 0
11567.5 0
11568.5 0
11569.5 0
11570.5 0
11571.5 0
11572.5 0
11573.5 0
11574.5 0
11575.5 0
11576.5 0
11577.5 0
11578.5 0
11579.5 0
11580.5 0
11581.5 0
11582.5 0
11583.5 0
11584.5 0
11585.5 0
11586.5 0
11587.5 0
11588.5 0
11589.5 0
11590.5 -0.714286
11591.5 0
11592.5 0
11593.5 0
11594.5 0
11595.5 0
11596.5 0
11597.5 0
11598.5 0
11599.5 0
11600.5 0
11601.5 0
11602.5 0
11603.5 0
11604.5 0
11605.5 0
11606.5 0
11607.5 0
11608.5 0
11609.5 0
11610.5 0
11611.5 0
11612.5 0
11613.5 0
11614.5 0
11615.5 0
11616.5 0
11617.5 0
11618.5 0
11619.5 0
11620.5 0
11621.5 0
11622.5 0
11623.5 0
11624.5 0
11625.5 0
11626.5 0
11627.5 0
11628.5 0
11629.5 0
11630.5 0
11631.5 0
11632.5 0
11633.5 0
11634.5 0
11635.5 0
11636.5 0
11637.5 0
11638.5 0
11639.5 0
11640.5 0
11641.5 0
11642.5 0
11643.5 0
11644.5 0
11645.5 0
11646.5 0
11647.5 0
11648.5 0
11649.5 0
11650.5 0
11651.5 0
11652.5 0
11653.5 0
11654.5 0
11655.5 0
11656.5 0
11657.5 0
11658.5 0
11659.5 0
11660.5 0
11661.5 0
11662.5 0
11663.5 0
11664.5 0
11665.5 0
11666.5 0
11667.5 0
11668.5 0
11669.5 1
11670.5 0
11671.5 0
11672.5 0
11673.5 0
11674.5 -0.714286
11675.5 0
11676.5 0
11677.5 0
11678.5 0
11679.5 0
11680.5 0
11681.5 0
11682.5 0
11683.5 0
11684.5 0
11685.5 0
11686.5 0
11687.5 0
11688.5 0
11689.5 0
11690.5 0
11691.5 0
11692.5 0
11693.5 0
11694.5 0
11695.5 0
11696.5 0
11697.5 0
11698.5 0
11699.5 0
11700.5 0
11701.5 0
11702.5 0
11703.5 0
11704.5 0
11705.5 0
11706.5 0
11707.5 0
11708.5 0
11709.5 0
11710.5 0
11711.5 0
11712.5 0
11713.5 0
11714.5 0
11715.5 0
11716.5 0
11717.5 0
11718.5 0
11719.5 -0.714286
11720.5 0
11721.5 0
11722.5 0
11723.5 0
11724.5 0
11725.5 0
11726.5 0
11727.5 0
11728.5 0
11729.5 0
11730.5 0
11731.5 0
11732.5 0
11733.5 0
11734.5 0
11735.5 0
11736.5 0
11737.5 0
11738.5 0
11739.5 0
11740.5 0
11741.5 0
11742.5 0
11743.5 0
11744.5 0
11745.5 0
11746.5 0
11747.5 0
11748.5 0
11749.5 0
11750.5 0
11751.5 0
11752.5 0
11753.5 0
11754.5 0
11755.5 1
11756.5 0
11757.5 0
11758.5 0
11759.5 0
11760.5 0
11761.5 0
11762.5 0
11763.5 0
11764.5 0
11765.5 0
11766.5 0
11767.5 0
11768.5 0
11769.5 0
11770.5 0
11771.5 0
11772.5 0
11773.5 0
11774.5 0
11775.5 0
11776.5 1
11777.5 0
11778.5 0
11779.5 0
11780.5 0
11781.5 0
11782.5 0
11783.5 -0.714286
11784.5 0
11785.5 0
11786.5 0
11787.5 0
11788.5 0
11789.5 0
11790.5 0
11791.5 0
11792.5 0
11793.5 0
11794.5 0
11795.5 0
11796.5 0
11797.5 0
11798.5 0
11799.5 0
11800.5 0
11801.5 0
11802.5 0
11803.5 0
11804.5 0
11805.5 0
11806.5 0
11807.5 0
11808.5 0
11809.5 0
11810.5 0
11811.5 0
11812.5 0
11813.5 0
11814.5 0
11815.5 0
11816.5 0
11817.5 0
11818.5 0
11819.5 0
11820.5 0
11821.5 0
11822.5 0
11823.5 0
11824.5 0
11825.5 0
11826.5 0
11827.5 0
11828.5 0
11829.5 0
11830.5 0
11831.5 0
11832.5 0
11833.5 0
11834.5 0
11835.5 0
11836.5 0
11837.5 0
11838.5 0
11839.5 0
11840.5 0
11841.5 0
11842.5 0
11843.5 0
11844.5 0
11845.5 0
11846.5 0
11847.5 0
11848.5 0
11849.5 0
11850.5 0
11851.5 0
11852.5 0
11853.5 0
11854.5 0
11855.5 0
11856.5 0
11857.5 0
11858.5 0
11859.5 0
11860.5 0
11861.5 0
11862.5 0
11863.5 0
11864.5 0
11865.5 0
11866.5 0
11867.5 0
11868.5 0
11869.5 0
11870.5 0
11871.5 0
11872.5 0
11873.5 0
11874.5 0
11875.5 0
11876.5 0
11877.5 0
11878.5 0
11879.5 0
11880.5 0
11881.5 0
11882.5 0
11883.5 0
11884.5 0
11885.5 0
11886.5 0
11887.5 0
11888.5 0
11889.5 0
11890.5 0
11891.5 0
11892.5 0
11893.5 0
11894.5 0
11895.5 0
11896.5 0
11897.5 0
11898.5 0
11899.5 0
11900.5 0
11901.5 0
11902.5 0
11903.5 0
11904.5 0
11905.5 0
11906.5 0
11907.5 0
11908.5 0
11909.5 0
11910.5 0
11911.5 0
11912.5 0
11913.5 0
11914.5 0
11915.5 0
11916.5 0
11917.5 0
11918.5 0
11919.5 0
11920.5 0
11921.5 0
11922.5 0
11923.5 0
11924.5 0
11925.5 0
11926.5 0
11927.5 0
11928.5 0
11929.5 0
11930.5 0
11931.5 0
11932.5 0
11933.5 0
11934.5 0
11935.5 0
11936.5 0
11937.5 0
11938.5 0
11939.5 0
11940.5 0
11941.5 0
11942.5 0
11943.5 0
11944.5 0
11945.5 0
11946.5 0
11947.5 0
11948.5 0
11949.5 0
11950.5 0
11951.5 0
11952.5 0
11953.5 0
11954.5 0
11955.5 0
11956.5 -1.42857
11957.5 0
11958.5 0
11959.5 -0.714286
11960.5 0
11961.5 0
11962.5 0
11963.5 0
11964.5 0
11965.5 0
11966.5 0
11967.5 0
11968.5 0
11969.5 0
11970.5 0
11971.5 0
11972.5 0
11973.5 0
11974.5 0
11975.5 0
11976.5 0
11977.5 0
11978.5 0
11979.5 0
11980.5 0
11981.5 0
11982.5 0
11983.5 0
11984.5 0
11985.5 0
11986.5 0
11987.5 0
11988.5 0
11989.5 0
11990.5 0
11991.5 0
11992.5 0
11993.5 0
11994.5 0
11995.5 0
11996.5 0
11997.5 0
11998.5 1
11999.5 0
