# EGG_ProjY_E5006.5(4.5)_B4991.0(2.0)_B5019.5(1.5)
# X axis : Energy (keV) [Y axis]
# Y axis : Counts/1 keV
# N Bins : 12000
# X Min : 0
# X Max : 12000
# X value at the center of the bins
0.5 0
1.5 0
2.5 0
3.5 0
4.5 0
5.5 68.4286
6.5 133.143
7.5 -0.142856
8.5 4
9.5 37.5714
10.5 58.1429
11.5 35.7143
12.5 8.14286
13.5 47
14.5 57.4286
15.5 53
16.5 56.7143
17.5 26.1429
18.5 82
19.5 94.5714
20.5 117.429
21.5 164.857
22.5 151.857
23.5 155.714
24.5 196.286
25.5 231.429
26.5 220.714
27.5 320
28.5 255.286
29.5 256.571
30.5 331.714
31.5 287.429
32.5 388.857
33.5 280.857
34.5 405.143
35.5 438.571
36.5 387.857
37.5 435.286
38.5 387.286
39.5 444.714
40.5 514
41.5 441.143
42.5 490
43.5 475.286
44.5 389
45.5 385.286
46.5 353.143
47.5 512
48.5 529
49.5 472
50.5 441.286
51.5 530.429
52.5 470
53.5 520.571
54.5 558.857
55.5 644.714
56.5 525.429
57.5 796
58.5 791.143
59.5 815.714
60.5 767.429
61.5 703.571
62.5 745.286
63.5 652.714
64.5 653
65.5 663.857
66.5 826.143
67.5 903.143
68.5 709.571
69.5 658.857
70.5 687.143
71.5 664.429
72.5 722
73.5 798.571
74.5 1117.29
75.5 1123.43
76.5 1299.86
77.5 1392.43
78.5 881.857
79.5 544.857
80.5 610.286
81.5 520.857
82.5 524.143
83.5 626.571
84.5 510.286
85.5 517.286
86.5 841.143
87.5 834.857
88.5 686.714
89.5 775.143
90.5 649.143
91.5 650
92.5 637
93.5 542.857
94.5 607.571
95.5 492.429
96.5 552
97.5 581.429
98.5 683.571
99.5 702.857
100.5 739.429
101.5 729.714
102.5 693.429
103.5 826.143
104.5 1044.71
105.5 985
106.5 973.857
107.5 898.857
108.5 888.286
109.5 930.571
110.5 966.714
111.5 981.857
112.5 754.143
113.5 868.714
114.5 916.429
115.5 892.429
116.5 823.571
117.5 875.857
118.5 810.571
119.5 921
120.5 896
121.5 872.571
122.5 847.714
123.5 756.571
124.5 713.857
125.5 899.429
126.5 869.571
127.5 807
128.5 923.286
129.5 894.429
130.5 874.714
131.5 765.714
132.5 863.286
133.5 828.429
134.5 931.714
135.5 847
136.5 867.429
137.5 812.143
138.5 782.429
139.5 847.429
140.5 983.429
141.5 868
142.5 773.857
143.5 894.286
144.5 1067.14
145.5 889.571
146.5 888.286
147.5 1036.29
148.5 1045.29
149.5 1025.86
150.5 1038.86
151.5 1040.71
152.5 1018.86
153.5 990.714
154.5 1121.86
155.5 1131
156.5 1072.43
157.5 1107
158.5 1067
159.5 1065.43
160.5 1150.71
161.5 1076.86
162.5 1138.57
163.5 1099.43
164.5 1125.14
165.5 1144.29
166.5 972.571
167.5 969.429
168.5 1159.86
169.5 1203.14
170.5 1151
171.5 1729
172.5 3747.86
173.5 14721.6
174.5 28686.1
175.5 12742
176.5 2100.57
177.5 869.714
178.5 597.429
179.5 520.571
180.5 697.429
181.5 647.429
182.5 722
183.5 703.286
184.5 736.286
185.5 557.143
186.5 777.286
187.5 784.571
188.5 771
189.5 706.714
190.5 725.571
191.5 804.571
192.5 734.286
193.5 702.571
194.5 797.429
195.5 740.429
196.5 686
197.5 671.571
198.5 706.429
199.5 669
200.5 609.143
201.5 519.857
202.5 443.143
203.5 606.571
204.5 503.857
205.5 463
206.5 655.571
207.5 648.143
208.5 670.714
209.5 513.143
210.5 833.143
211.5 786.571
212.5 762.714
213.5 749.143
214.5 766.143
215.5 849.571
216.5 790.857
217.5 661
218.5 676.286
219.5 721.857
220.5 573.286
221.5 618.429
222.5 621.571
223.5 659.714
224.5 582.714
225.5 540.571
226.5 493
227.5 695.857
228.5 646.857
229.5 644
230.5 662
231.5 675.714
232.5 570.714
233.5 827.714
234.5 684.857
235.5 769.714
236.5 713.143
237.5 699
238.5 703.429
239.5 527
240.5 591.571
241.5 616.286
242.5 468.286
243.5 407.857
244.5 462.714
245.5 381.857
246.5 429.714
247.5 524.857
248.5 714.857
249.5 570.571
250.5 600.714
251.5 895
252.5 816.429
253.5 789.286
254.5 793.714
255.5 697.857
256.5 735.286
257.5 779.571
258.5 765.714
259.5 771.571
260.5 751.714
261.5 641.714
262.5 630.143
263.5 664.714
264.5 611
265.5 530.286
266.5 564.857
267.5 498.571
268.5 488.571
269.5 447
270.5 511.714
271.5 475.429
272.5 403.714
273.5 574.714
274.5 650.857
275.5 687.286
276.5 643.286
277.5 533
278.5 533.571
279.5 572.143
280.5 565.143
281.5 648.714
282.5 601.857
283.5 656.143
284.5 580.857
285.5 580.714
286.5 599.714
287.5 451
288.5 457.714
289.5 560
290.5 556.286
291.5 674
292.5 485.857
293.5 610
294.5 524.286
295.5 448.429
296.5 537.714
297.5 504
298.5 569.857
299.5 510.143
300.5 529.429
301.5 569.714
302.5 644.857
303.5 712.429
304.5 598.857
305.5 506
306.5 558.857
307.5 600.429
308.5 482.857
309.5 536.286
310.5 643.429
311.5 521.286
312.5 679.857
313.5 720
314.5 593
315.5 672.571
316.5 602.429
317.5 625.286
318.5 594
319.5 659.714
320.5 654.571
321.5 540.143
322.5 711.429
323.5 669.714
324.5 532.714
325.5 542.286
326.5 453
327.5 503.857
328.5 326.571
329.5 380.571
330.5 374.714
331.5 243
332.5 168.857
333.5 344
334.5 132
335.5 236
336.5 374.429
337.5 365.286
338.5 428
339.5 509
340.5 568.429
341.5 681.714
342.5 697.857
343.5 798.714
344.5 821.286
345.5 824.857
346.5 914.286
347.5 922.857
348.5 765.286
349.5 861.571
350.5 672.857
351.5 596.571
352.5 539.143
353.5 512.714
354.5 407
355.5 338.286
356.5 327.143
357.5 323.429
358.5 227.429
359.5 118.857
360.5 18
361.5 -70.1428
362.5 -90
363.5 -50.8571
364.5 -97.5714
365.5 -12.7143
366.5 -44.2857
367.5 58.1429
368.5 163.286
369.5 178.429
370.5 177.571
371.5 136.714
372.5 108.286
373.5 168.857
374.5 110.286
375.5 151
376.5 283.714
377.5 225.857
378.5 641.286
379.5 611.571
380.5 810.429
381.5 775
382.5 753.714
383.5 924.429
384.5 909.857
385.5 993.714
386.5 944.143
387.5 1015.57
388.5 956.429
389.5 896.857
390.5 926.286
391.5 804.143
392.5 668
393.5 466.714
394.5 268.714
395.5 163.143
396.5 77.1429
397.5 172.857
398.5 61.8572
399.5 6.7143
400.5 -21.1428
401.5 -35.7143
402.5 -27.8571
403.5 -150.571
404.5 59
405.5 -52.8571
406.5 -43.8571
407.5 -30.4286
408.5 119.571
409.5 181.571
410.5 258.571
411.5 196.714
412.5 354.571
413.5 204
414.5 318.286
415.5 244.714
416.5 251.286
417.5 203.714
418.5 251.286
419.5 257.571
420.5 258
421.5 277.143
422.5 258.286
423.5 264.571
424.5 195.429
425.5 182.857
426.5 299.429
427.5 401.143
428.5 296.857
429.5 214.571
430.5 365.571
431.5 315.857
432.5 367.429
433.5 336.286
434.5 330.857
435.5 330
436.5 250.286
437.5 281.714
438.5 267.857
439.5 316.429
440.5 205
441.5 259
442.5 308.143
443.5 292.429
444.5 323.571
445.5 236.857
446.5 371.571
447.5 309.429
448.5 294.714
449.5 270.143
450.5 221.714
451.5 262.286
452.5 266.286
453.5 216.714
454.5 220.857
455.5 307.714
456.5 277.286
457.5 296.143
458.5 302.571
459.5 369.857
460.5 358.429
461.5 388
462.5 395.714
463.5 652.143
464.5 1722.29
465.5 1905.57
466.5 915.571
467.5 311.714
468.5 193
469.5 280.429
470.5 265.857
471.5 183.571
472.5 266.429
473.5 359.571
474.5 339.857
475.5 446
476.5 364.286
477.5 313.429
478.5 276.857
479.5 458
480.5 412.714
481.5 370.429
482.5 316.429
483.5 296.571
484.5 358.286
485.5 267
486.5 390.571
487.5 315.143
488.5 178.857
489.5 209
490.5 177.571
491.5 137.571
492.5 137.143
493.5 132
494.5 139.714
495.5 112.143
496.5 78.7143
497.5 202.714
498.5 160
499.5 222
500.5 268.714
501.5 253.429
502.5 316.857
503.5 493.286
504.5 699.143
505.5 1107.43
506.5 2585.86
507.5 3680.29
508.5 5188.29
509.5 6214.86
510.5 7325.14
511.5 5764.71
512.5 2975.86
513.5 1174.71
514.5 477.429
515.5 292.857
516.5 149.143
517.5 148.429
518.5 135.714
519.5 193
520.5 55.8572
521.5 153.143
522.5 63.1429
523.5 60.7143
524.5 73.2857
525.5 113.571
526.5 168.714
527.5 136.571
528.5 136.286
529.5 219.571
530.5 256.714
531.5 271.857
532.5 276
533.5 246.429
534.5 161.714
535.5 135.286
536.5 193.571
537.5 168.286
538.5 167.429
539.5 161.857
540.5 184
541.5 92.1429
542.5 104.286
543.5 107.571
544.5 82.5714
545.5 175.714
546.5 84.2857
547.5 192.286
548.5 128.571
549.5 171.714
550.5 139.714
551.5 192
552.5 136.429
553.5 138.571
554.5 133.714
555.5 138.143
556.5 171.429
557.5 50
558.5 141.286
559.5 115.143
560.5 83.4286
561.5 138.714
562.5 157
563.5 137
564.5 103
565.5 138.143
566.5 106.143
567.5 191.571
568.5 164.714
569.5 238.714
570.5 121
571.5 252.143
572.5 182.571
573.5 315.714
574.5 236
575.5 252.429
576.5 243.857
577.5 136.429
578.5 223
579.5 121.571
580.5 111.714
581.5 91.5714
582.5 -93.2857
583.5 -455.571
584.5 -267
585.5 29.4286
586.5 47.5714
587.5 93.5714
588.5 129.571
589.5 83.4286
590.5 32.4286
591.5 86.1429
592.5 53.1429
593.5 43.4286
594.5 109.143
595.5 140.286
596.5 183
597.5 191.143
598.5 208.857
599.5 165.571
600.5 73.8572
601.5 223
602.5 127
603.5 183
604.5 169.286
605.5 118.143
606.5 180.571
607.5 97.5714
608.5 71.8572
609.5 158.143
610.5 72.5714
611.5 170.571
612.5 173.143
613.5 133.286
614.5 161.429
615.5 161.286
616.5 112.286
617.5 120.857
618.5 147
619.5 110.857
620.5 158.143
621.5 225.857
622.5 215.571
623.5 187
624.5 171.286
625.5 167
626.5 196.143
627.5 424.714
628.5 579.714
629.5 398.714
630.5 162.286
631.5 107.571
632.5 172.714
633.5 134.857
634.5 116.571
635.5 105.714
636.5 159
637.5 150.286
638.5 112
639.5 159.571
640.5 149.857
641.5 205.429
642.5 153.714
643.5 126.429
644.5 139.286
645.5 113.857
646.5 137
647.5 151.429
648.5 150.571
649.5 287.571
650.5 381
651.5 296.714
652.5 159.714
653.5 159.143
654.5 101.429
655.5 126.857
656.5 139
657.5 158.714
658.5 175
659.5 179.143
660.5 102.143
661.5 130.857
662.5 134.571
663.5 178
664.5 195.429
665.5 179.143
666.5 152.143
667.5 157.286
668.5 156.714
669.5 19.1429
670.5 136.429
671.5 116.857
672.5 67
673.5 89.8572
674.5 109.714
675.5 194.286
676.5 113
677.5 111.286
678.5 130.429
679.5 141.571
680.5 83.1429
681.5 121.429
682.5 102.571
683.5 168.143
684.5 198.857
685.5 154.857
686.5 158
687.5 62
688.5 182.571
689.5 123.571
690.5 112
691.5 126.571
692.5 163.857
693.5 163.571
694.5 128.571
695.5 171.143
696.5 182
697.5 141.429
698.5 149.429
699.5 112.714
700.5 120
701.5 74.4286
702.5 137.857
703.5 157.143
704.5 179.286
705.5 187.286
706.5 180.143
707.5 149
708.5 140.571
709.5 144.286
710.5 198.143
711.5 149.143
712.5 180
713.5 123
714.5 112.286
715.5 178
716.5 193.857
717.5 152.286
718.5 162.714
719.5 160.857
720.5 146.571
721.5 96
722.5 96.1429
723.5 89.7143
724.5 156.857
725.5 168.571
726.5 152.143
727.5 189.571
728.5 165
729.5 99.1429
730.5 65.8571
731.5 119.143
732.5 180.286
733.5 173.429
734.5 55.1429
735.5 109.714
736.5 176.429
737.5 116.143
738.5 160.143
739.5 206.714
740.5 91.1429
741.5 164.286
742.5 174.429
743.5 132.857
744.5 152
745.5 96.7143
746.5 163.571
747.5 131.286
748.5 144.857
749.5 129.286
750.5 158.714
751.5 103.143
752.5 172.143
753.5 148.857
754.5 105.857
755.5 152.143
756.5 130
757.5 140.571
758.5 187.857
759.5 389.857
760.5 606.857
761.5 763.857
762.5 405.143
763.5 185.143
764.5 53.7143
765.5 114.714
766.5 126.143
767.5 136.143
768.5 105.857
769.5 80.5714
770.5 108.857
771.5 151.143
772.5 159.143
773.5 181.143
774.5 108.714
775.5 54.2857
776.5 136
777.5 105
778.5 113
779.5 179.571
780.5 115.857
781.5 216
782.5 153.429
783.5 163.714
784.5 134.143
785.5 177.143
786.5 131.571
787.5 12.8572
788.5 -12.7143
789.5 63
790.5 113.143
791.5 105.143
792.5 159.143
793.5 206
794.5 54.7143
795.5 113.857
796.5 159.143
797.5 94
798.5 124.714
799.5 99.5714
800.5 113.429
801.5 155.286
802.5 73.7143
803.5 124.571
804.5 155.714
805.5 98.8572
806.5 72
807.5 96.1429
808.5 110.286
809.5 141.857
810.5 135.143
811.5 102.571
812.5 136.571
813.5 124
814.5 223.857
815.5 52
816.5 125.571
817.5 146.571
818.5 148
819.5 106.286
820.5 214.429
821.5 101.429
822.5 208.857
823.5 169
824.5 94.4286
825.5 105.571
826.5 182.286
827.5 153.714
828.5 207.143
829.5 134.143
830.5 78.1429
831.5 144.143
832.5 136.143
833.5 107.286
834.5 150.429
835.5 139.429
836.5 114
837.5 161.143
838.5 99.1429
839.5 105.857
840.5 145.143
841.5 149.143
842.5 88.5714
843.5 60
844.5 128.714
845.5 176.857
846.5 123.286
847.5 153.143
848.5 154
849.5 157.857
850.5 149.286
851.5 160.857
852.5 163.714
853.5 128.286
854.5 133.286
855.5 61.8572
856.5 119.286
857.5 174.429
858.5 163.286
859.5 180.143
860.5 183.857
861.5 217.429
862.5 173.286
863.5 151.286
864.5 93.5714
865.5 100.857
866.5 129.571
867.5 315.286
868.5 497.429
869.5 434
870.5 330.429
871.5 131.286
872.5 166.571
873.5 134.143
874.5 117.714
875.5 113.286
876.5 55.7143
877.5 161.429
878.5 126.429
879.5 183.857
880.5 100.857
881.5 61.7143
882.5 145.286
883.5 95
884.5 189.286
885.5 196.143
886.5 223.143
887.5 222.857
888.5 314.429
889.5 96.5714
890.5 227.286
891.5 214.286
892.5 258.857
893.5 304.857
894.5 195.143
895.5 221.571
896.5 215.857
897.5 126
898.5 198.143
899.5 161.143
900.5 219.286
901.5 196.857
902.5 296.143
903.5 254.286
904.5 186.429
905.5 120
906.5 80.5714
907.5 115.857
908.5 89.5714
909.5 68.1429
910.5 114.429
911.5 108.571
912.5 200
913.5 141.286
914.5 121.857
915.5 149.714
916.5 150.143
917.5 186.857
918.5 150.714
919.5 117.857
920.5 219.286
921.5 214.571
922.5 198.429
923.5 189
924.5 211.857
925.5 171.857
926.5 205.714
927.5 193.571
928.5 220.571
929.5 239.857
930.5 113.714
931.5 174.857
932.5 102.143
933.5 120.857
934.5 117.714
935.5 195.857
936.5 180.429
937.5 181.143
938.5 184.571
939.5 139.571
940.5 151
941.5 185.857
942.5 111.286
943.5 233.143
944.5 126.429
945.5 194.286
946.5 118
947.5 154.571
948.5 161.429
949.5 175.429
950.5 135.429
951.5 150.857
952.5 145.429
953.5 131.571
954.5 185.143
955.5 126
956.5 141.429
957.5 152.429
958.5 161.571
959.5 97.7143
960.5 164.286
961.5 120.714
962.5 144
963.5 106.286
964.5 139.857
965.5 160.143
966.5 191.571
967.5 103.857
968.5 183.571
969.5 167.143
970.5 144.143
971.5 115.714
972.5 102.429
973.5 151
974.5 102.143
975.5 100.714
976.5 96.4286
977.5 32
978.5 129.286
979.5 22.4286
980.5 169.143
981.5 94.7143
982.5 83
983.5 153.571
984.5 91.7143
985.5 112.429
986.5 117.143
987.5 120.571
988.5 200.571
989.5 142.286
990.5 168.857
991.5 147.286
992.5 157.571
993.5 199
994.5 157.286
995.5 178.571
996.5 284.286
997.5 382
998.5 347.286
999.5 221.286
1000.5 344.286
1001.5 452.857
1002.5 344.857
1003.5 188.143
1004.5 66.1429
1005.5 101
1006.5 101.143
1007.5 136.143
1008.5 96
1009.5 103.571
1010.5 50.5714
1011.5 100.714
1012.5 124.143
1013.5 95
1014.5 117.429
1015.5 151.714
1016.5 190.429
1017.5 177.143
1018.5 108.429
1019.5 116.429
1020.5 148
1021.5 133.857
1022.5 101.571
1023.5 248.857
1024.5 243.143
1025.5 224.429
1026.5 192.429
1027.5 164.286
1028.5 149.714
1029.5 147.714
1030.5 128.571
1031.5 103
1032.5 115.143
1033.5 91.2857
1034.5 115.286
1035.5 116.714
1036.5 59.5714
1037.5 73.4286
1038.5 108
1039.5 86.8571
1040.5 121.286
1041.5 86.2857
1042.5 85.5714
1043.5 124.857
1044.5 46.5714
1045.5 126.286
1046.5 120.714
1047.5 132.857
1048.5 136.571
1049.5 123.143
1050.5 146.429
1051.5 114.571
1052.5 83.1429
1053.5 107.857
1054.5 94.8571
1055.5 105.429
1056.5 59.1429
1057.5 21.5714
1058.5 97.2857
1059.5 81.8571
1060.5 91.4286
1061.5 159.143
1062.5 111.286
1063.5 87.8571
1064.5 79.1429
1065.5 132.714
1066.5 69
1067.5 88.5714
1068.5 63.4286
1069.5 105.143
1070.5 121.429
1071.5 146
1072.5 156
1073.5 311.571
1074.5 204.714
1075.5 163.143
1076.5 121.143
1077.5 59.7143
1078.5 48.5714
1079.5 94.1429
1080.5 104.143
1081.5 103
1082.5 78.2857
1083.5 79.7143
1084.5 107.571
1085.5 118.714
1086.5 43.7143
1087.5 89.4286
1088.5 95.5714
1089.5 67.5714
1090.5 118.857
1091.5 114.571
1092.5 88
1093.5 97.8571
1094.5 123.429
1095.5 83
1096.5 82.8571
1097.5 53.8571
1098.5 151.429
1099.5 127.714
1100.5 62.1429
1101.5 107
1102.5 95
1103.5 93.1429
1104.5 83.2857
1105.5 76.2857
1106.5 24.8571
1107.5 114.857
1108.5 96.7143
1109.5 91.5714
1110.5 127.714
1111.5 75.4286
1112.5 75.8571
1113.5 68
1114.5 56.2857
1115.5 109.714
1116.5 150
1117.5 75.4286
1118.5 60.2857
1119.5 128.429
1120.5 29
1121.5 113.429
1122.5 95.2857
1123.5 262.286
1124.5 606.714
1125.5 1365.86
1126.5 1220.29
1127.5 634.572
1128.5 101.571
1129.5 53.4286
1130.5 85.2857
1131.5 32.8571
1132.5 77.2857
1133.5 25.8571
1134.5 78.4286
1135.5 106.571
1136.5 83.8571
1137.5 134
1138.5 88.8571
1139.5 111.571
1140.5 123.857
1141.5 148.571
1142.5 118.429
1143.5 99.2857
1144.5 74.5714
1145.5 56.7143
1146.5 156.143
1147.5 61.2857
1148.5 86.1429
1149.5 83.5714
1150.5 60.8571
1151.5 67
1152.5 84.2857
1153.5 256.857
1154.5 730.714
1155.5 3066.57
1156.5 6302.71
1157.5 6482.86
1158.5 2664.29
1159.5 625
1160.5 104.571
1161.5 91.4286
1162.5 115.143
1163.5 75.2857
1164.5 92.1429
1165.5 49.1429
1166.5 86.1429
1167.5 62.8571
1168.5 34.1429
1169.5 36.7143
1170.5 80
1171.5 69.1429
1172.5 93
1173.5 109.714
1174.5 169
1175.5 97.1429
1176.5 78.1429
1177.5 67.1429
1178.5 106.429
1179.5 102.714
1180.5 137.857
1181.5 332.857
1182.5 561.286
1183.5 487.571
1184.5 202.429
1185.5 116.857
1186.5 77.5714
1187.5 60.1429
1188.5 64.2857
1189.5 86.1429
1190.5 31.5714
1191.5 60.7143
1192.5 80
1193.5 103.286
1194.5 120.714
1195.5 204.714
1196.5 311.857
1197.5 339.714
1198.5 220
1199.5 96.4286
1200.5 44.1429
1201.5 9.71429
1202.5 70.1429
1203.5 88.1429
1204.5 108.286
1205.5 34.2857
1206.5 90.4286
1207.5 108.143
1208.5 74
1209.5 63.1429
1210.5 59
1211.5 89.5714
1212.5 135.571
1213.5 129.286
1214.5 146.857
1215.5 140.143
1216.5 94.8571
1217.5 111.429
1218.5 109
1219.5 114
1220.5 55.4286
1221.5 62.7143
1222.5 59.5714
1223.5 95.4286
1224.5 72.8571
1225.5 60.5714
1226.5 84.1429
1227.5 62.1429
1228.5 87.8571
1229.5 41.2857
1230.5 60.5714
1231.5 52.8571
1232.5 71.7143
1233.5 58.7143
1234.5 87
1235.5 52.4286
1236.5 58.5714
1237.5 67.5714
1238.5 71
1239.5 61.8571
1240.5 92.1429
1241.5 86.4286
1242.5 45.4286
1243.5 26.1429
1244.5 90.5714
1245.5 67.1429
1246.5 69.5714
1247.5 100.571
1248.5 133.571
1249.5 159.143
1250.5 141
1251.5 165.286
1252.5 122.429
1253.5 73.7143
1254.5 92.1429
1255.5 101.286
1256.5 101
1257.5 142.571
1258.5 205
1259.5 473.714
1260.5 601.286
1261.5 483
1262.5 153
1263.5 147.429
1264.5 115.286
1265.5 89.1429
1266.5 75.1429
1267.5 56.8571
1268.5 91.5714
1269.5 131
1270.5 60.5714
1271.5 94
1272.5 75.2857
1273.5 80.2857
1274.5 45.8571
1275.5 88.5714
1276.5 82.4286
1277.5 81.8571
1278.5 97.5714
1279.5 78.7143
1280.5 46.4286
1281.5 44.4286
1282.5 68.1429
1283.5 68.5714
1284.5 68.5714
1285.5 40.5714
1286.5 86.7143
1287.5 80.2857
1288.5 27.5714
1289.5 84.2857
1290.5 44
1291.5 82
1292.5 63
1293.5 49.7143
1294.5 75.2857
1295.5 39.8571
1296.5 36.2857
1297.5 57.7143
1298.5 62.1429
1299.5 85.7143
1300.5 53
1301.5 79.7143
1302.5 37
1303.5 70.7143
1304.5 47.8571
1305.5 64.8571
1306.5 74.7143
1307.5 58
1308.5 101.429
1309.5 104.571
1310.5 84.2857
1311.5 103.571
1312.5 44.4286
1313.5 46.8571
1314.5 53.8571
1315.5 88.7143
1316.5 78
1317.5 116.286
1318.5 68.1429
1319.5 120.143
1320.5 83.2857
1321.5 82.1429
1322.5 81.7143
1323.5 54.7143
1324.5 65.2857
1325.5 27
1326.5 32.4286
1327.5 55.4286
1328.5 81.2857
1329.5 61.4286
1330.5 45
1331.5 72.4286
1332.5 53.4286
1333.5 42.5714
1334.5 62.1429
1335.5 48.1429
1336.5 84
1337.5 60.7143
1338.5 60
1339.5 103.143
1340.5 72
1341.5 93
1342.5 89.1429
1343.5 100.286
1344.5 80.1429
1345.5 43.1429
1346.5 30.5714
1347.5 84
1348.5 88.4286
1349.5 31.8571
1350.5 33.5714
1351.5 16.1429
1352.5 86.1429
1353.5 48
1354.5 72.8571
1355.5 73
1356.5 37.1429
1357.5 35.8571
1358.5 86.8571
1359.5 51.2857
1360.5 70
1361.5 95.5714
1362.5 40
1363.5 79.2857
1364.5 31.4286
1365.5 61.7143
1366.5 53
1367.5 90.7143
1368.5 85.1429
1369.5 79.2857
1370.5 59.8571
1371.5 39.2857
1372.5 84.1429
1373.5 65.1429
1374.5 49
1375.5 73.4286
1376.5 11.2857
1377.5 50.1429
1378.5 70.5714
1379.5 43.1429
1380.5 55.1429
1381.5 88.1429
1382.5 92.4286
1383.5 72.1429
1384.5 75
1385.5 68.7143
1386.5 96.8571
1387.5 90.8571
1388.5 72.4286
1389.5 90
1390.5 83.1429
1391.5 94.4286
1392.5 57.1429
1393.5 84.1429
1394.5 75.7143
1395.5 84.5714
1396.5 28.4286
1397.5 14.8571
1398.5 50.2857
1399.5 65.1429
1400.5 21.2857
1401.5 51.7143
1402.5 63
1403.5 81.1429
1404.5 60.8571
1405.5 69.2857
1406.5 23.4286
1407.5 92.8571
1408.5 67.8571
1409.5 71.5714
1410.5 75.1429
1411.5 85.4286
1412.5 93.4286
1413.5 82.7143
1414.5 63.8571
1415.5 71.2857
1416.5 69.1429
1417.5 142.429
1418.5 74.7143
1419.5 76.8571
1420.5 103.143
1421.5 60.4286
1422.5 65.7143
1423.5 69.5714
1424.5 65.1429
1425.5 72.7143
1426.5 68.7143
1427.5 109.429
1428.5 78.2857
1429.5 136.714
1430.5 74.4286
1431.5 114.143
1432.5 102.714
1433.5 224.857
1434.5 338.714
1435.5 236.286
1436.5 138.286
1437.5 86.8571
1438.5 84
1439.5 69.7143
1440.5 51.5714
1441.5 66.1429
1442.5 53.2857
1443.5 77.4286
1444.5 38.7143
1445.5 82.2857
1446.5 46
1447.5 80.5714
1448.5 69.7143
1449.5 93.2857
1450.5 81.4286
1451.5 86
1452.5 68
1453.5 66.7143
1454.5 65
1455.5 58.5714
1456.5 72.7143
1457.5 56.7143
1458.5 60.4286
1459.5 82.8571
1460.5 73.8571
1461.5 61.5714
1462.5 103.286
1463.5 57.5714
1464.5 94.2857
1465.5 74.4286
1466.5 67.4286
1467.5 95.7143
1468.5 114
1469.5 80.8571
1470.5 101.286
1471.5 104.857
1472.5 97
1473.5 110.286
1474.5 87.5714
1475.5 114.286
1476.5 103.429
1477.5 89.2857
1478.5 97.7143
1479.5 76.2857
1480.5 74.4286
1481.5 70.2857
1482.5 109.429
1483.5 87.8571
1484.5 134.429
1485.5 52.7143
1486.5 51.2857
1487.5 88.8571
1488.5 88
1489.5 60.7143
1490.5 85.5714
1491.5 81
1492.5 88
1493.5 84.8571
1494.5 143.857
1495.5 147.429
1496.5 255
1497.5 568.429
1498.5 1226.86
1499.5 1624.86
1500.5 1181.43
1501.5 484.286
1502.5 201.286
1503.5 120
1504.5 93.7143
1505.5 53.4286
1506.5 79.8571
1507.5 128.429
1508.5 63.4286
1509.5 69.1429
1510.5 54.1429
1511.5 34.4286
1512.5 49.1429
1513.5 -31.5714
1514.5 -112
1515.5 -39.2857
1516.5 7.71429
1517.5 10.1429
1518.5 42.8571
1519.5 69.5714
1520.5 44.2857
1521.5 81.4286
1522.5 68.1429
1523.5 30.1429
1524.5 63
1525.5 80
1526.5 59
1527.5 57.7143
1528.5 29.7143
1529.5 48.8571
1530.5 73.1429
1531.5 39.7143
1532.5 63.2857
1533.5 52.8571
1534.5 27.7143
1535.5 54.2857
1536.5 61.5714
1537.5 95.4286
1538.5 73.5714
1539.5 71.1429
1540.5 85
1541.5 51.5714
1542.5 89.4286
1543.5 76.5714
1544.5 73.5714
1545.5 80.4286
1546.5 50.5714
1547.5 31
1548.5 93.5714
1549.5 57.7143
1550.5 68.5714
1551.5 49.1429
1552.5 34
1553.5 58
1554.5 60.8571
1555.5 46
1556.5 54.8571
1557.5 67.5714
1558.5 63.4286
1559.5 41
1560.5 85.8571
1561.5 92.2857
1562.5 103.286
1563.5 111
1564.5 76
1565.5 47.1429
1566.5 67.8571
1567.5 40.7143
1568.5 35.2857
1569.5 102.286
1570.5 84.7143
1571.5 117
1572.5 77.7143
1573.5 94.1429
1574.5 87.8571
1575.5 73
1576.5 46.2857
1577.5 32
1578.5 62.1429
1579.5 59.5714
1580.5 62.7143
1581.5 62.8571
1582.5 49.2857
1583.5 38.7143
1584.5 41.1429
1585.5 51
1586.5 62.7143
1587.5 18
1588.5 89
1589.5 8.42857
1590.5 55.4286
1591.5 70.8571
1592.5 13.8571
1593.5 64.8571
1594.5 49.7143
1595.5 19.4286
1596.5 63.7143
1597.5 31.2857
1598.5 85.8571
1599.5 47
1600.5 47.5714
1601.5 58.7143
1602.5 54.4286
1603.5 40
1604.5 68.5714
1605.5 40.1429
1606.5 35.4286
1607.5 46.2857
1608.5 41
1609.5 26.8571
1610.5 48.1429
1611.5 60.8571
1612.5 60
1613.5 49.8571
1614.5 57.2857
1615.5 43.8571
1616.5 45.4286
1617.5 64.5714
1618.5 41.4286
1619.5 58.8571
1620.5 71
1621.5 38.2857
1622.5 1.71429
1623.5 49.1429
1624.5 25
1625.5 45.8571
1626.5 30.5714
1627.5 28.7143
1628.5 27.7143
1629.5 58.7143
1630.5 54
1631.5 58.7143
1632.5 75.8571
1633.5 34.1429
1634.5 41
1635.5 48.7143
1636.5 39.4286
1637.5 34.1429
1638.5 28.2857
1639.5 55
1640.5 81.5714
1641.5 74.8571
1642.5 61.7143
1643.5 32.4286
1644.5 45.8571
1645.5 77.4286
1646.5 55
1647.5 42
1648.5 61.4286
1649.5 62
1650.5 38.2857
1651.5 58
1652.5 38.7143
1653.5 56.8571
1654.5 49.1429
1655.5 59.4286
1656.5 48.8571
1657.5 61.7143
1658.5 91.1429
1659.5 103.143
1660.5 66.5714
1661.5 36.2857
1662.5 54.2857
1663.5 36.4286
1664.5 6.85714
1665.5 30.5714
1666.5 35.2857
1667.5 39.4286
1668.5 95.8571
1669.5 48.7143
1670.5 25.1429
1671.5 64.5714
1672.5 37
1673.5 31
1674.5 34.5714
1675.5 70
1676.5 46.8571
1677.5 41
1678.5 9
1679.5 32.1429
1680.5 31.4286
1681.5 54.7143
1682.5 54.1429
1683.5 43.2857
1684.5 60.4286
1685.5 33.4286
1686.5 52.5714
1687.5 27.2857
1688.5 42.1429
1689.5 -0.714284
1690.5 60.8571
1691.5 39.8571
1692.5 33
1693.5 27.2857
1694.5 29.4286
1695.5 47.2857
1696.5 44.5714
1697.5 59
1698.5 34.5714
1699.5 47.4286
1700.5 44.5714
1701.5 54.7143
1702.5 42.8571
1703.5 80.8571
1704.5 15.2857
1705.5 66.4286
1706.5 33.2857
1707.5 61.1429
1708.5 49.2857
1709.5 62.1429
1710.5 25.7143
1711.5 30.7143
1712.5 51.1429
1713.5 23
1714.5 30.7143
1715.5 76.4286
1716.5 41.2857
1717.5 13.2857
1718.5 30
1719.5 60
1720.5 87.7143
1721.5 175.714
1722.5 493.143
1723.5 1475.86
1724.5 3533.86
1725.5 5103.71
1726.5 3307.43
1727.5 1187
1728.5 272
1729.5 112.286
1730.5 47.2857
1731.5 13.7143
1732.5 5.28572
1733.5 15
1734.5 -1.85714
1735.5 38.1429
1736.5 20.4286
1737.5 27.1429
1738.5 48.5714
1739.5 30.5714
1740.5 47.2857
1741.5 3.28572
1742.5 46.8571
1743.5 20.1429
1744.5 30.7143
1745.5 41.2857
1746.5 29.1429
1747.5 40.1429
1748.5 26
1749.5 15.1429
1750.5 9.28572
1751.5 5.28572
1752.5 48.7143
1753.5 53.7143
1754.5 38.4286
1755.5 22
1756.5 1.71429
1757.5 4.14286
1758.5 10.2857
1759.5 20.8571
1760.5 32.4286
1761.5 42.1429
1762.5 12
1763.5 -0.999999
1764.5 37.8571
1765.5 33.1429
1766.5 34.1429
1767.5 7.71429
1768.5 6.42857
1769.5 36.7143
1770.5 47
1771.5 19.5714
1772.5 11.4286
1773.5 -6.28571
1774.5 -21.2857
1775.5 46.4286
1776.5 30.8571
1777.5 6
1778.5 -4.14286
1779.5 19.2857
1780.5 17.1429
1781.5 -9.28571
1782.5 6.28572
1783.5 -19.5714
1784.5 -22.7143
1785.5 23.4286
1786.5 30.7143
1787.5 109.286
1788.5 123
1789.5 108.714
1790.5 46.2857
1791.5 41.4286
1792.5 -2.71428
1793.5 43.8571
1794.5 17.8571
1795.5 30.8571
1796.5 19.1429
1797.5 7.28572
1798.5 -3.28571
1799.5 25.2857
1800.5 -5.14286
1801.5 37
1802.5 48.8571
1803.5 11.8571
1804.5 21.7143
1805.5 44.1429
1806.5 20
1807.5 113
1808.5 113.143
1809.5 40
1810.5 -4.28571
1811.5 42.4286
1812.5 19.1429
1813.5 25.5714
1814.5 -17.2857
1815.5 56.5714
1816.5 30.4286
1817.5 70.2857
1818.5 79.2857
1819.5 77.5714
1820.5 33.1429
1821.5 40.4286
1822.5 12.1429
1823.5 32
1824.5 23.5714
1825.5 50.7143
1826.5 30
1827.5 8.14286
1828.5 32.5714
1829.5 5
1830.5 35.8571
1831.5 17.7143
1832.5 12.1429
1833.5 -7.42857
1834.5 24.4286
1835.5 38.2857
1836.5 29
1837.5 2.42857
1838.5 14.7143
1839.5 3.85714
1840.5 20.1429
1841.5 27.1429
1842.5 18.7143
1843.5 34.8571
1844.5 19.7143
1845.5 29.2857
1846.5 -12.8571
1847.5 29.5714
1848.5 -20.5714
1849.5 20.5714
1850.5 7.85714
1851.5 14.8571
1852.5 21.7143
1853.5 13.5714
1854.5 19.2857
1855.5 25.5714
1856.5 -1.71428
1857.5 26.1429
1858.5 26.5714
1859.5 -10.4286
1860.5 18
1861.5 14.2857
1862.5 21
1863.5 10.4286
1864.5 11.7143
1865.5 17.2857
1866.5 8
1867.5 11.5714
1868.5 34.8571
1869.5 16.2857
1870.5 47
1871.5 0.85715
1872.5 -56.4286
1873.5 -3.71428
1874.5 22.7143
1875.5 18.7143
1876.5 31.4286
1877.5 37.4286
1878.5 22.2857
1879.5 -17.8571
1880.5 15.1429
1881.5 3.57143
1882.5 24.8571
1883.5 34.4286
1884.5 88.5714
1885.5 149.857
1886.5 236.286
1887.5 339.429
1888.5 127.571
1889.5 59.5714
1890.5 39.7143
1891.5 22.8571
1892.5 39.5714
1893.5 31.8571
1894.5 10.2857
1895.5 71.5714
1896.5 141.429
1897.5 413
1898.5 995
1899.5 1391.29
1900.5 1085.43
1901.5 473.429
1902.5 184.143
1903.5 27.4286
1904.5 30.1429
1905.5 9.85714
1906.5 26.1429
1907.5 22.1429
1908.5 20.1429
1909.5 44.5714
1910.5 23.1429
1911.5 19.8571
1912.5 18.5714
1913.5 20.8571
1914.5 9.14286
1915.5 16.2857
1916.5 2.42857
1917.5 16
1918.5 30.4286
1919.5 17
1920.5 20.5714
1921.5 8.71429
1922.5 25
1923.5 12.1429
1924.5 -2.14286
1925.5 37.4286
1926.5 68.1429
1927.5 116.714
1928.5 100
1929.5 107.714
1930.5 38.2857
1931.5 28.1429
1932.5 25.5714
1933.5 3.28572
1934.5 -17.5714
1935.5 33.7143
1936.5 11.4286
1937.5 -35.5714
1938.5 -14.4286
1939.5 22.7143
1940.5 -0.142855
1941.5 1.42857
1942.5 37.5714
1943.5 46.4286
1944.5 24.1429
1945.5 2.57143
1946.5 9.85714
1947.5 14.7143
1948.5 2.28572
1949.5 1.85714
1950.5 10.2857
1951.5 11.4286
1952.5 34.1429
1953.5 45.4286
1954.5 30.7143
1955.5 58.2857
1956.5 14.4286
1957.5 18.5714
1958.5 -7.14286
1959.5 32.8571
1960.5 -31.1429
1961.5 36.2857
1962.5 -4.85714
1963.5 -15.8571
1964.5 8.85714
1965.5 0.285715
1966.5 26.7143
1967.5 10.2857
1968.5 19.8571
1969.5 -6.85714
1970.5 17.4286
1971.5 8.42857
1972.5 39.8571
1973.5 36.8571
1974.5 28.1429
1975.5 12.8571
1976.5 16.5714
1977.5 33.1429
1978.5 10.2857
1979.5 26.7143
1980.5 12.5714
1981.5 17.5714
1982.5 12.1429
1983.5 17.2857
1984.5 1.54972e-06
1985.5 6.14286
1986.5 18.2857
1987.5 43.1429
1988.5 -11.2857
1989.5 5.28572
1990.5 21.4286
1991.5 5.14286
1992.5 30.5714
1993.5 -9
1994.5 34.1429
1995.5 40.4286
1996.5 19.5714
1997.5 -4.28571
1998.5 -14.8571
1999.5 19
2000.5 5.85714
2001.5 20.2857
2002.5 8.28572
2003.5 17.7143
2004.5 19.8571
2005.5 -17
2006.5 -4.57143
2007.5 5.42857
2008.5 45.4286
2009.5 33.4286
2010.5 22
2011.5 18.5714
2012.5 6.28572
2013.5 16.4286
2014.5 -4.42857
2015.5 -28.4286
2016.5 18.5714
2017.5 3.28572
2018.5 20.4286
2019.5 19
2020.5 6.85714
2021.5 19.4286
2022.5 42.4286
2023.5 21
2024.5 0.428572
2025.5 21.7143
2026.5 2.14286
2027.5 20.8571
2028.5 23
2029.5 8
2030.5 8.28572
2031.5 8.42857
2032.5 30.4286
2033.5 48.2857
2034.5 28.1429
2035.5 23.5714
2036.5 46
2037.5 56.1429
2038.5 43.5714
2039.5 26
2040.5 5.85714
2041.5 -0.999999
2042.5 12
2043.5 45.2857
2044.5 11.8571
2045.5 -3.71428
2046.5 20.7143
2047.5 24.4286
2048.5 19.1429
2049.5 18.5714
2050.5 20.2857
2051.5 23.7143
2052.5 -13.4286
2053.5 -53.2857
2054.5 -73.5714
2055.5 -37.5714
2056.5 5
2057.5 26
2058.5 2.28572
2059.5 0.857144
2060.5 13.1429
2061.5 3.57143
2062.5 31.5714
2063.5 2.57143
2064.5 -21.5714
2065.5 -4.71428
2066.5 -2.28571
2067.5 -6.14286
2068.5 32.8571
2069.5 20.5714
2070.5 8.57143
2071.5 10.1429
2072.5 -4.42857
2073.5 5.42857
2074.5 15.5714
2075.5 41.8571
2076.5 2.57143
2077.5 -11
2078.5 12.5714
2079.5 25
2080.5 4.57143
2081.5 -2.28571
2082.5 25
2083.5 3.28572
2084.5 14.5714
2085.5 3.28572
2086.5 1.90735e-06
2087.5 23.8571
2088.5 23.7143
2089.5 11.2857
2090.5 36.8571
2091.5 8.85714
2092.5 31.2857
2093.5 11.7143
2094.5 8.34465e-07
2095.5 16.1429
2096.5 6.14286
2097.5 -42.1429
2098.5 -28.7143
2099.5 21.7143
2100.5 27.2857
2101.5 -21.7143
2102.5 16
2103.5 13.8571
2104.5 26.4286
2105.5 7.57143
2106.5 4.71429
2107.5 20
2108.5 23.2857
2109.5 21.5714
2110.5 30.2857
2111.5 27.2857
2112.5 33.8571
2113.5 16.8571
2114.5 20.8571
2115.5 11.4286
2116.5 15.2857
2117.5 30.4286
2118.5 1.57143
2119.5 16.1429
2120.5 10.8571
2121.5 10.4286
2122.5 24.7143
2123.5 20.4286
2124.5 20.7143
2125.5 24.1429
2126.5 16.8571
2127.5 11.2857
2128.5 12.5714
2129.5 14.8571
2130.5 12.1429
2131.5 10.8571
2132.5 16.2857
2133.5 24.4286
2134.5 23
2135.5 27.5714
2136.5 7.28572
2137.5 19.8571
2138.5 21.7143
2139.5 14.7143
2140.5 -7.71428
2141.5 5.14286
2142.5 43.1429
2143.5 -15.8571
2144.5 42.5714
2145.5 9.42857
2146.5 39.4286
2147.5 47.7143
2148.5 125.143
2149.5 204.857
2150.5 200.571
2151.5 202.714
2152.5 67.5714
2153.5 21.2857
2154.5 19.1429
2155.5 26.4286
2156.5 9.71429
2157.5 11
2158.5 -5.42857
2159.5 16.5714
2160.5 6.28571
2161.5 15.8571
2162.5 -4.42857
2163.5 29.5714
2164.5 19.8571
2165.5 18.2857
2166.5 6.85714
2167.5 16.2857
2168.5 16.4286
2169.5 20.1429
2170.5 11.7143
2171.5 28.8571
2172.5 13.7143
2173.5 1.28572
2174.5 14.5714
2175.5 -12.7143
2176.5 14.1429
2177.5 0.142858
2178.5 -12
2179.5 21
2180.5 30.4286
2181.5 20.2857
2182.5 13
2183.5 2.28572
2184.5 7.28572
2185.5 25.7143
2186.5 31.8571
2187.5 10.2857
2188.5 3.28572
2189.5 2.71429
2190.5 12.7143
2191.5 -4.14286
2192.5 8.71429
2193.5 20.2857
2194.5 21.4286
2195.5 -17.1429
2196.5 20.5714
2197.5 35.7143
2198.5 43.1429
2199.5 0.714289
2200.5 51
2201.5 30.5714
2202.5 43.2857
2203.5 14.8571
2204.5 22
2205.5 34.1429
2206.5 31.2857
2207.5 18.7143
2208.5 28.8571
2209.5 37.5714
2210.5 12.5714
2211.5 1.57143
2212.5 23.4286
2213.5 0.57143
2214.5 3.71429
2215.5 3.71429
2216.5 18.7143
2217.5 9
2218.5 -2.14286
2219.5 23
2220.5 37.4286
2221.5 52.8571
2222.5 16.1429
2223.5 11.1429
2224.5 42.1429
2225.5 11.4286
2226.5 22.5714
2227.5 9.53674e-07
2228.5 22
2229.5 32.2857
2230.5 -3
2231.5 16.1429
2232.5 25.1429
2233.5 19.4286
2234.5 19.7143
2235.5 30.8571
2236.5 8.14286
2237.5 31.1429
2238.5 8.57143
2239.5 15
2240.5 8.57143
2241.5 3.57143
2242.5 30.4286
2243.5 0.428572
2244.5 20.2857
2245.5 25.4286
2246.5 31.2857
2247.5 22.2857
2248.5 -5
2249.5 28.8571
2250.5 37
2251.5 24.7143
2252.5 48.1429
2253.5 11.8571
2254.5 35.2857
2255.5 24
2256.5 35.2857
2257.5 11.7143
2258.5 17.1429
2259.5 25.7143
2260.5 18.2857
2261.5 -0.714285
2262.5 6.42857
2263.5 -0.571428
2264.5 -8.85714
2265.5 6.85714
2266.5 -4.57143
2267.5 -13
2268.5 5.28571
2269.5 23.2857
2270.5 18.5714
2271.5 18
2272.5 2.71429
2273.5 4.71429
2274.5 18.8571
2275.5 4.28572
2276.5 25.5714
2277.5 24.4286
2278.5 6.42857
2279.5 22.8571
2280.5 20.7143
2281.5 78.8571
2282.5 27.2857
2283.5 11.7143
2284.5 0.142858
2285.5 21.2857
2286.5 31.4286
2287.5 4.71429
2288.5 8.28571
2289.5 15.4286
2290.5 -0.999999
2291.5 11.4286
2292.5 -37.8571
2293.5 20.7143
2294.5 -4.14286
2295.5 3
2296.5 10.5714
2297.5 -11.1429
2298.5 4.42857
2299.5 -26
2300.5 28.7143
2301.5 25.2857
2302.5 7
2303.5 6.42857
2304.5 18.5714
2305.5 31.4286
2306.5 31.7143
2307.5 27.8571
2308.5 22.8571
2309.5 20.4286
2310.5 12.2857
2311.5 18.7143
2312.5 -0.428571
2313.5 14.2857
2314.5 7.14286
2315.5 17.7143
2316.5 -2.28571
2317.5 -22.1429
2318.5 -5.42857
2319.5 0.285715
2320.5 -0.714285
2321.5 4.28571
2322.5 17.7143
2323.5 15.8571
2324.5 23.5714
2325.5 19.1429
2326.5 10.2857
2327.5 -16.7143
2328.5 21.7143
2329.5 -9
2330.5 27.2857
2331.5 20.5714
2332.5 8.71429
2333.5 1.71429
2334.5 -5.14286
2335.5 20
2336.5 -5.85714
2337.5 -3.57143
2338.5 5.71429
2339.5 10.1429
2340.5 -1.42857
2341.5 -11.5714
2342.5 2.14286
2343.5 -17.5714
2344.5 24.2857
2345.5 29.1429
2346.5 -0.142856
2347.5 32.5714
2348.5 20.8571
2349.5 -14.1429
2350.5 -1.57143
2351.5 7.85714
2352.5 11.2857
2353.5 17.5714
2354.5 25.2857
2355.5 10.5714
2356.5 30.5714
2357.5 19.1429
2358.5 -1.28571
2359.5 -21.2857
2360.5 -3.57143
2361.5 17
2362.5 17.8571
2363.5 5
2364.5 22.5714
2365.5 16.5714
2366.5 11.5714
2367.5 22
2368.5 -1.85714
2369.5 24.1429
2370.5 14.4286
2371.5 18.2857
2372.5 6.71429
2373.5 32.1429
2374.5 -9
2375.5 18.2857
2376.5 10.4286
2377.5 22.8571
2378.5 12.2857
2379.5 -8.42857
2380.5 4.14286
2381.5 32.4286
2382.5 23.8571
2383.5 11.7143
2384.5 1
2385.5 -0.428571
2386.5 7.57143
2387.5 15.7143
2388.5 9.14286
2389.5 24.8571
2390.5 -0.857142
2391.5 -3.42857
2392.5 -7.28571
2393.5 6.42857
2394.5 12.2857
2395.5 11.7143
2396.5 5.14286
2397.5 1.71429
2398.5 14.7143
2399.5 0.285715
2400.5 11
2401.5 14.5714
2402.5 34.5714
2403.5 35.2857
2404.5 36.1429
2405.5 34.2857
2406.5 22.7143
2407.5 8.57143
2408.5 14.2857
2409.5 16.4286
2410.5 55.1429
2411.5 66.8571
2412.5 66
2413.5 33.8571
2414.5 33.8571
2415.5 -13.4286
2416.5 44.4286
2417.5 7.85714
2418.5 -3.85714
2419.5 19.7143
2420.5 -0.428571
2421.5 5.57143
2422.5 4.42857
2423.5 24.5714
2424.5 4.71429
2425.5 1
2426.5 -17.8571
2427.5 6.71429
2428.5 3.57143
2429.5 13.1429
2430.5 -11.8571
2431.5 -6.28571
2432.5 14.1429
2433.5 0.57143
2434.5 -7.28571
2435.5 30
2436.5 -21.2857
2437.5 17.1429
2438.5 10
2439.5 12.4286
2440.5 25.5714
2441.5 8.42857
2442.5 -3.85714
2443.5 41.2857
2444.5 53.4286
2445.5 95.2857
2446.5 114.857
2447.5 116
2448.5 119.571
2449.5 71.5714
2450.5 6.42857
2451.5 9.85714
2452.5 13.8571
2453.5 8.14286
2454.5 24.4286
2455.5 -5
2456.5 19.5714
2457.5 4.42857
2458.5 2.85714
2459.5 8
2460.5 21.5714
2461.5 8.57143
2462.5 11.1429
2463.5 19.1429
2464.5 19.8571
2465.5 1.28572
2466.5 11.1429
2467.5 18.2857
2468.5 13.5714
2469.5 19.1429
2470.5 12.4286
2471.5 8
2472.5 40
2473.5 11.8571
2474.5 -0.142856
2475.5 17.7143
2476.5 1.57143
2477.5 1.14286
2478.5 28.5714
2479.5 20
2480.5 20.7143
2481.5 10
2482.5 -0.571428
2483.5 22.5714
2484.5 5.85714
2485.5 21.7143
2486.5 -0.142857
2487.5 2.71429
2488.5 6.42857
2489.5 9.85714
2490.5 8.71429
2491.5 10.1429
2492.5 19.4286
2493.5 12.4286
2494.5 12.7143
2495.5 29.4286
2496.5 13.8571
2497.5 17.2857
2498.5 -1.85714
2499.5 12.7143
2500.5 18.1429
2501.5 6.14286
2502.5 5.14286
2503.5 12.4286
2504.5 29.2857
2505.5 22
2506.5 5.85714
2507.5 3.57143
2508.5 43.4286
2509.5 28.8571
2510.5 41.7143
2511.5 -9.42857
2512.5 25
2513.5 6
2514.5 38
2515.5 44.4286
2516.5 49.4286
2517.5 58
2518.5 83.4286
2519.5 142.286
2520.5 39.2857
2521.5 6.42857
2522.5 1.28572
2523.5 24.8571
2524.5 34.8571
2525.5 21.8571
2526.5 16.4286
2527.5 32.4286
2528.5 1.57143
2529.5 18.4286
2530.5 7.85714
2531.5 3
2532.5 -15.7143
2533.5 1.85714
2534.5 10
2535.5 25.8571
2536.5 16.5714
2537.5 10.4286
2538.5 11.5714
2539.5 -3.57143
2540.5 1.71429
2541.5 2.42857
2542.5 21.2857
2543.5 -6.28571
2544.5 -5.42857
2545.5 11.8571
2546.5 9.42857
2547.5 25.7143
2548.5 28.2857
2549.5 -0.999999
2550.5 7.71429
2551.5 10.5714
2552.5 14.1429
2553.5 3.28571
2554.5 10.7143
2555.5 4.14286
2556.5 -2.71429
2557.5 -1.71429
2558.5 15.4286
2559.5 7.85714
2560.5 9
2561.5 18
2562.5 29.2857
2563.5 26.2857
2564.5 3.28571
2565.5 21
2566.5 48.5714
2567.5 40.7143
2568.5 24.1429
2569.5 42.7143
2570.5 4.42857
2571.5 -4.85714
2572.5 1.14286
2573.5 7.71429
2574.5 -4.14286
2575.5 -4.71428
2576.5 12.5714
2577.5 13.2857
2578.5 27.4286
2579.5 13.1429
2580.5 -0.285713
2581.5 10.1429
2582.5 -6.57143
2583.5 -0.999999
2584.5 0.142858
2585.5 3.71429
2586.5 -4
2587.5 -17.8571
2588.5 11.8571
2589.5 9
2590.5 14
2591.5 16.4286
2592.5 -5.71429
2593.5 20.4286
2594.5 19
2595.5 15.7143
2596.5 11
2597.5 5.57143
2598.5 18.2857
2599.5 1
2600.5 15.1429
2601.5 -0.285714
2602.5 6.85714
2603.5 -10.7143
2604.5 20.5714
2605.5 5.28572
2606.5 15.2857
2607.5 18.8571
2608.5 -13.4286
2609.5 17
2610.5 2.85714
2611.5 -15.1429
2612.5 1.71429
2613.5 5.71429
2614.5 14.4286
2615.5 22.8571
2616.5 14
2617.5 21.5714
2618.5 55.5714
2619.5 61.1429
2620.5 25.1429
2621.5 17.8571
2622.5 18.4286
2623.5 13.2857
2624.5 14.7143
2625.5 25
2626.5 30.8571
2627.5 25.8571
2628.5 20.1429
2629.5 4
2630.5 10.2857
2631.5 20
2632.5 7.28571
2633.5 -2.85714
2634.5 21.7143
2635.5 -7
2636.5 21.8571
2637.5 3.85714
2638.5 21.1429
2639.5 11.7143
2640.5 11.1429
2641.5 0.285715
2642.5 11.5714
2643.5 8.57143
2644.5 8.14286
2645.5 5.28571
2646.5 17.1429
2647.5 25.1429
2648.5 13.7143
2649.5 19.5714
2650.5 11.7143
2651.5 5.28571
2652.5 26
2653.5 40.5714
2654.5 30.2857
2655.5 66
2656.5 122.714
2657.5 93.5714
2658.5 67.4286
2659.5 23.1429
2660.5 10.4286
2661.5 13.5714
2662.5 29.8571
2663.5 -12
2664.5 -5.14286
2665.5 7.14286
2666.5 16.2857
2667.5 -2.85714
2668.5 8.28571
2669.5 2
2670.5 11.1429
2671.5 11
2672.5 8.14286
2673.5 18.4286
2674.5 2.28571
2675.5 11.8571
2676.5 19.8571
2677.5 10.2857
2678.5 -9.71428
2679.5 21.4286
2680.5 -2.71428
2681.5 -2.42857
2682.5 19.7143
2683.5 16.7143
2684.5 10.4286
2685.5 -1.14286
2686.5 4.85714
2687.5 9.57143
2688.5 55.4286
2689.5 36.7143
2690.5 -2.85714
2691.5 22.1429
2692.5 3.14286
2693.5 10.7143
2694.5 24.7143
2695.5 23.4286
2696.5 11.1429
2697.5 0.142858
2698.5 12.1429
2699.5 10.1429
2700.5 2.71429
2701.5 6.71429
2702.5 17
2703.5 16.1429
2704.5 2.28571
2705.5 13.7143
2706.5 15.4286
2707.5 15.4286
2708.5 12.5714
2709.5 21.7143
2710.5 27.5714
2711.5 17.5714
2712.5 36
2713.5 16.4286
2714.5 11.1429
2715.5 -13.2857
2716.5 24.7143
2717.5 46.7143
2718.5 4
2719.5 14.8571
2720.5 31.7143
2721.5 29.1429
2722.5 57.1429
2723.5 27.4286
2724.5 28.8571
2725.5 8.85714
2726.5 -5.57143
2727.5 15.8571
2728.5 17.4286
2729.5 -13.1429
2730.5 33.8571
2731.5 7.28572
2732.5 -7.28571
2733.5 -3.28571
2734.5 -3.85714
2735.5 1
2736.5 1.42857
2737.5 3.42857
2738.5 22
2739.5 1.85714
2740.5 9.28571
2741.5 6.71429
2742.5 5.71429
2743.5 10.7143
2744.5 -11.2857
2745.5 6.71429
2746.5 -0.428571
2747.5 17.2857
2748.5 -2.42857
2749.5 3.42857
2750.5 1.71429
2751.5 -4
2752.5 32
2753.5 -9.14286
2754.5 21.8571
2755.5 25.1429
2756.5 22.5714
2757.5 7.28571
2758.5 2.57143
2759.5 26.1429
2760.5 -3
2761.5 19.5714
2762.5 28.4286
2763.5 22.8571
2764.5 27.7143
2765.5 80.7143
2766.5 71.2857
2767.5 38
2768.5 27.2857
2769.5 16
2770.5 27.1429
2771.5 25.2857
2772.5 9.71429
2773.5 -6.57143
2774.5 -3.14286
2775.5 25.1429
2776.5 9.42857
2777.5 5
2778.5 13.1429
2779.5 12.1429
2780.5 8.57143
2781.5 7
2782.5 0.857144
2783.5 5
2784.5 25.1429
2785.5 1.85714
2786.5 -12
2787.5 -1.14286
2788.5 -7.71429
2789.5 -20.4286
2790.5 -21.5714
2791.5 20.5714
2792.5 8
2793.5 11.2857
2794.5 16.2857
2795.5 21.5714
2796.5 0.571429
2797.5 -0.999999
2798.5 -5.71429
2799.5 -14.8571
2800.5 -19.4286
2801.5 -17.4286
2802.5 -10.4286
2803.5 -7.57143
2804.5 2.42857
2805.5 14.2857
2806.5 4.57143
2807.5 32.5714
2808.5 4.85714
2809.5 10.1429
2810.5 23.8571
2811.5 40.7143
2812.5 37.8571
2813.5 107.286
2814.5 130.857
2815.5 178.429
2816.5 192.714
2817.5 108.143
2818.5 53.5714
2819.5 40.1429
2820.5 26.5714
2821.5 30.4286
2822.5 24.1429
2823.5 11.1429
2824.5 21.1429
2825.5 0.285715
2826.5 9.85714
2827.5 -20.8571
2828.5 -63.2857
2829.5 -85
2830.5 -137.286
2831.5 -83.5714
2832.5 -54.4286
2833.5 -12.5714
2834.5 3.71429
2835.5 7.57143
2836.5 15.1429
2837.5 1.14286
2838.5 -8.71429
2839.5 15.8571
2840.5 24
2841.5 38.7143
2842.5 31.8571
2843.5 7.42857
2844.5 -1.85714
2845.5 61.7143
2846.5 20.8571
2847.5 14.5714
2848.5 17
2849.5 42.8571
2850.5 26.2857
2851.5 17.5714
2852.5 27
2853.5 25.1429
2854.5 27.7143
2855.5 16.5714
2856.5 19.5714
2857.5 12.1429
2858.5 34.5714
2859.5 13.7143
2860.5 -14
2861.5 9
2862.5 6.71429
2863.5 18.2857
2864.5 6
2865.5 5.42857
2866.5 5.85714
2867.5 8.28571
2868.5 -0.428571
2869.5 7.57143
2870.5 13
2871.5 17.7143
2872.5 -6
2873.5 16.2857
2874.5 11.8571
2875.5 -2.14286
2876.5 -2
2877.5 -4.85714
2878.5 2.71429
2879.5 4.71429
2880.5 26.2857
2881.5 3.85714
2882.5 7
2883.5 3.57143
2884.5 8.14286
2885.5 14.2857
2886.5 6.42857
2887.5 13
2888.5 24.2857
2889.5 16
2890.5 5
2891.5 12.7143
2892.5 1.42857
2893.5 7.42857
2894.5 2.57143
2895.5 1.42857
2896.5 5.85714
2897.5 9.57143
2898.5 13.4286
2899.5 -14.4286
2900.5 4.57143
2901.5 14.2857
2902.5 4.28571
2903.5 10.8571
2904.5 1.28571
2905.5 2.85714
2906.5 4.85714
2907.5 22.1429
2908.5 19.8571
2909.5 2.14286
2910.5 6.14286
2911.5 11
2912.5 12.1429
2913.5 22.1429
2914.5 -2.28571
2915.5 14.1429
2916.5 9.85714
2917.5 -2.28571
2918.5 8.28571
2919.5 2.14286
2920.5 16.1429
2921.5 7.71429
2922.5 16.7143
2923.5 25.7143
2924.5 6
2925.5 18.8571
2926.5 16
2927.5 -1.85714
2928.5 15.1429
2929.5 30.4286
2930.5 8.85714
2931.5 22
2932.5 20
2933.5 8
2934.5 20.4286
2935.5 12.1429
2936.5 4.57143
2937.5 35.5714
2938.5 20.8571
2939.5 35.8571
2940.5 1.14286
2941.5 19.7143
2942.5 9.28572
2943.5 0.285716
2944.5 34.4286
2945.5 20.4286
2946.5 31.7143
2947.5 93.4286
2948.5 -11.1429
2949.5 -14.7143
2950.5 20.2857
2951.5 22.1429
2952.5 16.2857
2953.5 21.5714
2954.5 56
2955.5 75.8571
2956.5 58.8571
2957.5 45.1429
2958.5 50.4286
2959.5 16.4286
2960.5 20.4286
2961.5 5.85714
2962.5 25.1429
2963.5 -1.85714
2964.5 4.57143
2965.5 3.14286
2966.5 -4.85714
2967.5 15.8571
2968.5 -11.1429
2969.5 2.28571
2970.5 -1.85714
2971.5 8.85714
2972.5 6
2973.5 14
2974.5 13.7143
2975.5 30.7143
2976.5 -1.42857
2977.5 18.1429
2978.5 -11.1429
2979.5 -3.28571
2980.5 4.42857
2981.5 1.14286
2982.5 8.42857
2983.5 14
2984.5 18.7143
2985.5 4.28571
2986.5 19.2857
2987.5 12
2988.5 18.1429
2989.5 8
2990.5 11.5714
2991.5 9.71429
2992.5 -7.85714
2993.5 10.2857
2994.5 18.2857
2995.5 7.28571
2996.5 35.7143
2997.5 5.14286
2998.5 18.1429
2999.5 22.1429
3000.5 1.57143
3001.5 2.28571
3002.5 13.1429
3003.5 1.42857
3004.5 13
3005.5 18.1429
3006.5 36.8571
3007.5 23
3008.5 1.42857
3009.5 19.8571
3010.5 8.42857
3011.5 0.857143
3012.5 12.1429
3013.5 16.2857
3014.5 22.8571
3015.5 13.1429
3016.5 28.4286
3017.5 9.85714
3018.5 4.42857
3019.5 -5.71429
3020.5 14.1429
3021.5 7
3022.5 11.1429
3023.5 3.57143
3024.5 21.5714
3025.5 24.5714
3026.5 -11.1429
3027.5 6.85714
3028.5 15.5714
3029.5 15.1429
3030.5 22.1429
3031.5 13.5714
3032.5 5.28571
3033.5 6.28571
3034.5 11.5714
3035.5 4.28571
3036.5 31.2857
3037.5 44.1429
3038.5 72.8571
3039.5 60.2857
3040.5 17.8571
3041.5 10.4286
3042.5 12.5714
3043.5 0.142858
3044.5 2.57143
3045.5 18.2857
3046.5 2.42857
3047.5 10.5714
3048.5 -10.2857
3049.5 2.57143
3050.5 1.71429
3051.5 -7
3052.5 9.42857
3053.5 6.85714
3054.5 -9.28571
3055.5 27.1429
3056.5 -1.71429
3057.5 10.4286
3058.5 38.5714
3059.5 75.8571
3060.5 103.571
3061.5 180.857
3062.5 148.429
3063.5 103
3064.5 43.5714
3065.5 31.1429
3066.5 15.7143
3067.5 17.4286
3068.5 13.7143
3069.5 16.7143
3070.5 17.5714
3071.5 12
3072.5 20.7143
3073.5 13.8571
3074.5 24.1429
3075.5 33
3076.5 37.5714
3077.5 91.2857
3078.5 177.571
3079.5 203.714
3080.5 149.571
3081.5 77.2857
3082.5 41.8571
3083.5 16.4286
3084.5 23.1429
3085.5 8.57143
3086.5 18.7143
3087.5 10.1429
3088.5 13.1429
3089.5 5
3090.5 4.14286
3091.5 12.4286
3092.5 18.7143
3093.5 2.71429
3094.5 13.1429
3095.5 5.71429
3096.5 3.14286
3097.5 9.57143
3098.5 11
3099.5 6.85714
3100.5 -4.85714
3101.5 8
3102.5 3.71429
3103.5 7
3104.5 -0.142857
3105.5 26.7143
3106.5 1.71429
3107.5 2.57143
3108.5 22.8571
3109.5 10.7143
3110.5 3.85714
3111.5 5.14286
3112.5 -5.28571
3113.5 26.5714
3114.5 -2
3115.5 7.28571
3116.5 -1.85714
3117.5 28
3118.5 2.14286
3119.5 12
3120.5 15.7143
3121.5 11.5714
3122.5 3.57143
3123.5 5.42857
3124.5 0.285715
3125.5 14.7143
3126.5 8
3127.5 -3.85714
3128.5 12.5714
3129.5 4.57143
3130.5 1.71429
3131.5 21.8571
3132.5 -1.42857
3133.5 -11.1429
3134.5 -11.1429
3135.5 8.57143
3136.5 2
3137.5 8.28571
3138.5 3.42857
3139.5 16.5714
3140.5 -10.7143
3141.5 16.2857
3142.5 -1.57143
3143.5 21
3144.5 1.28571
3145.5 -4
3146.5 18.4286
3147.5 24
3148.5 34.2857
3149.5 3.85714
3150.5 10.7143
3151.5 28.1429
3152.5 7.42857
3153.5 19.5714
3154.5 5.85714
3155.5 -4
3156.5 45.4286
3157.5 4.71429
3158.5 31.5714
3159.5 11.8571
3160.5 15
3161.5 12.7143
3162.5 9.28571
3163.5 24.2857
3164.5 8.14286
3165.5 15.5714
3166.5 11.8571
3167.5 -9.42857
3168.5 7.14286
3169.5 11.8571
3170.5 -4.85714
3171.5 -10.1429
3172.5 21.2857
3173.5 1.28571
3174.5 0.571429
3175.5 12.7143
3176.5 -7.71429
3177.5 7.57143
3178.5 0.571429
3179.5 -9
3180.5 14.4286
3181.5 15.4286
3182.5 18.4286
3183.5 3.85714
3184.5 23.8571
3185.5 7.71429
3186.5 1.42857
3187.5 1.42857
3188.5 14
3189.5 -10
3190.5 4.42857
3191.5 5
3192.5 9.14286
3193.5 20.1429
3194.5 -0.142857
3195.5 -1.71429
3196.5 15.2857
3197.5 17.7143
3198.5 -6
3199.5 1.28571
3200.5 1.71429
3201.5 2.14286
3202.5 12.5714
3203.5 12.7143
3204.5 18.7143
3205.5 18.8571
3206.5 16
3207.5 10.5714
3208.5 11.8571
3209.5 3
3210.5 17.2857
3211.5 11.8571
3212.5 3.28571
3213.5 13.1429
3214.5 5
3215.5 9.85714
3216.5 2.14286
3217.5 -0.428571
3218.5 8.85714
3219.5 20.7143
3220.5 -5.28571
3221.5 3
3222.5 0.857143
3223.5 10.2857
3224.5 32.1429
3225.5 -0.714285
3226.5 12
3227.5 5
3228.5 8.14286
3229.5 31.4286
3230.5 7.85714
3231.5 24.4286
3232.5 10.2857
3233.5 19.1429
3234.5 21.7143
3235.5 0.571429
3236.5 19.8571
3237.5 13.4286
3238.5 21.4286
3239.5 16.8571
3240.5 14.8571
3241.5 31.5714
3242.5 25.5714
3243.5 7.15256e-07
3244.5 22.7143
3245.5 15.4286
3246.5 14.4286
3247.5 14.7143
3248.5 5.14286
3249.5 7
3250.5 12.8571
3251.5 21.2857
3252.5 8.28571
3253.5 7.57143
3254.5 4.14286
3255.5 9
3256.5 12.4286
3257.5 5.42857
3258.5 12
3259.5 4.14286
3260.5 11
3261.5 13.2857
3262.5 9.28571
3263.5 1.85714
3264.5 19
3265.5 4
3266.5 26.1429
3267.5 -10.7143
3268.5 8.57143
3269.5 -13.1429
3270.5 14.4286
3271.5 -5.42857
3272.5 -0.428571
3273.5 14.2857
3274.5 25.1429
3275.5 15.5714
3276.5 13.2857
3277.5 2.14286
3278.5 9.85714
3279.5 8.14286
3280.5 -1.28571
3281.5 10.4286
3282.5 -5.42857
3283.5 -0.857142
3284.5 4
3285.5 4.42857
3286.5 10.8571
3287.5 16.8571
3288.5 17.2857
3289.5 6
3290.5 6.71429
3291.5 8.85714
3292.5 -6.71429
3293.5 15.5714
3294.5 0.142857
3295.5 14.1429
3296.5 20.1429
3297.5 -9.85714
3298.5 -7.57143
3299.5 7.42857
3300.5 20.8571
3301.5 29.7143
3302.5 14.4286
3303.5 4.57143
3304.5 19.1429
3305.5 2.14286
3306.5 -2.28571
3307.5 0.428572
3308.5 2.57143
3309.5 14.8571
3310.5 3
3311.5 9.71429
3312.5 14.2857
3313.5 -3.71429
3314.5 12.5714
3315.5 0.857143
3316.5 -2.28571
3317.5 12.2857
3318.5 6.42857
3319.5 19.2857
3320.5 20.2857
3321.5 22.2857
3322.5 4.85714
3323.5 11.5714
3324.5 33
3325.5 23.7143
3326.5 19.7143
3327.5 10.1429
3328.5 49.4286
3329.5 34
3330.5 34.5714
3331.5 23.8571
3332.5 19.8571
3333.5 11.7143
3334.5 0.714286
3335.5 5.14286
3336.5 9.57143
3337.5 9.28571
3338.5 -1.28571
3339.5 8.42857
3340.5 6.57143
3341.5 -10.5714
3342.5 -9.28571
3343.5 10
3344.5 4.71429
3345.5 -2.14286
3346.5 4.85714
3347.5 -4.42857
3348.5 -11.7143
3349.5 -11.7143
3350.5 -6.42857
3351.5 4
3352.5 -10.2857
3353.5 1
3354.5 -2.85714
3355.5 5.71429
3356.5 9.71429
3357.5 -0.857142
3358.5 11.5714
3359.5 8.28571
3360.5 1.14286
3361.5 6
3362.5 1.57143
3363.5 13.5714
3364.5 13.7143
3365.5 1.85714
3366.5 19.2857
3367.5 -5.71429
3368.5 1
3369.5 25
3370.5 6.85714
3371.5 2.57143
3372.5 2
3373.5 10.8571
3374.5 15
3375.5 11.5714
3376.5 13.8571
3377.5 3.28571
3378.5 -2.71429
3379.5 -0.857143
3380.5 4.71429
3381.5 8.57143
3382.5 2.42857
3383.5 14.5714
3384.5 15.8571
3385.5 9.85714
3386.5 -1.28571
3387.5 -12.4286
3388.5 18.1429
3389.5 8.42857
3390.5 6.71429
3391.5 12.5714
3392.5 4
3393.5 -5.14286
3394.5 22
3395.5 7.14286
3396.5 13.1429
3397.5 17.2857
3398.5 15.4286
3399.5 17.1429
3400.5 -0.714285
3401.5 6.28571
3402.5 11.7143
3403.5 -5.42857
3404.5 10.4286
3405.5 19
3406.5 -5.28571
3407.5 -0.428571
3408.5 -7.14286
3409.5 4.28571
3410.5 11.7143
3411.5 10.2857
3412.5 -7
3413.5 3
3414.5 -10.2857
3415.5 2.14286
3416.5 1.71429
3417.5 13
3418.5 1.71429
3419.5 10.7143
3420.5 6.71429
3421.5 -4
3422.5 -14
3423.5 16.2857
3424.5 -6.85714
3425.5 7
3426.5 27.7143
3427.5 -12.5714
3428.5 2.71429
3429.5 23.2857
3430.5 -9.14286
3431.5 -1.71429
3432.5 13.4286
3433.5 -6.42857
3434.5 2.57143
3435.5 3.57143
3436.5 18
3437.5 4
3438.5 23.7143
3439.5 15.2857
3440.5 4.14286
3441.5 15.1429
3442.5 5.14286
3443.5 -5.28571
3444.5 -0.428571
3445.5 14.4286
3446.5 0.857144
3447.5 -4.71428
3448.5 39.5714
3449.5 -15.4286
3450.5 -7.28571
3451.5 17.8571
3452.5 1.3113e-06
3453.5 -3.14286
3454.5 -2.85714
3455.5 10.5714
3456.5 8.42857
3457.5 3.85714
3458.5 3
3459.5 26.8571
3460.5 7
3461.5 41.2857
3462.5 77.8571
3463.5 149.714
3464.5 197.286
3465.5 350.286
3466.5 478.143
3467.5 530.143
3468.5 426.857
3469.5 221.571
3470.5 62.4286
3471.5 41.8571
3472.5 16.2857
3473.5 -1.42857
3474.5 3.14286
3475.5 9.71429
3476.5 7.28571
3477.5 7
3478.5 4.57143
3479.5 4
3480.5 -6.28571
3481.5 -0.428571
3482.5 7.71429
3483.5 -8.14286
3484.5 6.85714
3485.5 -8
3486.5 -5.28571
3487.5 9.28571
3488.5 3
3489.5 -13.8571
3490.5 18.1429
3491.5 5.28572
3492.5 2.02656e-06
3493.5 9.71429
3494.5 -2.28571
3495.5 28
3496.5 8.42857
3497.5 9.71429
3498.5 -24.1429
3499.5 2.71429
3500.5 8.85714
3501.5 -0.142857
3502.5 3.71429
3503.5 3.28571
3504.5 12.5714
3505.5 3.71429
3506.5 12.4286
3507.5 8.57143
3508.5 -2.28571
3509.5 7.14286
3510.5 5.28571
3511.5 7.28571
3512.5 -3.28571
3513.5 12.1429
3514.5 1.57143
3515.5 3.71429
3516.5 17.4286
3517.5 -6.57143
3518.5 13
3519.5 -5.14286
3520.5 14.5714
3521.5 -2.28571
3522.5 -7.14286
3523.5 1.42857
3524.5 2.28571
3525.5 8.71429
3526.5 -5.42857
3527.5 5.28571
3528.5 4
3529.5 0.571429
3530.5 14.7143
3531.5 13.7143
3532.5 -1.14286
3533.5 20.5714
3534.5 3.42857
3535.5 -5.14286
3536.5 19.1429
3537.5 -4.42857
3538.5 -5.14286
3539.5 8
3540.5 -6.14286
3541.5 1.42857
3542.5 -7.42857
3543.5 -4.71429
3544.5 10.5714
3545.5 2.85714
3546.5 0.285715
3547.5 0.285715
3548.5 7
3549.5 1.85714
3550.5 -9.71429
3551.5 2.85714
3552.5 6.71429
3553.5 -3
3554.5 -6.14286
3555.5 2.57143
3556.5 2.28571
3557.5 -2.28571
3558.5 -22.5714
3559.5 -31.8571
3560.5 -58.1429
3561.5 -37.2857
3562.5 -47
3563.5 -37.4286
3564.5 2.14286
3565.5 -6.57143
3566.5 0.857143
3567.5 7.42857
3568.5 7.85714
3569.5 12.4286
3570.5 13.8571
3571.5 2.28571
3572.5 4.28571
3573.5 5.28571
3574.5 2.38419e-07
3575.5 10.5714
3576.5 3.57143
3577.5 4.71429
3578.5 2.57143
3579.5 -6.85714
3580.5 -9
3581.5 24.7143
3582.5 21.2857
3583.5 14.5714
3584.5 -10.1429
3585.5 1.57143
3586.5 17.4286
3587.5 3.71429
3588.5 1.57143
3589.5 5.42857
3590.5 -0.571428
3591.5 -2.42857
3592.5 8.28571
3593.5 -0.571428
3594.5 18.4286
3595.5 3.57628e-07
3596.5 1.85714
3597.5 -9.57143
3598.5 8.85714
3599.5 0.714286
3600.5 -0.285714
3601.5 -12.1429
3602.5 -2.14286
3603.5 -2.85714
3604.5 3.42857
3605.5 -4.14286
3606.5 -14.5714
3607.5 3.57143
3608.5 -8.42857
3609.5 7.14286
3610.5 -18
3611.5 -9.85714
3612.5 2.38419e-07
3613.5 -3.28571
3614.5 5.85714
3615.5 1.42857
3616.5 6.57143
3617.5 7.42857
3618.5 9.28571
3619.5 3.57628e-07
3620.5 12.7143
3621.5 -15.7143
3622.5 -5.57143
3623.5 -3.42857
3624.5 -1.57143
3625.5 0.714286
3626.5 -5
3627.5 -1.71429
3628.5 -0.571428
3629.5 5.57143
3630.5 21.2857
3631.5 1.42857
3632.5 -3.57143
3633.5 -0.285714
3634.5 5.71429
3635.5 3.28571
3636.5 2.57143
3637.5 8.85714
3638.5 2.71429
3639.5 2.14286
3640.5 5.14286
3641.5 2.71429
3642.5 8.28571
3643.5 4.28571
3644.5 23.8571
3645.5 8.71429
3646.5 -3.42857
3647.5 19
3648.5 7.71429
3649.5 -6.85714
3650.5 3.57143
3651.5 -0.714285
3652.5 0.142858
3653.5 14
3654.5 -11.5714
3655.5 8
3656.5 -2.14286
3657.5 -3.28571
3658.5 2
3659.5 7.85714
3660.5 26.5714
3661.5 10.4286
3662.5 21.1429
3663.5 15.2857
3664.5 -12.8571
3665.5 7.28571
3666.5 -2.85714
3667.5 3.57143
3668.5 6.57143
3669.5 11.4286
3670.5 -5.14286
3671.5 5.85714
3672.5 -4.14286
3673.5 -9.57143
3674.5 -6.85714
3675.5 11.7143
3676.5 -0.142857
3677.5 16.5714
3678.5 -17.1429
3679.5 1.57143
3680.5 -12.7143
3681.5 4.71429
3682.5 2.42857
3683.5 -11.1429
3684.5 8
3685.5 13.1429
3686.5 -1.28571
3687.5 2
3688.5 -4.28571
3689.5 5.71429
3690.5 7.71429
3691.5 -5.28571
3692.5 -7
3693.5 -1
3694.5 2.57143
3695.5 2
3696.5 -5.14286
3697.5 -1.42857
3698.5 10.2857
3699.5 3.85714
3700.5 1.85714
3701.5 -6.28571
3702.5 -2.42857
3703.5 2.28571
3704.5 -8.14286
3705.5 1.71429
3706.5 -0.571428
3707.5 -3.85714
3708.5 -5
3709.5 0.142858
3710.5 17.8571
3711.5 -9
3712.5 -4.57143
3713.5 2.85714
3714.5 7.28571
3715.5 0.285715
3716.5 5.57143
3717.5 17.4286
3718.5 -4.57143
3719.5 3.85714
3720.5 -0.285714
3721.5 2.14286
3722.5 4.85714
3723.5 12.5714
3724.5 4.71429
3725.5 7
3726.5 -3
3727.5 9.14286
3728.5 5.14286
3729.5 -1
3730.5 -3.57143
3731.5 10.1429
3732.5 -10.2857
3733.5 -7.57143
3734.5 -3.28571
3735.5 -5.42857
3736.5 0.857143
3737.5 2.57143
3738.5 -4.71429
3739.5 10.1429
3740.5 -2
3741.5 -2.57143
3742.5 -6.42857
3743.5 -4.85714
3744.5 -2.57143
3745.5 1
3746.5 13.4286
3747.5 16.2857
3748.5 13.1429
3749.5 9.71429
3750.5 7.28571
3751.5 -6
3752.5 11.1429
3753.5 -9.42857
3754.5 -2.28571
3755.5 -12.4286
3756.5 5
3757.5 2.57143
3758.5 11.4286
3759.5 -2.71429
3760.5 3.57143
3761.5 -0.571428
3762.5 7.42857
3763.5 -0.571428
3764.5 12
3765.5 4.28571
3766.5 0.142857
3767.5 -6.28571
3768.5 -6.42857
3769.5 -3.57143
3770.5 2.85714
3771.5 3.57143
3772.5 -2.42857
3773.5 5.28571
3774.5 -5.85714
3775.5 -1.28571
3776.5 7.42857
3777.5 -7.71429
3778.5 -9
3779.5 3
3780.5 -2.71429
3781.5 9.71429
3782.5 7.71429
3783.5 8.14286
3784.5 9.14286
3785.5 6.42857
3786.5 -6.85714
3787.5 25
3788.5 -4.42857
3789.5 -1.85714
3790.5 4.57143
3791.5 3.14286
3792.5 -2.28571
3793.5 10.5714
3794.5 3.85714
3795.5 -1.14286
3796.5 0.428572
3797.5 1.14286
3798.5 -0.285714
3799.5 -2.42857
3800.5 3.71429
3801.5 -10.1429
3802.5 1.19209e-07
3803.5 3.85714
3804.5 -1.85714
3805.5 -0.428571
3806.5 -1.28571
3807.5 2
3808.5 15.4286
3809.5 4.42857
3810.5 1.28571
3811.5 -3
3812.5 0.857143
3813.5 11
3814.5 -3.71429
3815.5 3.71429
3816.5 -8.71429
3817.5 1.85714
3818.5 6.42857
3819.5 -0.571428
3820.5 -2.14286
3821.5 -13.1429
3822.5 -10
3823.5 2.14286
3824.5 -6.14286
3825.5 2.42857
3826.5 -4.85714
3827.5 -2.28571
3828.5 6.85714
3829.5 -5.42857
3830.5 10.7143
3831.5 8.42857
3832.5 5.42857
3833.5 1.85714
3834.5 10.5714
3835.5 24.5714
3836.5 35
3837.5 44.8571
3838.5 73.1429
3839.5 131
3840.5 163.857
3841.5 141.857
3842.5 76.8571
3843.5 33.5714
3844.5 15.8571
3845.5 10
3846.5 5.42857
3847.5 -6.14286
3848.5 3.85714
3849.5 -1
3850.5 -3.28571
3851.5 9.28571
3852.5 -0.142857
3853.5 -2
3854.5 -11.4286
3855.5 -9.42857
3856.5 -31.7143
3857.5 -23.7143
3858.5 -63.5714
3859.5 -92.2857
3860.5 -112.571
3861.5 -82.1429
3862.5 -62.7143
3863.5 -47.7143
3864.5 -21.2857
3865.5 -12.8571
3866.5 6.28571
3867.5 5.85714
3868.5 1.42857
3869.5 5.14286
3870.5 14.7143
3871.5 2.85714
3872.5 12.8571
3873.5 4.42857
3874.5 -0.571428
3875.5 0.285715
3876.5 2
3877.5 1.28571
3878.5 -2.14286
3879.5 0.571429
3880.5 7.14286
3881.5 3
3882.5 3.42857
3883.5 2.57143
3884.5 -5.57143
3885.5 -9.28571
3886.5 -0.571428
3887.5 1.85714
3888.5 6.42857
3889.5 -10.4286
3890.5 1.57143
3891.5 -9
3892.5 15.2857
3893.5 3.42857
3894.5 5
3895.5 3.42857
3896.5 8
3897.5 -1.85714
3898.5 7.85714
3899.5 -0.857143
3900.5 -0.142857
3901.5 -2.57143
3902.5 7.57143
3903.5 2.42857
3904.5 -1
3905.5 6.42857
3906.5 -2.42857
3907.5 -1.14286
3908.5 3.42857
3909.5 1
3910.5 1
3911.5 -5.57143
3912.5 0.428572
3913.5 2.14286
3914.5 3.85714
3915.5 3
3916.5 -1.42857
3917.5 2
3918.5 1.42857
3919.5 2.57143
3920.5 8.85714
3921.5 18.2857
3922.5 6
3923.5 -2.85714
3924.5 -12.1429
3925.5 -6.28571
3926.5 -6.28571
3927.5 -11.5714
3928.5 -2.14286
3929.5 -1.85714
3930.5 3.28571
3931.5 1.57143
3932.5 -11.7143
3933.5 5.85714
3934.5 -9.71429
3935.5 -18.2857
3936.5 7.57143
3937.5 2.71429
3938.5 4
3939.5 11.4286
3940.5 -0.857143
3941.5 7.42857
3942.5 11
3943.5 37.7143
3944.5 25
3945.5 28.7143
3946.5 27.2857
3947.5 3
3948.5 10.7143
3949.5 2.71429
3950.5 8.42857
3951.5 6.28571
3952.5 10
3953.5 3.28571
3954.5 7.57143
3955.5 -1.14286
3956.5 -5.85714
3957.5 2.42857
3958.5 3.57143
3959.5 -2.42857
3960.5 6.85714
3961.5 -4.85714
3962.5 -3.57143
3963.5 -4.28571
3964.5 -8.28571
3965.5 5.71429
3966.5 13.1429
3967.5 16.7143
3968.5 21.2857
3969.5 6.85714
3970.5 16.5714
3971.5 2.28572
3972.5 20.5714
3973.5 -1.57143
3974.5 6.28572
3975.5 -19.7143
3976.5 0.285715
3977.5 -6
3978.5 2.57143
3979.5 -3.14286
3980.5 -0.571428
3981.5 21.7143
3982.5 1.71429
3983.5 1.28571
3984.5 -2.85714
3985.5 10.4286
3986.5 0.285715
3987.5 9.57143
3988.5 -3.28571
3989.5 -11.1429
3990.5 -3.28571
3991.5 -0.142857
3992.5 2.14286
3993.5 14.1429
3994.5 9
3995.5 2.71429
3996.5 5.71429
3997.5 4.71429
3998.5 2.14286
3999.5 7.85714
4000.5 1.71429
4001.5 7.14286
4002.5 -1.85714
4003.5 10
4004.5 0.857143
4005.5 4
4006.5 4
4007.5 2.28571
4008.5 2
4009.5 6.85714
4010.5 8.28571
4011.5 0.714286
4012.5 -5.14286
4013.5 -5.42857
4014.5 9.14286
4015.5 -0.571428
4016.5 2
4017.5 -0.857143
4018.5 4.14286
4019.5 4.14286
4020.5 6.28571
4021.5 3.42857
4022.5 -1.28571
4023.5 11.8571
4024.5 5.28571
4025.5 2.85714
4026.5 6.28571
4027.5 5.57143
4028.5 -8.42857
4029.5 10.4286
4030.5 3.28571
4031.5 4
4032.5 4.71429
4033.5 6.57143
4034.5 9.57143
4035.5 0.857143
4036.5 -2.14286
4037.5 1.14286
4038.5 1
4039.5 5.14286
4040.5 7.42857
4041.5 -2
4042.5 15.5714
4043.5 3.71429
4044.5 -13.2857
4045.5 0.142857
4046.5 3.71429
4047.5 -0.285714
4048.5 8.42857
4049.5 0.714286
4050.5 -6.85714
4051.5 9.57143
4052.5 5
4053.5 1.14286
4054.5 5.14286
4055.5 9.85714
4056.5 8.71429
4057.5 -1.14286
4058.5 -3.57143
4059.5 13.4286
4060.5 2.14286
4061.5 2.14286
4062.5 13.2857
4063.5 12.1429
4064.5 10.2857
4065.5 -5.14286
4066.5 9.14286
4067.5 7.85714
4068.5 5.85714
4069.5 6.85714
4070.5 9.14286
4071.5 9
4072.5 -1.71429
4073.5 2.42857
4074.5 1.57143
4075.5 3.85714
4076.5 0.857143
4077.5 -0.571428
4078.5 1.42857
4079.5 2
4080.5 9.57143
4081.5 7.85714
4082.5 -0.714286
4083.5 11.1429
4084.5 -1.57143
4085.5 5.57143
4086.5 7.57143
4087.5 1.71429
4088.5 1.42857
4089.5 9.57143
4090.5 5.28571
4091.5 -5.71429
4092.5 11.5714
4093.5 2
4094.5 4
4095.5 11.1429
4096.5 4.28571
4097.5 1.19209e-07
4098.5 -4.71429
4099.5 10
4100.5 3.14286
4101.5 7.42857
4102.5 -1.42857
4103.5 1.57143
4104.5 21.5714
4105.5 14.1429
4106.5 3.42857
4107.5 8.57143
4108.5 0.571429
4109.5 -1.14286
4110.5 11.8571
4111.5 0.714286
4112.5 -2.85714
4113.5 3.42857
4114.5 -12.7143
4115.5 5
4116.5 -0.857143
4117.5 0.857143
4118.5 -2.42857
4119.5 8.71429
4120.5 11.5714
4121.5 4.71429
4122.5 -1.57143
4123.5 -6
4124.5 3.85714
4125.5 8
4126.5 8.57143
4127.5 1.28571
4128.5 6.42857
4129.5 4.85714
4130.5 -11.5714
4131.5 7.57143
4132.5 -0.428571
4133.5 -4.28571
4134.5 0.285715
4135.5 -0.857143
4136.5 10.1429
4137.5 5.28571
4138.5 -4.57143
4139.5 3.57143
4140.5 -4.85714
4141.5 10.4286
4142.5 3.42857
4143.5 2.14286
4144.5 11
4145.5 1.71429
4146.5 1.14286
4147.5 -0.285714
4148.5 5
4149.5 3.85714
4150.5 11.2857
4151.5 -5.28571
4152.5 -3.14286
4153.5 8.28571
4154.5 2.14286
4155.5 -2.28571
4156.5 10.8571
4157.5 3.71429
4158.5 12.8571
4159.5 1.19209e-07
4160.5 -4.42857
4161.5 5.42857
4162.5 15.7143
4163.5 -2.28571
4164.5 11.8571
4165.5 10
4166.5 17.1429
4167.5 23.8571
4168.5 22.7143
4169.5 19.4286
4170.5 19.8571
4171.5 -0.428571
4172.5 2.14286
4173.5 9.42857
4174.5 3.42857
4175.5 -3.57143
4176.5 4.42857
4177.5 -1.28571
4178.5 -1.14286
4179.5 4.28571
4180.5 7.57143
4181.5 1.71429
4182.5 10.5714
4183.5 -2.14286
4184.5 1.57143
4185.5 -10.2857
4186.5 5.57143
4187.5 2.57143
4188.5 6
4189.5 4.71429
4190.5 8
4191.5 -4.14286
4192.5 7.85714
4193.5 4.28571
4194.5 13.1429
4195.5 1.19209e-07
4196.5 4.57143
4197.5 1.28571
4198.5 6
4199.5 3.57143
4200.5 -1.57143
4201.5 7
4202.5 -0.285714
4203.5 -2
4204.5 7.71429
4205.5 10.8571
4206.5 2.42857
4207.5 -0.428571
4208.5 -4.14286
4209.5 7
4210.5 6.14286
4211.5 8.42857
4212.5 4.42857
4213.5 7.85714
4214.5 25.4286
4215.5 9.57143
4216.5 -21.4286
4217.5 11.8571
4218.5 23.1429
4219.5 8.57143
4220.5 0.857143
4221.5 3.57143
4222.5 2
4223.5 -0.857143
4224.5 4.71429
4225.5 3
4226.5 0.714286
4227.5 0.428572
4228.5 3.14286
4229.5 10.8571
4230.5 3.57143
4231.5 2.28571
4232.5 3.85714
4233.5 2.85714
4234.5 -4.57143
4235.5 -1
4236.5 3.28571
4237.5 4.28571
4238.5 3.57143
4239.5 16.8571
4240.5 -2.85714
4241.5 0.714286
4242.5 7
4243.5 6.28571
4244.5 9.42857
4245.5 2.57143
4246.5 8.14286
4247.5 0.714286
4248.5 1.71429
4249.5 7.85714
4250.5 6.28571
4251.5 1.28571
4252.5 -0.857143
4253.5 7.28571
4254.5 10.1429
4255.5 3.57143
4256.5 12.5714
4257.5 0.428572
4258.5 -0.857143
4259.5 -1.14286
4260.5 -5.71429
4261.5 -1.71429
4262.5 0.285715
4263.5 -4.57143
4264.5 4.71429
4265.5 -9.71429
4266.5 6
4267.5 12
4268.5 10
4269.5 8.42857
4270.5 -3.85714
4271.5 -0.571428
4272.5 -1.57143
4273.5 0.285714
4274.5 2.42857
4275.5 8.85714
4276.5 -3.14286
4277.5 0.571429
4278.5 5
4279.5 3
4280.5 9.14286
4281.5 2.42857
4282.5 2.28571
4283.5 -3.57143
4284.5 -4.71429
4285.5 -0.857143
4286.5 -5.42857
4287.5 7.71429
4288.5 -2.85714
4289.5 6.85714
4290.5 8.14286
4291.5 0.714286
4292.5 9.85714
4293.5 1.42857
4294.5 13.5714
4295.5 1.71429
4296.5 3.14286
4297.5 -10.8571
4298.5 3.42857
4299.5 10.4286
4300.5 2.14286
4301.5 0.571429
4302.5 6.71429
4303.5 15.2857
4304.5 6.42857
4305.5 3
4306.5 10.8571
4307.5 1
4308.5 6.28571
4309.5 10.8571
4310.5 6.57143
4311.5 4.71429
4312.5 1
4313.5 1.85714
4314.5 0.285715
4315.5 9
4316.5 -7.71429
4317.5 3.28571
4318.5 -11
4319.5 9.71429
4320.5 4.57143
4321.5 1.71429
4322.5 2.42857
4323.5 1.42857
4324.5 3.71429
4325.5 3.85714
4326.5 2.42857
4327.5 11
4328.5 2.57143
4329.5 0.285714
4330.5 2
4331.5 9.28571
4332.5 11.1429
4333.5 6.71429
4334.5 9.14286
4335.5 0.285714
4336.5 3.71429
4337.5 9.85714
4338.5 4.42857
4339.5 3.57143
4340.5 5.85714
4341.5 9.57143
4342.5 12.7143
4343.5 2.14286
4344.5 1.71429
4345.5 4
4346.5 2.57143
4347.5 12.5714
4348.5 7
4349.5 3.57143
4350.5 2.57143
4351.5 6.28571
4352.5 5
4353.5 -2.57143
4354.5 -3.14286
4355.5 -0.428571
4356.5 5.57143
4357.5 5.28571
4358.5 4.28571
4359.5 9.42857
4360.5 1.19209e-07
4361.5 -0.714286
4362.5 0.142857
4363.5 2.28571
4364.5 -0.285714
4365.5 3.28571
4366.5 10.8571
4367.5 -1.57143
4368.5 4.28571
4369.5 -3
4370.5 4.71429
4371.5 5.42857
4372.5 0.285714
4373.5 6.28571
4374.5 8.85714
4375.5 9.28571
4376.5 3.57143
4377.5 -1.85714
4378.5 4.28571
4379.5 -0.428571
4380.5 -5
4381.5 2.57143
4382.5 10
4383.5 2.57143
4384.5 -3.57143
4385.5 -2.85714
4386.5 4.85714
4387.5 4.42857
4388.5 -0.714285
4389.5 7.85714
4390.5 2.28571
4391.5 6.14286
4392.5 5.42857
4393.5 12.7143
4394.5 -3.14286
4395.5 6.71429
4396.5 -1.28571
4397.5 2.85714
4398.5 3.85714
4399.5 6.28571
4400.5 -1
4401.5 4
4402.5 1.57143
4403.5 5.28571
4404.5 3.71429
4405.5 3.85714
4406.5 2
4407.5 3.85714
4408.5 -5
4409.5 4.14286
4410.5 5.57143
4411.5 1.28571
4412.5 9.14286
4413.5 1.57143
4414.5 4.71429
4415.5 2.85714
4416.5 -0.285714
4417.5 4.71429
4418.5 6.28571
4419.5 8.14286
4420.5 4.28571
4421.5 1.28571
4422.5 0.142857
4423.5 9
4424.5 -1.57143
4425.5 -0.285714
4426.5 9.71429
4427.5 0.428572
4428.5 4.57143
4429.5 2.14286
4430.5 6.28571
4431.5 9.42857
4432.5 -23.2857
4433.5 -34
4434.5 -23.1429
4435.5 -27
4436.5 -34.2857
4437.5 -29.8571
4438.5 -19.2857
4439.5 -2.42857
4440.5 0.285715
4441.5 -0.571428
4442.5 10.1429
4443.5 5.14286
4444.5 3.57143
4445.5 10.7143
4446.5 2
4447.5 10.1429
4448.5 5.71429
4449.5 11.8571
4450.5 20.1429
4451.5 28.1429
4452.5 29.1429
4453.5 50.8571
4454.5 69.5714
4455.5 88.7143
4456.5 81.1429
4457.5 54.4286
4458.5 49.2857
4459.5 20.4286
4460.5 13.8571
4461.5 12
4462.5 8.57143
4463.5 -5.14286
4464.5 -1.42857
4465.5 9.14286
4466.5 -6.57143
4467.5 1.57143
4468.5 7
4469.5 -2.28571
4470.5 9.57143
4471.5 2.57143
4472.5 7.14286
4473.5 2.57143
4474.5 3.28571
4475.5 9.42857
4476.5 1.57143
4477.5 6.57143
4478.5 9.71429
4479.5 1.28571
4480.5 7
4481.5 6.14286
4482.5 1.19209e-07
4483.5 4.57143
4484.5 8.14286
4485.5 7.42857
4486.5 9.42857
4487.5 13.4286
4488.5 -0.714286
4489.5 11.1429
4490.5 7.14286
4491.5 6.57143
4492.5 6.57143
4493.5 9.57143
4494.5 9.14286
4495.5 4.42857
4496.5 2.85714
4497.5 4.42857
4498.5 -2
4499.5 10
4500.5 2.28571
4501.5 6
4502.5 6.71429
4503.5 13.2857
4504.5 12.2857
4505.5 4.28571
4506.5 10.8571
4507.5 9.14286
4508.5 4.28571
4509.5 -6.71429
4510.5 6.42857
4511.5 7.14286
4512.5 8
4513.5 1.85714
4514.5 8.42857
4515.5 9.42857
4516.5 1.14286
4517.5 8.85714
4518.5 1.28571
4519.5 2.85714
4520.5 13.4286
4521.5 9.42857
4522.5 9.71429
4523.5 -1
4524.5 4.42857
4525.5 7.57143
4526.5 3.85714
4527.5 8.14286
4528.5 1.28571
4529.5 7.14286
4530.5 6.42857
4531.5 1.57143
4532.5 -0.857143
4533.5 4.57143
4534.5 7
4535.5 6.14286
4536.5 6.14286
4537.5 7.14286
4538.5 4.42857
4539.5 -1.71429
4540.5 4.57143
4541.5 3.14286
4542.5 5.14286
4543.5 5.57143
4544.5 8.42857
4545.5 9.42857
4546.5 1.14286
4547.5 -4.71429
4548.5 5.57143
4549.5 4.14286
4550.5 9.71429
4551.5 9.57143
4552.5 7.57143
4553.5 5.85714
4554.5 7.57143
4555.5 6.71429
4556.5 12.8571
4557.5 6.28571
4558.5 0.285714
4559.5 8.14286
4560.5 4.57143
4561.5 1.85714
4562.5 0.571429
4563.5 4.57143
4564.5 9.42857
4565.5 8.14286
4566.5 1.42857
4567.5 5.14286
4568.5 -3.42857
4569.5 3
4570.5 1.57143
4571.5 7.85714
4572.5 6.42857
4573.5 -6.57143
4574.5 5.14286
4575.5 -9.28571
4576.5 22.1429
4577.5 -11.2857
4578.5 -3.71429
4579.5 -3.85714
4580.5 2
4581.5 7
4582.5 13
4583.5 -0.571429
4584.5 5.14286
4585.5 7.57143
4586.5 7.14286
4587.5 7
4588.5 1
4589.5 -1.14286
4590.5 6.71429
4591.5 -2.28571
4592.5 15
4593.5 4.42857
4594.5 5.14286
4595.5 -1.85714
4596.5 3.85714
4597.5 0.285714
4598.5 5.85714
4599.5 1.57143
4600.5 4.14286
4601.5 6.14286
4602.5 9.42857
4603.5 2.85714
4604.5 7.42857
4605.5 7.85714
4606.5 8.14286
4607.5 3.14286
4608.5 5.14286
4609.5 0.571429
4610.5 4.85714
4611.5 -1.28571
4612.5 6.85714
4613.5 0.857143
4614.5 9.14286
4615.5 5.42857
4616.5 10.1429
4617.5 7
4618.5 30.5714
4619.5 -17.8571
4620.5 -12.1429
4621.5 11.8571
4622.5 -2.14286
4623.5 3.85714
4624.5 4.14286
4625.5 12.7143
4626.5 8.14286
4627.5 3
4628.5 -1.42857
4629.5 6
4630.5 5.85714
4631.5 7.57143
4632.5 5.71429
4633.5 11.4286
4634.5 5.71429
4635.5 0.142857
4636.5 4.14286
4637.5 4.42857
4638.5 3.14286
4639.5 5.57143
4640.5 2.14286
4641.5 -0.714286
4642.5 4.57143
4643.5 6.14286
4644.5 12.4286
4645.5 6.28571
4646.5 2
4647.5 1.14286
4648.5 -11.8571
4649.5 9.14286
4650.5 -4.42857
4651.5 -6.28571
4652.5 2
4653.5 10.4286
4654.5 -0.571428
4655.5 5.14286
4656.5 7.14286
4657.5 8.71429
4658.5 2.85714
4659.5 3.71429
4660.5 -1.28571
4661.5 5.71429
4662.5 6
4663.5 7
4664.5 6.14286
4665.5 6.71429
4666.5 8.42857
4667.5 5.71429
4668.5 10.4286
4669.5 1.71429
4670.5 -2.14286
4671.5 6.42857
4672.5 5.71429
4673.5 7.28571
4674.5 5.14286
4675.5 7
4676.5 8.14286
4677.5 6
4678.5 2.85714
4679.5 4.42857
4680.5 4.14286
4681.5 1
4682.5 6.71429
4683.5 6.57143
4684.5 1.71429
4685.5 0.857143
4686.5 -7.28571
4687.5 3.57143
4688.5 0.285715
4689.5 -0.857143
4690.5 3.57143
4691.5 6.42857
4692.5 8.71429
4693.5 8.14286
4694.5 5.85714
4695.5 3.85714
4696.5 3.42857
4697.5 8.71429
4698.5 6.42857
4699.5 6.14286
4700.5 0.571429
4701.5 8.71429
4702.5 -0.714286
4703.5 7.14286
4704.5 1.85714
4705.5 6
4706.5 4.71429
4707.5 7.14286
4708.5 1.57143
4709.5 12.7143
4710.5 9.85714
4711.5 7.42857
4712.5 3.85714
4713.5 11
4714.5 11.4286
4715.5 6.42857
4716.5 6.85714
4717.5 4.85714
4718.5 2.85714
4719.5 7.85714
4720.5 8.85714
4721.5 9.71429
4722.5 2.85714
4723.5 10.7143
4724.5 -3.42857
4725.5 -2
4726.5 11.4286
4727.5 10.1429
4728.5 3.71429
4729.5 1.57143
4730.5 -1.71429
4731.5 1
4732.5 -1.85714
4733.5 -3.85714
4734.5 -5.85714
4735.5 10.1429
4736.5 4.14286
4737.5 0.142857
4738.5 4.42857
4739.5 -0.714286
4740.5 0.428571
4741.5 9.14286
4742.5 7
4743.5 -4.71429
4744.5 6.71429
4745.5 4.14286
4746.5 6.71429
4747.5 8
4748.5 -1.14286
4749.5 2.28571
4750.5 4.14286
4751.5 4.71429
4752.5 5.14286
4753.5 2.42857
4754.5 5.71429
4755.5 6.71429
4756.5 3.71429
4757.5 4.71429
4758.5 10.4286
4759.5 0.857143
4760.5 7.71429
4761.5 4.71429
4762.5 1.42857
4763.5 6.71429
4764.5 7.42857
4765.5 5
4766.5 -3.42857
4767.5 8.71429
4768.5 2.14286
4769.5 4.42857
4770.5 10.1429
4771.5 5.14286
4772.5 8.42857
4773.5 1.71429
4774.5 7.28571
4775.5 1.14286
4776.5 7
4777.5 9.71429
4778.5 10.5714
4779.5 8.71429
4780.5 5
4781.5 8.14286
4782.5 8.57143
4783.5 6.14286
4784.5 9.42857
4785.5 2.57143
4786.5 4.42857
4787.5 -2.28571
4788.5 -0.428571
4789.5 1.14286
4790.5 2.71429
4791.5 9.71429
4792.5 9
4793.5 0.428571
4794.5 7.14286
4795.5 0.428571
4796.5 6.71429
4797.5 4.71429
4798.5 9
4799.5 3.42857
4800.5 1.71429
4801.5 5.42857
4802.5 4.42857
4803.5 3.14286
4804.5 0.285714
4805.5 2.71429
4806.5 3
4807.5 6
4808.5 14.8571
4809.5 -1.14286
4810.5 0.285714
4811.5 1.14286
4812.5 4.28571
4813.5 4.14286
4814.5 3.28571
4815.5 4.14286
4816.5 5.42857
4817.5 6.42857
4818.5 0.142857
4819.5 3.42857
4820.5 5.71429
4821.5 4.42857
4822.5 2.71429
4823.5 2
4824.5 8
4825.5 1.42857
4826.5 2.42857
4827.5 7
4828.5 2
4829.5 1.42857
4830.5 6
4831.5 1.14286
4832.5 4.42857
4833.5 7.71429
4834.5 2.14286
4835.5 2.14286
4836.5 0.428571
4837.5 5.14286
4838.5 1.14286
4839.5 4.71429
4840.5 2.42857
4841.5 5.71429
4842.5 0.142857
4843.5 2.14286
4844.5 7
4845.5 6.42857
4846.5 7.42857
4847.5 4.14286
4848.5 6.42857
4849.5 5.42857
4850.5 2.85714
4851.5 -0.142857
4852.5 -0.142857
4853.5 3.28571
4854.5 10.7143
4855.5 3.14286
4856.5 -6.57143
4857.5 1.42857
4858.5 5.14286
4859.5 2.71429
4860.5 1.28571
4861.5 -1.57143
4862.5 2.14286
4863.5 3
4864.5 -0.857143
4865.5 1.57143
4866.5 -1.85714
4867.5 6.42857
4868.5 3.14286
4869.5 0.714286
4870.5 2.42857
4871.5 8.14286
4872.5 -3.42857
4873.5 -4.71429
4874.5 2.42857
4875.5 3.42857
4876.5 3.14286
4877.5 7.71429
4878.5 3.71429
4879.5 -1.85714
4880.5 8
4881.5 2.42857
4882.5 2.14286
4883.5 3.14286
4884.5 1.14286
4885.5 -2.57143
4886.5 6.57143
4887.5 -1.71429
4888.5 5.14286
4889.5 -2.71429
4890.5 5.14286
4891.5 3.14286
4892.5 0.714286
4893.5 -0.571429
4894.5 2.71429
4895.5 -0.142857
4896.5 0.142857
4897.5 1.14286
4898.5 3
4899.5 2.71429
4900.5 -1.85714
4901.5 6.14286
4902.5 -0.857143
4903.5 10.7143
4904.5 -4.71429
4905.5 1.85714
4906.5 4.71429
4907.5 0.857143
4908.5 1.71429
4909.5 5.42857
4910.5 7.71429
4911.5 2.71429
4912.5 4.71429
4913.5 3.71429
4914.5 1.14286
4915.5 1.71429
4916.5 -0.428571
4917.5 3.42857
4918.5 1.42857
4919.5 -0.142857
4920.5 -0.571429
4921.5 1.42857
4922.5 1.71429
4923.5 2.42857
4924.5 7.57143
4925.5 4
4926.5 4
4927.5 5.71429
4928.5 -0.428571
4929.5 -0.857143
4930.5 -4.14286
4931.5 -0.142857
4932.5 1.71429
4933.5 -2.85714
4934.5 -2.85714
4935.5 3.71429
4936.5 9
4937.5 0.714286
4938.5 0.714286
4939.5 3.71429
4940.5 6
4941.5 2.71429
4942.5 0.142857
4943.5 -0.571429
4944.5 2.42857
4945.5 3.71429
4946.5 4.71429
4947.5 3.71429
4948.5 6.71429
4949.5 2.71429
4950.5 2.71429
4951.5 0.714286
4952.5 0.428571
4953.5 1.71429
4954.5 1.71429
4955.5 9
4956.5 8
4957.5 3.71429
4958.5 9.42857
4959.5 11.4286
4960.5 27
4961.5 42.4286
4962.5 67.1429
4963.5 99.8571
4964.5 186.429
4965.5 222.714
4966.5 274.429
4967.5 275.857
4968.5 204.857
4969.5 117.286
4970.5 62
4971.5 27.4286
4972.5 17.4286
4973.5 10
4974.5 6.42857
4975.5 -6.28571
4976.5 -0.142857
4977.5 1.42857
4978.5 -0.571429
4979.5 -6
4980.5 2.42857
4981.5 -3.71429
4982.5 -1.14286
4983.5 -3.42857
4984.5 -0.714286
4985.5 -6
4986.5 -4.71429
4987.5 -4.14286
4988.5 -0.571429
4989.5 2
4990.5 1
4991.5 3
4992.5 -2.85714
4993.5 -1.85714
4994.5 -0.571429
4995.5 0.428571
4996.5 1.71429
4997.5 -3.14286
4998.5 -1.14286
4999.5 -1.28571
5000.5 -0.571429
5001.5 2.42857
5002.5 -0.285714
5003.5 0.428571
5004.5 1.14286
5005.5 1.42857
5006.5 4.71429
5007.5 4.71429
5008.5 -2.85714
5009.5 1.42857
5010.5 -3.14286
5011.5 3.71429
5012.5 -0.285714
5013.5 0.428571
5014.5 1
5015.5 -0.571429
5016.5 2
5017.5 -3.14286
5018.5 0.714286
5019.5 5
5020.5 5
5021.5 0.857143
5022.5 4.71429
5023.5 -6.28571
5024.5 2.42857
5025.5 -1.85714
5026.5 2.42857
5027.5 -4.71429
5028.5 1.42857
5029.5 -2.85714
5030.5 3.71429
5031.5 2.42857
5032.5 -1.14286
5033.5 2
5034.5 -1.28571
5035.5 1
5036.5 -4.14286
5037.5 1.42857
5038.5 0.714286
5039.5 0.428571
5040.5 1.71429
5041.5 0.857143
5042.5 -1.57143
5043.5 4.71429
5044.5 3
5045.5 -0.285714
5046.5 0.714286
5047.5 -1.57143
5048.5 1.71429
5049.5 1
5050.5 -0.857143
5051.5 1.71429
5052.5 1.42857
5053.5 1.71429
5054.5 -1.85714
5055.5 1
5056.5 5.71429
5057.5 4
5058.5 2.71429
5059.5 -4.42857
5060.5 1
5061.5 3
5062.5 -0.571429
5063.5 -0.285714
5064.5 -0.285714
5065.5 -5.14286
5066.5 1.42857
5067.5 -0.285714
5068.5 4
5069.5 -2.57143
5070.5 4.71429
5071.5 1.71429
5072.5 0.142857
5073.5 2.71429
5074.5 4.71429
5075.5 0.714286
5076.5 2.71429
5077.5 -0.571429
5078.5 0.142857
5079.5 -2.14286
5080.5 -3.71429
5081.5 2.85714
5082.5 -0.571429
5083.5 -0.142857
5084.5 3.71429
5085.5 -1.57143
5086.5 -1.57143
5087.5 -0.571429
5088.5 6
5089.5 1.42857
5090.5 2.42857
5091.5 1.71429
5092.5 -1.85714
5093.5 1.71429
5094.5 -2.85714
5095.5 -0.571429
5096.5 0.714286
5097.5 -1.28571
5098.5 -1.85714
5099.5 1.71429
5100.5 0.714286
5101.5 -0.571429
5102.5 0.142857
5103.5 7.42857
5104.5 3.71429
5105.5 1.42857
5106.5 0.428571
5107.5 1
5108.5 -1.85714
5109.5 1
5110.5 0.428571
5111.5 -2.57143
5112.5 1.71429
5113.5 6
5114.5 -3.14286
5115.5 -1.57143
5116.5 0
5117.5 -0.285714
5118.5 0.428571
5119.5 0.714286
5120.5 2
5121.5 -2.85714
5122.5 0.714286
5123.5 5.71429
5124.5 -1.28571
5125.5 1
5126.5 3.14286
5127.5 -4.14286
5128.5 -5.42857
5129.5 2
5130.5 -2.57143
5131.5 1
5132.5 -2.14286
5133.5 3.71429
5134.5 -4.14286
5135.5 2
5136.5 2.71429
5137.5 1.42857
5138.5 -0.857143
5139.5 -2.85714
5140.5 -1.57143
5141.5 -1.85714
5142.5 -3.14286
5143.5 0.428571
5144.5 3
5145.5 -4.42857
5146.5 0.428571
5147.5 0.714286
5148.5 2.42857
5149.5 3.71429
5150.5 2
5151.5 0.714286
5152.5 -1.57143
5153.5 -2.85714
5154.5 0.428571
5155.5 1.42857
5156.5 -1.57143
5157.5 -1.57143
5158.5 2.14286
5159.5 -1.57143
5160.5 1.42857
5161.5 2.42857
5162.5 2.42857
5163.5 -1.57143
5164.5 -0.571429
5165.5 2
5166.5 5
5167.5 1.71429
5168.5 0.142857
5169.5 2
5170.5 0
5171.5 3.71429
5172.5 1
5173.5 0.428571
5174.5 -1.85714
5175.5 -2.57143
5176.5 2.71429
5177.5 -0.285714
5178.5 -0.857143
5179.5 -0.285714
5180.5 2.71429
5181.5 -1.57143
5182.5 1.71429
5183.5 0.714286
5184.5 -1.57143
5185.5 -1.28571
5186.5 4.71429
5187.5 -0.285714
5188.5 5
5189.5 -3.42857
5190.5 4.14286
5191.5 2.42857
5192.5 1.42857
5193.5 0.428571
5194.5 3
5195.5 -1.57143
5196.5 -0.571429
5197.5 0
5198.5 2.71429
5199.5 -0.857143
5200.5 -0.285714
5201.5 -0.571429
5202.5 3
5203.5 -0.571429
5204.5 -0.857143
5205.5 -0.571429
5206.5 1.42857
5207.5 -1.57143
5208.5 2
5209.5 0.428571
5210.5 5
5211.5 -2.57143
5212.5 0.714286
5213.5 3
5214.5 -1.85714
5215.5 -0.571429
5216.5 -2.57143
5217.5 -0.285714
5218.5 -0.285714
5219.5 -0.571429
5220.5 -2.42857
5221.5 0
5222.5 1.42857
5223.5 0
5224.5 -2.57143
5225.5 -0.571429
5226.5 -1.28571
5227.5 4
5228.5 -0.571429
5229.5 0.428571
5230.5 -0.571429
5231.5 4
5232.5 1.14286
5233.5 3
5234.5 -4.14286
5235.5 5
5236.5 0.142857
5237.5 -1.57143
5238.5 1
5239.5 -0.285714
5240.5 1.42857
5241.5 -3.85714
5242.5 -2.85714
5243.5 2
5244.5 0.714286
5245.5 -2.85714
5246.5 -3.42857
5247.5 4
5248.5 -0.285714
5249.5 -1.57143
5250.5 0.714286
5251.5 2.71429
5252.5 3.71429
5253.5 0.714286
5254.5 -0.571429
5255.5 -1.14286
5256.5 2
5257.5 -0.857143
5258.5 -2.57143
5259.5 2
5260.5 -1.28571
5261.5 -0.857143
5262.5 -0.285714
5263.5 4.42857
5264.5 2.71429
5265.5 -3.85714
5266.5 4.42857
5267.5 0.142857
5268.5 -2.14286
5269.5 -5.71429
5270.5 0
5271.5 1.71429
5272.5 2
5273.5 2
5274.5 2
5275.5 1.71429
5276.5 -1.85714
5277.5 -0.571429
5278.5 -0.857143
5279.5 4.71429
5280.5 -0.571429
5281.5 -0.285714
5282.5 -1.14286
5283.5 -2.85714
5284.5 -0.571429
5285.5 0.428571
5286.5 4.71429
5287.5 3.71429
5288.5 2.42857
5289.5 1.71429
5290.5 -0.571429
5291.5 -0.857143
5292.5 1.42857
5293.5 -0.142857
5294.5 -5.71429
5295.5 -6.28571
5296.5 -3
5297.5 -4.71429
5298.5 -6.85714
5299.5 -4.28571
5300.5 -3.42857
5301.5 -1.71429
5302.5 -0.285714
5303.5 2.71429
5304.5 1.42857
5305.5 -4.14286
5306.5 -1.57143
5307.5 2.71429
5308.5 -0.571429
5309.5 1.42857
5310.5 1
5311.5 2.71429
5312.5 2
5313.5 2.71429
5314.5 0.714286
5315.5 -2.57143
5316.5 1
5317.5 -1.28571
5318.5 1.71429
5319.5 2.71429
5320.5 -2.57143
5321.5 -1.28571
5322.5 -0.571429
5323.5 -0.571429
5324.5 7
5325.5 2
5326.5 -4.42857
5327.5 3.71429
5328.5 0.714286
5329.5 5.71429
5330.5 -6.42857
5331.5 -3.42857
5332.5 3.71429
5333.5 -1.85714
5334.5 -0.285714
5335.5 0.714286
5336.5 -0.285714
5337.5 -1.57143
5338.5 0
5339.5 0
5340.5 -0.571429
5341.5 -1.57143
5342.5 1.42857
5343.5 1
5344.5 0.714286
5345.5 -0.285714
5346.5 0.714286
5347.5 1.14286
5348.5 -0.857143
5349.5 0.428571
5350.5 -0.142857
5351.5 0.714286
5352.5 -0.857143
5353.5 -0.142857
5354.5 1.57143
5355.5 -2.14286
5356.5 2.28571
5357.5 3.71429
5358.5 2.71429
5359.5 1
5360.5 -0.571429
5361.5 0
5362.5 0
5363.5 -0.571429
5364.5 2
5365.5 2
5366.5 -0.285714
5367.5 -0.571429
5368.5 -0.285714
5369.5 0.428571
5370.5 -1.85714
5371.5 -2.85714
5372.5 -0.857143
5373.5 2.71429
5374.5 -0.142857
5375.5 2
5376.5 -2.85714
5377.5 2
5378.5 -3.14286
5379.5 3
5380.5 -0.857143
5381.5 3
5382.5 -0.571429
5383.5 -0.285714
5384.5 0.428571
5385.5 -4.14286
5386.5 2.71429
5387.5 -5.42857
5388.5 3.14286
5389.5 -0.571429
5390.5 -0.857143
5391.5 0.142857
5392.5 4
5393.5 1.71429
5394.5 1.42857
5395.5 6.85714
5396.5 -7.28571
5397.5 3.42857
5398.5 -1.14286
5399.5 3.71429
5400.5 2.71429
5401.5 1.71429
5402.5 2.42857
5403.5 -1.28571
5404.5 1
5405.5 -0.571429
5406.5 -0.857143
5407.5 0.142857
5408.5 3
5409.5 -1.57143
5410.5 -0.571429
5411.5 -2.57143
5412.5 1
5413.5 1.42857
5414.5 2
5415.5 -0.285714
5416.5 -1.57143
5417.5 -1.28571
5418.5 -0.285714
5419.5 -0.285714
5420.5 -0.285714
5421.5 -0.571429
5422.5 2.71429
5423.5 0.714286
5424.5 0
5425.5 0
5426.5 -5.14286
5427.5 0.714286
5428.5 2
5429.5 0
5430.5 3
5431.5 0
5432.5 -0.285714
5433.5 -1.85714
5434.5 -1.57143
5435.5 -2.85714
5436.5 1
5437.5 -0.285714
5438.5 0
5439.5 -0.285714
5440.5 2
5441.5 0
5442.5 -1.57143
5443.5 -0.285714
5444.5 0.428571
5445.5 3
5446.5 0.714286
5447.5 -0.285714
5448.5 -1.85714
5449.5 2.71429
5450.5 -0.285714
5451.5 -0.285714
5452.5 -0.285714
5453.5 -0.571429
5454.5 -0.857143
5455.5 -1.57143
5456.5 -0.571429
5457.5 0.714286
5458.5 1
5459.5 -1.85714
5460.5 1.71429
5461.5 -1.85714
5462.5 0.714286
5463.5 -2.85714
5464.5 -1.28571
5465.5 2
5466.5 0.142857
5467.5 2
5468.5 3
5469.5 0.714286
5470.5 -1.14286
5471.5 -1.85714
5472.5 -0.285714
5473.5 -0.571429
5474.5 1
5475.5 2
5476.5 1.71429
5477.5 -0.571429
5478.5 4
5479.5 -0.285714
5480.5 -1.57143
5481.5 1
5482.5 2
5483.5 -1.57143
5484.5 2.42857
5485.5 1.71429
5486.5 0.714286
5487.5 2
5488.5 -1.85714
5489.5 -0.571429
5490.5 1
5491.5 0.714286
5492.5 -0.571429
5493.5 3
5494.5 5
5495.5 1.71429
5496.5 1
5497.5 3
5498.5 -1.28571
5499.5 -2.85714
5500.5 0
5501.5 3
5502.5 1.71429
5503.5 -1.85714
5504.5 -2.57143
5505.5 3
5506.5 -0.285714
5507.5 -1.28571
5508.5 -2.57143
5509.5 -1.85714
5510.5 0
5511.5 2.71429
5512.5 2.71429
5513.5 3.71429
5514.5 3
5515.5 -1.57143
5516.5 -0.428571
5517.5 -4.14286
5518.5 2
5519.5 2
5520.5 -0.571429
5521.5 -1.57143
5522.5 3
5523.5 1.71429
5524.5 1.71429
5525.5 2
5526.5 5
5527.5 -0.857143
5528.5 1
5529.5 0.714286
5530.5 -0.857143
5531.5 -1.85714
5532.5 3.14286
5533.5 6.42857
5534.5 -0.714286
5535.5 -2.14286
5536.5 8.57143
5537.5 0.857143
5538.5 -2
5539.5 -3.71429
5540.5 0.428571
5541.5 1.14286
5542.5 -3.14286
5543.5 2
5544.5 -2.57143
5545.5 2.71429
5546.5 2
5547.5 1
5548.5 -3.14286
5549.5 -0.285714
5550.5 0
5551.5 -1.57143
5552.5 3
5553.5 -2.85714
5554.5 -0.285714
5555.5 2
5556.5 -2.57143
5557.5 2.14286
5558.5 0.142857
5559.5 -2.85714
5560.5 0.142857
5561.5 0.714286
5562.5 2.42857
5563.5 0.428571
5564.5 1
5565.5 -2.57143
5566.5 0.428571
5567.5 2
5568.5 -1.28571
5569.5 -0.285714
5570.5 1
5571.5 -0.285714
5572.5 3
5573.5 0
5574.5 -0.571429
5575.5 -0.285714
5576.5 1.71429
5577.5 0.714286
5578.5 -1.85714
5579.5 1.71429
5580.5 -0.857143
5581.5 1.14286
5582.5 -1.57143
5583.5 -3.14286
5584.5 2.42857
5585.5 -1.28571
5586.5 -0.285714
5587.5 2.71429
5588.5 -0.571429
5589.5 2
5590.5 -6
5591.5 -3.28571
5592.5 -10.7143
5593.5 -7
5594.5 -0.857143
5595.5 1.42857
5596.5 1.42857
5597.5 -5.14286
5598.5 1
5599.5 2
5600.5 -2.85714
5601.5 1
5602.5 -2.57143
5603.5 -0.571429
5604.5 0.714286
5605.5 2.71429
5606.5 1
5607.5 5
5608.5 -0.571429
5609.5 1
5610.5 0.714286
5611.5 -0.571429
5612.5 1.42857
5613.5 5
5614.5 2.42857
5615.5 7
5616.5 0.142857
5617.5 1.71429
5618.5 -1.28571
5619.5 -1.57143
5620.5 -1.85714
5621.5 -0.571429
5622.5 -1.28571
5623.5 -1.57143
5624.5 0.142857
5625.5 -1.85714
5626.5 -0.571429
5627.5 1
5628.5 1
5629.5 0.428571
5630.5 -1.57143
5631.5 3
5632.5 1
5633.5 5
5634.5 2
5635.5 -0.285714
5636.5 -1.28571
5637.5 5
5638.5 -1.28571
5639.5 -0.857143
5640.5 -0.285714
5641.5 0
5642.5 2
5643.5 1
5644.5 1
5645.5 1
5646.5 -0.571429
5647.5 -0.285714
5648.5 0.714286
5649.5 -0.285714
5650.5 -0.285714
5651.5 -2.85714
5652.5 -1.28571
5653.5 0
5654.5 -0.857143
5655.5 -0.285714
5656.5 -0.285714
5657.5 0.714286
5658.5 1.71429
5659.5 1.71429
5660.5 1.71429
5661.5 0.714286
5662.5 -1.28571
5663.5 -1.57143
5664.5 4
5665.5 2
5666.5 -1.85714
5667.5 3
5668.5 1
5669.5 -0.285714
5670.5 -0.285714
5671.5 -0.285714
5672.5 1.71429
5673.5 1.42857
5674.5 -1.57143
5675.5 0
5676.5 2
5677.5 3
5678.5 1
5679.5 0.714286
5680.5 2
5681.5 -0.285714
5682.5 -1.57143
5683.5 1
5684.5 0.428571
5685.5 -0.285714
5686.5 0
5687.5 -1.57143
5688.5 2
5689.5 -0.285714
5690.5 4
5691.5 -0.285714
5692.5 1
5693.5 0
5694.5 -1.28571
5695.5 1
5696.5 2
5697.5 -0.285714
5698.5 2
5699.5 0.714286
5700.5 4.71429
5701.5 2
5702.5 3
5703.5 1
5704.5 1.42857
5705.5 0
5706.5 1
5707.5 3
5708.5 -0.571429
5709.5 0.714286
5710.5 -2.57143
5711.5 0.714286
5712.5 -1.57143
5713.5 2
5714.5 0.714286
5715.5 1.42857
5716.5 5
5717.5 -1.57143
5718.5 1
5719.5 2
5720.5 0.714286
5721.5 -2.14286
5722.5 3
5723.5 0.714286
5724.5 -1.28571
5725.5 -0.571429
5726.5 -1.28571
5727.5 -0.285714
5728.5 1
5729.5 -0.571429
5730.5 -2.57143
5731.5 -0.571429
5732.5 0.428571
5733.5 3
5734.5 -2.85714
5735.5 0.428571
5736.5 1
5737.5 3.71429
5738.5 1
5739.5 -2.85714
5740.5 -0.285714
5741.5 0
5742.5 -1.28571
5743.5 1
5744.5 2
5745.5 -0.285714
5746.5 0.714286
5747.5 2
5748.5 -2.57143
5749.5 1.42857
5750.5 0
5751.5 3.71429
5752.5 3
5753.5 -1.85714
5754.5 -2.57143
5755.5 -0.571429
5756.5 2
5757.5 -3.14286
5758.5 4
5759.5 2.42857
5760.5 0
5761.5 1.42857
5762.5 2
5763.5 -1.57143
5764.5 0
5765.5 1
5766.5 0.428571
5767.5 1
5768.5 -1.28571
5769.5 1
5770.5 2
5771.5 3
5772.5 3.71429
5773.5 3
5774.5 2
5775.5 4
5776.5 0
5777.5 -0.285714
5778.5 -2.57143
5779.5 -1.28571
5780.5 0
5781.5 1
5782.5 -3.85714
5783.5 3.71429
5784.5 0
5785.5 1
5786.5 -5.42857
5787.5 2
5788.5 2
5789.5 0.714286
5790.5 0.714286
5791.5 -0.285714
5792.5 -0.285714
5793.5 2
5794.5 0.714286
5795.5 -0.285714
5796.5 3
5797.5 1
5798.5 2
5799.5 0
5800.5 0.714286
5801.5 1.71429
5802.5 1
5803.5 3.71429
5804.5 2
5805.5 1
5806.5 2
5807.5 3
5808.5 -1.28571
5809.5 1
5810.5 0
5811.5 0
5812.5 1
5813.5 1
5814.5 0
5815.5 -0.285714
5816.5 0
5817.5 0
5818.5 0.714286
5819.5 -0.285714
5820.5 -0.285714
5821.5 -0.285714
5822.5 -1.57143
5823.5 1.42857
5824.5 -0.285714
5825.5 -1.28571
5826.5 2
5827.5 1
5828.5 2.42857
5829.5 -2.85714
5830.5 0.428571
5831.5 0.714286
5832.5 2
5833.5 4
5834.5 -0.285714
5835.5 -4.14286
5836.5 0.428571
5837.5 0.714286
5838.5 -2.57143
5839.5 1
5840.5 0
5841.5 2
5842.5 2.71429
5843.5 -4.14286
5844.5 0.714286
5845.5 -2.57143
5846.5 -0.285714
5847.5 -1.28571
5848.5 -0.285714
5849.5 1
5850.5 -1.28571
5851.5 0
5852.5 0.714286
5853.5 2
5854.5 2
5855.5 2
5856.5 1
5857.5 2
5858.5 -1.85714
5859.5 0.714286
5860.5 -1.28571
5861.5 -0.285714
5862.5 -2.57143
5863.5 -0.285714
5864.5 -1.57143
5865.5 -2.57143
5866.5 1
5867.5 1
5868.5 1
5869.5 1
5870.5 2
5871.5 0.714286
5872.5 -0.285714
5873.5 -2.85714
5874.5 -1.28571
5875.5 0
5876.5 2
5877.5 -0.285714
5878.5 -0.285714
5879.5 1.42857
5880.5 0.714286
5881.5 -0.285714
5882.5 0
5883.5 2
5884.5 -1.28571
5885.5 0.714286
5886.5 0.714286
5887.5 1
5888.5 1
5889.5 0
5890.5 -1.28571
5891.5 -1.28571
5892.5 -1.28571
5893.5 0
5894.5 3
5895.5 -1.85714
5896.5 -0.571429
5897.5 3.14286
5898.5 1.57143
5899.5 8.14286
5900.5 -4
5901.5 -3.57143
5902.5 -7
5903.5 -1.28571
5904.5 2
5905.5 8
5906.5 -1.85714
5907.5 1.71429
5908.5 -2.57143
5909.5 3
5910.5 -0.285714
5911.5 0.714286
5912.5 2
5913.5 0.714286
5914.5 0
5915.5 -1.28571
5916.5 2
5917.5 0
5918.5 0
5919.5 -0.571429
5920.5 1
5921.5 -1.57143
5922.5 -1.28571
5923.5 -0.285714
5924.5 0
5925.5 1
5926.5 0
5927.5 -1.28571
5928.5 -0.285714
5929.5 4
5930.5 -0.285714
5931.5 -1.28571
5932.5 0.714286
5933.5 1
5934.5 4
5935.5 -1.57143
5936.5 -0.285714
5937.5 -1.28571
5938.5 1
5939.5 -1.57143
5940.5 0.714286
5941.5 1
5942.5 0
5943.5 -0.285714
5944.5 0.428571
5945.5 -1.28571
5946.5 -0.285714
5947.5 1
5948.5 -2.85714
5949.5 -2.85714
5950.5 0
5951.5 1
5952.5 -2.57143
5953.5 1
5954.5 -1.28571
5955.5 -1.28571
5956.5 3
5957.5 3
5958.5 2
5959.5 -0.285714
5960.5 5
5961.5 0
5962.5 3
5963.5 -0.285714
5964.5 -0.285714
5965.5 -1.57143
5966.5 3
5967.5 3
5968.5 1.71429
5969.5 -1.57143
5970.5 -1.85714
5971.5 1
5972.5 3
5973.5 -2.85714
5974.5 1
5975.5 0.714286
5976.5 -1.28571
5977.5 -0.285714
5978.5 -0.571429
5979.5 1
5980.5 -2.57143
5981.5 2
5982.5 0.714286
5983.5 0
5984.5 0
5985.5 1
5986.5 0
5987.5 -1.57143
5988.5 -1.28571
5989.5 2
5990.5 -1.57143
5991.5 -1.28571
5992.5 1.71429
5993.5 0
5994.5 -3.85714
5995.5 1
5996.5 -0.285714
5997.5 1.71429
5998.5 0.142857
5999.5 3.42857
6000.5 4.71429
6001.5 1.14286
6002.5 -0.142857
6003.5 -6.42857
6004.5 1.42857
6005.5 2
6006.5 0
6007.5 -0.285714
6008.5 0
6009.5 1
6010.5 -1.28571
6011.5 0.714286
6012.5 -0.285714
6013.5 -2.57143
6014.5 -1.57143
6015.5 -0.285714
6016.5 0
6017.5 0.714286
6018.5 -0.857143
6019.5 -1.28571
6020.5 1.71429
6021.5 1
6022.5 -1.28571
6023.5 -1.28571
6024.5 1
6025.5 2
6026.5 -2.57143
6027.5 -3.85714
6028.5 0
6029.5 0.714286
6030.5 2
6031.5 -1.28571
6032.5 3.71429
6033.5 -1.28571
6034.5 0.714286
6035.5 -1.57143
6036.5 -1.28571
6037.5 -1.57143
6038.5 3
6039.5 -1.57143
6040.5 2
6041.5 -2.57143
6042.5 2
6043.5 3
6044.5 -1.28571
6045.5 1
6046.5 -0.285714
6047.5 -1.28571
6048.5 0
6049.5 0
6050.5 -0.285714
6051.5 -1.57143
6052.5 -2.57143
6053.5 -1.57143
6054.5 -1.28571
6055.5 0
6056.5 0
6057.5 -3.85714
6058.5 1
6059.5 -0.285714
6060.5 2
6061.5 -1.28571
6062.5 0
6063.5 1
6064.5 -1.57143
6065.5 0
6066.5 0
6067.5 2
6068.5 -0.285714
6069.5 0
6070.5 1
6071.5 0
6072.5 2
6073.5 0
6074.5 2
6075.5 0
6076.5 0
6077.5 1
6078.5 1
6079.5 -2.85714
6080.5 0
6081.5 -1.28571
6082.5 0
6083.5 0
6084.5 2
6085.5 0
6086.5 -0.285714
6087.5 1
6088.5 -1.28571
6089.5 -0.285714
6090.5 0.714286
6091.5 0
6092.5 1
6093.5 4
6094.5 0
6095.5 1
6096.5 0
6097.5 -2.57143
6098.5 1
6099.5 1
6100.5 0
6101.5 -0.285714
6102.5 1
6103.5 -2.57143
6104.5 0
6105.5 0.714286
6106.5 1.42857
6107.5 3
6108.5 2
6109.5 -2.57143
6110.5 0.714286
6111.5 0
6112.5 -1.57143
6113.5 -1.28571
6114.5 2
6115.5 -1.57143
6116.5 -2.85714
6117.5 2
6118.5 3
6119.5 -1.57143
6120.5 2.42857
6121.5 2
6122.5 0.428571
6123.5 0.428571
6124.5 6.42857
6125.5 2
6126.5 -1.57143
6127.5 1.42857
6128.5 2
6129.5 2.71429
6130.5 2
6131.5 1.71429
6132.5 2
6133.5 -1.28571
6134.5 -2.57143
6135.5 -1.57143
6136.5 -2.85714
6137.5 -1.57143
6138.5 3
6139.5 -1.28571
6140.5 -2.57143
6141.5 2
6142.5 -1.28571
6143.5 0
6144.5 -2.57143
6145.5 -0.285714
6146.5 -0.285714
6147.5 1
6148.5 1
6149.5 -1.28571
6150.5 0
6151.5 0
6152.5 0.714286
6153.5 -1.28571
6154.5 -0.285714
6155.5 -0.285714
6156.5 -1.28571
6157.5 2
6158.5 1
6159.5 2
6160.5 0
6161.5 1
6162.5 2
6163.5 1
6164.5 1
6165.5 0
6166.5 0
6167.5 0
6168.5 -0.285714
6169.5 0
6170.5 1
6171.5 2
6172.5 0
6173.5 -0.285714
6174.5 1
6175.5 0
6176.5 0
6177.5 -0.285714
6178.5 0
6179.5 0.714286
6180.5 -0.285714
6181.5 0
6182.5 1
6183.5 1
6184.5 2
6185.5 0.714286
6186.5 -0.285714
6187.5 0
6188.5 3
6189.5 1
6190.5 -1.28571
6191.5 -0.285714
6192.5 1
6193.5 -2.57143
6194.5 2
6195.5 0
6196.5 -1.28571
6197.5 -0.285714
6198.5 3
6199.5 2
6200.5 1
6201.5 0
6202.5 0
6203.5 1.71429
6204.5 0
6205.5 2
6206.5 0
6207.5 -1.28571
6208.5 -0.285714
6209.5 1
6210.5 -0.285714
6211.5 -1.28571
6212.5 0
6213.5 -1.28571
6214.5 1
6215.5 0
6216.5 0
6217.5 -1.57143
6218.5 0
6219.5 1
6220.5 2
6221.5 -0.285714
6222.5 0.714286
6223.5 1
6224.5 3
6225.5 0
6226.5 1.71429
6227.5 0
6228.5 3
6229.5 2
6230.5 -0.571429
6231.5 1
6232.5 -1.57143
6233.5 3
6234.5 0
6235.5 4
6236.5 0
6237.5 2
6238.5 1
6239.5 0
6240.5 0
6241.5 1
6242.5 -1.28571
6243.5 -1.28571
6244.5 -0.285714
6245.5 2
6246.5 0
6247.5 1
6248.5 -0.285714
6249.5 0
6250.5 0
6251.5 -1.28571
6252.5 1
6253.5 2
6254.5 -1.57143
6255.5 0.714286
6256.5 1
6257.5 -0.285714
6258.5 2
6259.5 2
6260.5 -1.28571
6261.5 0.428571
6262.5 -0.571429
6263.5 3
6264.5 -1.57143
6265.5 -1.28571
6266.5 -0.285714
6267.5 1
6268.5 1
6269.5 -0.285714
6270.5 -1.28571
6271.5 0
6272.5 0
6273.5 1
6274.5 0
6275.5 0
6276.5 1
6277.5 1
6278.5 0
6279.5 0
6280.5 0
6281.5 1
6282.5 -1.28571
6283.5 -1.28571
6284.5 1
6285.5 -1.28571
6286.5 0
6287.5 -2.57143
6288.5 0.714286
6289.5 0.714286
6290.5 0
6291.5 -1.28571
6292.5 0
6293.5 -1.28571
6294.5 1
6295.5 0
6296.5 1
6297.5 1
6298.5 1
6299.5 0
6300.5 0
6301.5 -0.285714
6302.5 1
6303.5 -3.85714
6304.5 0
6305.5 0
6306.5 1
6307.5 1
6308.5 0.714286
6309.5 -0.285714
6310.5 0
6311.5 0
6312.5 -1.28571
6313.5 1
6314.5 1
6315.5 1
6316.5 -1.28571
6317.5 -1.28571
6318.5 0
6319.5 0
6320.5 2
6321.5 1
6322.5 3
6323.5 1
6324.5 -1.28571
6325.5 2
6326.5 0
6327.5 0.714286
6328.5 -0.285714
6329.5 1
6330.5 0
6331.5 1
6332.5 2
6333.5 0
6334.5 0
6335.5 0
6336.5 0
6337.5 0
6338.5 -1.28571
6339.5 -1.28571
6340.5 0
6341.5 1
6342.5 0.714286
6343.5 0.714286
6344.5 -2.57143
6345.5 -1.85714
6346.5 2
6347.5 0
6348.5 -0.571429
6349.5 2
6350.5 0.714286
6351.5 0.714286
6352.5 -0.285714
6353.5 4
6354.5 0
6355.5 1
6356.5 0.714286
6357.5 0
6358.5 0
6359.5 -1.28571
6360.5 2
6361.5 1
6362.5 0
6363.5 1
6364.5 0
6365.5 1
6366.5 0
6367.5 0
6368.5 1
6369.5 1
6370.5 1
6371.5 1
6372.5 1
6373.5 0
6374.5 1
6375.5 0
6376.5 0
6377.5 0
6378.5 -1.28571
6379.5 -0.285714
6380.5 1
6381.5 1
6382.5 -1.28571
6383.5 0
6384.5 0
6385.5 0
6386.5 0
6387.5 0
6388.5 1
6389.5 0
6390.5 1
6391.5 4
6392.5 1
6393.5 2
6394.5 0
6395.5 -0.285714
6396.5 -1.28571
6397.5 1
6398.5 0
6399.5 1
6400.5 1
6401.5 -0.285714
6402.5 0
6403.5 0
6404.5 -1.28571
6405.5 -0.285714
6406.5 0
6407.5 1
6408.5 -1.28571
6409.5 2
6410.5 0
6411.5 -1.57143
6412.5 -0.285714
6413.5 -0.285714
6414.5 0
6415.5 3
6416.5 3
6417.5 4
6418.5 2
6419.5 1
6420.5 0.428571
6421.5 -0.571429
6422.5 -2.85714
6423.5 0.714286
6424.5 1
6425.5 0
6426.5 0
6427.5 2
6428.5 1
6429.5 1.71429
6430.5 0
6431.5 0.714286
6432.5 0
6433.5 0
6434.5 1
6435.5 -3.85714
6436.5 0
6437.5 -1.57143
6438.5 2
6439.5 0
6440.5 0
6441.5 0
6442.5 1
6443.5 0
6444.5 0
6445.5 0
6446.5 1
6447.5 0
6448.5 0
6449.5 0
6450.5 0
6451.5 -0.285714
6452.5 0
6453.5 1
6454.5 1
6455.5 0
6456.5 0
6457.5 0
6458.5 0
6459.5 0
6460.5 0.714286
6461.5 0
6462.5 -1.28571
6463.5 0
6464.5 0
6465.5 2
6466.5 2
6467.5 -1.28571
6468.5 0
6469.5 -1.28571
6470.5 1.71429
6471.5 1
6472.5 0
6473.5 0.714286
6474.5 0
6475.5 0.714286
6476.5 -1.85714
6477.5 -1.28571
6478.5 -2.85714
6479.5 -0.857143
6480.5 1
6481.5 5
6482.5 -1.28571
6483.5 -0.285714
6484.5 1.71429
6485.5 1
6486.5 1
6487.5 0
6488.5 1
6489.5 0
6490.5 1
6491.5 0
6492.5 1
6493.5 1
6494.5 -1.28571
6495.5 1
6496.5 2
6497.5 1
6498.5 -0.285714
6499.5 -0.285714
6500.5 0
6501.5 0
6502.5 0
6503.5 0
6504.5 0
6505.5 -1.28571
6506.5 2.71429
6507.5 0
6508.5 0
6509.5 4
6510.5 -1.28571
6511.5 0
6512.5 -2.57143
6513.5 2
6514.5 0
6515.5 -2.57143
6516.5 0
6517.5 0
6518.5 0
6519.5 0
6520.5 0
6521.5 0
6522.5 0
6523.5 -1.28571
6524.5 0
6525.5 1
6526.5 1
6527.5 -1.57143
6528.5 0
6529.5 1
6530.5 0
6531.5 1
6532.5 0
6533.5 1
6534.5 2
6535.5 0
6536.5 -3.85714
6537.5 1
6538.5 1
6539.5 0
6540.5 0
6541.5 2
6542.5 0
6543.5 -3.85714
6544.5 1
6545.5 2.71429
6546.5 -2.57143
6547.5 0.428571
6548.5 -1.28571
6549.5 -1.28571
6550.5 -2.57143
6551.5 -2.85714
6552.5 1
6553.5 0
6554.5 -1.28571
6555.5 0
6556.5 0
6557.5 -0.285714
6558.5 -1.28571
6559.5 -1.28571
6560.5 -0.285714
6561.5 0
6562.5 1
6563.5 2
6564.5 0.714286
6565.5 0
6566.5 -1.28571
6567.5 0
6568.5 1
6569.5 0
6570.5 0
6571.5 -1.28571
6572.5 0
6573.5 0
6574.5 0
6575.5 -1.57143
6576.5 -1.28571
6577.5 0
6578.5 1
6579.5 0
6580.5 -1.28571
6581.5 -1.28571
6582.5 1
6583.5 0
6584.5 0
6585.5 0
6586.5 -1.28571
6587.5 1
6588.5 3
6589.5 -0.285714
6590.5 -1.28571
6591.5 -1.28571
6592.5 0
6593.5 0
6594.5 1
6595.5 0
6596.5 -1.28571
6597.5 1.71429
6598.5 1
6599.5 2
6600.5 -1.28571
6601.5 2
6602.5 3.71429
6603.5 1
6604.5 0
6605.5 2
6606.5 -1.28571
6607.5 0
6608.5 1
6609.5 0
6610.5 1
6611.5 1
6612.5 -1.57143
6613.5 1
6614.5 -0.571429
6615.5 -1.57143
6616.5 2
6617.5 -0.285714
6618.5 -0.285714
6619.5 0.714286
6620.5 0
6621.5 -2.57143
6622.5 -0.285714
6623.5 0.714286
6624.5 -2.85714
6625.5 -1.28571
6626.5 -1.28571
6627.5 0
6628.5 0
6629.5 -0.285714
6630.5 1
6631.5 -1.28571
6632.5 0
6633.5 1
6634.5 0
6635.5 1
6636.5 -0.285714
6637.5 0
6638.5 0
6639.5 2
6640.5 1
6641.5 -1.28571
6642.5 0
6643.5 0
6644.5 -0.285714
6645.5 0
6646.5 0
6647.5 0
6648.5 0
6649.5 0
6650.5 0.714286
6651.5 0.714286
6652.5 0
6653.5 -1.28571
6654.5 1
6655.5 0
6656.5 3
6657.5 1
6658.5 0
6659.5 -0.285714
6660.5 0.714286
6661.5 0
6662.5 0
6663.5 0
6664.5 0
6665.5 -1.57143
6666.5 0
6667.5 0
6668.5 -1.28571
6669.5 0
6670.5 0
6671.5 2
6672.5 0
6673.5 -1.28571
6674.5 1
6675.5 0
6676.5 0
6677.5 -1.28571
6678.5 0
6679.5 1
6680.5 0
6681.5 -0.285714
6682.5 0
6683.5 0
6684.5 0
6685.5 -1.57143
6686.5 0
6687.5 1.71429
6688.5 1
6689.5 -1.28571
6690.5 -0.285714
6691.5 -2.57143
6692.5 -1.28571
6693.5 -0.285714
6694.5 1
6695.5 2
6696.5 0
6697.5 -1.28571
6698.5 1
6699.5 -1.28571
6700.5 1
6701.5 0
6702.5 0
6703.5 0
6704.5 -0.285714
6705.5 0
6706.5 -1.28571
6707.5 0
6708.5 0
6709.5 -2.57143
6710.5 2
6711.5 1
6712.5 2
6713.5 0
6714.5 -0.285714
6715.5 1
6716.5 1
6717.5 0
6718.5 -1.28571
6719.5 1
6720.5 1
6721.5 -1.28571
6722.5 0
6723.5 -1.28571
6724.5 2
6725.5 0
6726.5 0
6727.5 -1.28571
6728.5 0
6729.5 1
6730.5 -0.285714
6731.5 0
6732.5 0
6733.5 -1.28571
6734.5 -2.57143
6735.5 3
6736.5 1
6737.5 -1.28571
6738.5 -1.57143
6739.5 0
6740.5 0
6741.5 2
6742.5 1
6743.5 1
6744.5 2
6745.5 1
6746.5 0
6747.5 1
6748.5 0
6749.5 -0.285714
6750.5 0
6751.5 0
6752.5 1
6753.5 -1.28571
6754.5 0
6755.5 0
6756.5 0
6757.5 0
6758.5 2
6759.5 -1.28571
6760.5 0
6761.5 1
6762.5 0
6763.5 0
6764.5 -0.285714
6765.5 0.714286
6766.5 -2.57143
6767.5 -1.57143
6768.5 4
6769.5 0
6770.5 0
6771.5 3
6772.5 -2.85714
6773.5 -1.28571
6774.5 2
6775.5 -1.28571
6776.5 0
6777.5 0
6778.5 0
6779.5 2.71429
6780.5 -2.85714
6781.5 -0.571429
6782.5 0
6783.5 -1.28571
6784.5 2
6785.5 0
6786.5 0
6787.5 0
6788.5 0
6789.5 0
6790.5 1
6791.5 0
6792.5 1
6793.5 1
6794.5 -1.28571
6795.5 -1.28571
6796.5 1
6797.5 -1.28571
6798.5 1
6799.5 0
6800.5 -1.28571
6801.5 0
6802.5 -1.28571
6803.5 1
6804.5 -0.285714
6805.5 1
6806.5 -0.285714
6807.5 -0.285714
6808.5 0
6809.5 1
6810.5 0
6811.5 -1.57143
6812.5 0
6813.5 -1.28571
6814.5 0
6815.5 2
6816.5 1
6817.5 2
6818.5 0
6819.5 0
6820.5 0
6821.5 0
6822.5 1
6823.5 -1.28571
6824.5 -1.28571
6825.5 0.714286
6826.5 0.714286
6827.5 -1.57143
6828.5 0
6829.5 1
6830.5 0
6831.5 1
6832.5 0
6833.5 -1.28571
6834.5 0
6835.5 0
6836.5 -1.28571
6837.5 1
6838.5 1.71429
6839.5 1
6840.5 0
6841.5 1
6842.5 -1.28571
6843.5 0
6844.5 0
6845.5 1
6846.5 0
6847.5 2
6848.5 1
6849.5 0
6850.5 0
6851.5 0
6852.5 3
6853.5 0
6854.5 1
6855.5 -1.28571
6856.5 0
6857.5 1
6858.5 0
6859.5 -1.28571
6860.5 1
6861.5 0
6862.5 -0.285714
6863.5 1
6864.5 -2.57143
6865.5 -0.285714
6866.5 2
6867.5 1
6868.5 1
6869.5 2
6870.5 0
6871.5 0
6872.5 0
6873.5 -1.28571
6874.5 1
6875.5 -3.85714
6876.5 -0.285714
6877.5 -0.285714
6878.5 0
6879.5 -1.57143
6880.5 1
6881.5 -2.57143
6882.5 0
6883.5 1
6884.5 0
6885.5 0
6886.5 -1.28571
6887.5 -1.28571
6888.5 1
6889.5 0
6890.5 0
6891.5 1
6892.5 2
6893.5 1
6894.5 0
6895.5 1
6896.5 1
6897.5 1
6898.5 -1.28571
6899.5 2
6900.5 -2.57143
6901.5 2
6902.5 1
6903.5 0
6904.5 -1.28571
6905.5 0
6906.5 4
6907.5 -1.28571
6908.5 2
6909.5 -2.85714
6910.5 -0.285714
6911.5 3
6912.5 0
6913.5 0
6914.5 1
6915.5 1
6916.5 0
6917.5 1
6918.5 1
6919.5 0
6920.5 0
6921.5 -0.285714
6922.5 0.714286
6923.5 0
6924.5 -1.28571
6925.5 -1.28571
6926.5 0
6927.5 0
6928.5 -0.285714
6929.5 1
6930.5 -1.28571
6931.5 1
6932.5 2
6933.5 1
6934.5 0
6935.5 -1.28571
6936.5 0
6937.5 0
6938.5 1
6939.5 0
6940.5 1
6941.5 0
6942.5 1
6943.5 2
6944.5 1
6945.5 0
6946.5 0
6947.5 0
6948.5 1
6949.5 -0.285714
6950.5 0
6951.5 0
6952.5 0
6953.5 1
6954.5 -1.28571
6955.5 2
6956.5 2
6957.5 0
6958.5 0
6959.5 -1.28571
6960.5 1
6961.5 1
6962.5 -0.285714
6963.5 -1.28571
6964.5 0
6965.5 0
6966.5 0
6967.5 1
6968.5 0
6969.5 1
6970.5 0
6971.5 0
6972.5 1
6973.5 1
6974.5 2
6975.5 1
6976.5 0
6977.5 -1.28571
6978.5 -0.285714
6979.5 0
6980.5 0
6981.5 0
6982.5 -1.28571
6983.5 0
6984.5 1
6985.5 0
6986.5 0
6987.5 0
6988.5 0
6989.5 0
6990.5 1
6991.5 0
6992.5 0
6993.5 0
6994.5 0
6995.5 0
6996.5 0
6997.5 -1.28571
6998.5 0
6999.5 1
7000.5 -1.28571
7001.5 -0.285714
7002.5 -1.28571
7003.5 2
7004.5 0
7005.5 0
7006.5 -0.285714
7007.5 0
7008.5 0
7009.5 0
7010.5 0
7011.5 -2.57143
7012.5 0
7013.5 0
7014.5 0
7015.5 0
7016.5 2
7017.5 0
7018.5 0
7019.5 0
7020.5 0
7021.5 0
7022.5 0
7023.5 0
7024.5 0
7025.5 0
7026.5 -1.28571
7027.5 1
7028.5 0
7029.5 0
7030.5 1
7031.5 -1.28571
7032.5 0
7033.5 -1.28571
7034.5 2
7035.5 -2.57143
7036.5 1
7037.5 0
7038.5 1
7039.5 0
7040.5 -1.28571
7041.5 0
7042.5 0
7043.5 0
7044.5 1
7045.5 0
7046.5 0
7047.5 0
7048.5 -0.285714
7049.5 -1.28571
7050.5 0
7051.5 0
7052.5 1
7053.5 -0.285714
7054.5 0
7055.5 0
7056.5 -1.28571
7057.5 0
7058.5 1
7059.5 0
7060.5 -1.28571
7061.5 1
7062.5 2
7063.5 -1.28571
7064.5 0.714286
7065.5 -1.28571
7066.5 -1.28571
7067.5 -1.28571
7068.5 -0.285714
7069.5 0
7070.5 0
7071.5 0
7072.5 -1.28571
7073.5 0
7074.5 -1.28571
7075.5 -1.28571
7076.5 1
7077.5 -1.28571
7078.5 -1.28571
7079.5 0
7080.5 0
7081.5 0
7082.5 0
7083.5 1
7084.5 1
7085.5 -1.28571
7086.5 1
7087.5 1
7088.5 2
7089.5 0
7090.5 1
7091.5 0
7092.5 1
7093.5 1
7094.5 0
7095.5 0
7096.5 0.714286
7097.5 0
7098.5 0
7099.5 1
7100.5 0
7101.5 0
7102.5 0
7103.5 -1.28571
7104.5 0
7105.5 0
7106.5 -1.28571
7107.5 0
7108.5 2
7109.5 2
7110.5 0
7111.5 0
7112.5 0
7113.5 0
7114.5 1
7115.5 -1.28571
7116.5 -0.285714
7117.5 0
7118.5 2
7119.5 0
7120.5 1
7121.5 -1.28571
7122.5 1
7123.5 -0.285714
7124.5 0
7125.5 0
7126.5 -1.28571
7127.5 1
7128.5 0
7129.5 0
7130.5 0
7131.5 1
7132.5 0
7133.5 -1.28571
7134.5 0
7135.5 -1.28571
7136.5 0
7137.5 1
7138.5 1
7139.5 -0.285714
7140.5 0
7141.5 1
7142.5 0
7143.5 0
7144.5 -1.28571
7145.5 0
7146.5 -1.28571
7147.5 0
7148.5 0
7149.5 1
7150.5 1
7151.5 0
7152.5 0
7153.5 0
7154.5 0
7155.5 1
7156.5 0
7157.5 0
7158.5 0
7159.5 0
7160.5 2
7161.5 1
7162.5 0
7163.5 -1.28571
7164.5 1
7165.5 0
7166.5 0
7167.5 -0.285714
7168.5 0
7169.5 0
7170.5 0
7171.5 1
7172.5 0
7173.5 0
7174.5 0
7175.5 1
7176.5 1
7177.5 0
7178.5 1
7179.5 -0.285714
7180.5 0
7181.5 1
7182.5 -1.28571
7183.5 2
7184.5 0
7185.5 0
7186.5 1
7187.5 0
7188.5 0
7189.5 0
7190.5 1
7191.5 0
7192.5 0
7193.5 1
7194.5 0
7195.5 0
7196.5 0
7197.5 0
7198.5 0
7199.5 -1.28571
7200.5 1
7201.5 0.714286
7202.5 -1.28571
7203.5 2
7204.5 1
7205.5 0
7206.5 -1.28571
7207.5 1
7208.5 3
7209.5 -0.571429
7210.5 1
7211.5 1
7212.5 2
7213.5 2
7214.5 0
7215.5 1
7216.5 0
7217.5 -1.28571
7218.5 -1.28571
7219.5 1
7220.5 0
7221.5 1
7222.5 1
7223.5 0
7224.5 0
7225.5 -1.28571
7226.5 0
7227.5 1
7228.5 0
7229.5 0
7230.5 0
7231.5 0
7232.5 0
7233.5 0
7234.5 0
7235.5 0
7236.5 0
7237.5 0
7238.5 0
7239.5 0
7240.5 1
7241.5 0
7242.5 0
7243.5 -1.28571
7244.5 3
7245.5 -0.285714
7246.5 -0.285714
7247.5 0
7248.5 2
7249.5 0
7250.5 1
7251.5 0
7252.5 1
7253.5 0
7254.5 -0.285714
7255.5 0
7256.5 2
7257.5 -2.57143
7258.5 1.71429
7259.5 -0.571429
7260.5 1
7261.5 0.714286
7262.5 1
7263.5 -2.57143
7264.5 0
7265.5 0
7266.5 -1.28571
7267.5 0
7268.5 0
7269.5 1
7270.5 1
7271.5 0
7272.5 0
7273.5 1
7274.5 1
7275.5 0
7276.5 -1.28571
7277.5 0.714286
7278.5 1
7279.5 0
7280.5 0
7281.5 1
7282.5 0
7283.5 1
7284.5 1
7285.5 1
7286.5 0
7287.5 -1.28571
7288.5 1
7289.5 -1.28571
7290.5 0
7291.5 0
7292.5 -1.28571
7293.5 1
7294.5 0
7295.5 1
7296.5 0
7297.5 -1.28571
7298.5 2
7299.5 0
7300.5 -1.28571
7301.5 1
7302.5 0
7303.5 -0.285714
7304.5 0
7305.5 -1.28571
7306.5 1
7307.5 -1.28571
7308.5 1
7309.5 1
7310.5 -1.28571
7311.5 1
7312.5 0
7313.5 0
7314.5 0
7315.5 1
7316.5 -1.28571
7317.5 0.714286
7318.5 0
7319.5 0
7320.5 1
7321.5 -1.28571
7322.5 0
7323.5 2
7324.5 0
7325.5 1
7326.5 -0.285714
7327.5 0
7328.5 0
7329.5 0
7330.5 1
7331.5 1
7332.5 -1.28571
7333.5 0
7334.5 -1.28571
7335.5 0
7336.5 0
7337.5 -2.57143
7338.5 2
7339.5 1
7340.5 0
7341.5 0
7342.5 -1.28571
7343.5 1
7344.5 1
7345.5 -0.285714
7346.5 0
7347.5 -1.28571
7348.5 1
7349.5 -1.28571
7350.5 0
7351.5 0
7352.5 1
7353.5 0
7354.5 2
7355.5 -1.28571
7356.5 0
7357.5 0
7358.5 1
7359.5 1
7360.5 0
7361.5 0
7362.5 3
7363.5 2
7364.5 1
7365.5 0
7366.5 0
7367.5 1
7368.5 0
7369.5 0
7370.5 1
7371.5 -1.28571
7372.5 -1.28571
7373.5 0
7374.5 0
7375.5 0
7376.5 2
7377.5 0
7378.5 1
7379.5 1
7380.5 0
7381.5 0
7382.5 0
7383.5 1
7384.5 0
7385.5 -1.28571
7386.5 1
7387.5 -1.28571
7388.5 0
7389.5 0
7390.5 0
7391.5 1
7392.5 1
7393.5 1
7394.5 0
7395.5 0
7396.5 0
7397.5 0
7398.5 1
7399.5 0
7400.5 0.714286
7401.5 0
7402.5 0
7403.5 0
7404.5 0
7405.5 0
7406.5 0
7407.5 0
7408.5 2
7409.5 0.714286
7410.5 3
7411.5 0
7412.5 -2.57143
7413.5 -1.57143
7414.5 1.71429
7415.5 0
7416.5 0.714286
7417.5 1
7418.5 -1.28571
7419.5 0.428571
7420.5 1
7421.5 -2.57143
7422.5 -0.285714
7423.5 0
7424.5 0
7425.5 2
7426.5 0
7427.5 0
7428.5 0
7429.5 0
7430.5 1
7431.5 -1.28571
7432.5 1
7433.5 0
7434.5 0
7435.5 0
7436.5 1
7437.5 0
7438.5 0
7439.5 0
7440.5 0
7441.5 0
7442.5 0
7443.5 0
7444.5 1
7445.5 0
7446.5 0
7447.5 0
7448.5 0
7449.5 0
7450.5 0
7451.5 1
7452.5 0
7453.5 0
7454.5 -1.57143
7455.5 0
7456.5 1
7457.5 0
7458.5 0
7459.5 0
7460.5 1
7461.5 0
7462.5 0
7463.5 0
7464.5 0
7465.5 -1.28571
7466.5 0
7467.5 0
7468.5 0
7469.5 0
7470.5 0
7471.5 0
7472.5 2
7473.5 -0.285714
7474.5 1
7475.5 2
7476.5 0
7477.5 1
7478.5 0
7479.5 0
7480.5 0
7481.5 0
7482.5 1
7483.5 -1.28571
7484.5 0
7485.5 -1.28571
7486.5 0
7487.5 1
7488.5 0
7489.5 0
7490.5 0
7491.5 -1.28571
7492.5 0
7493.5 0
7494.5 -0.285714
7495.5 0
7496.5 0
7497.5 0
7498.5 0
7499.5 0
7500.5 1
7501.5 0
7502.5 0
7503.5 0
7504.5 -1.28571
7505.5 0
7506.5 0
7507.5 0
7508.5 0
7509.5 0
7510.5 0
7511.5 0
7512.5 -1.28571
7513.5 0
7514.5 0
7515.5 -1.28571
7516.5 0
7517.5 0
7518.5 0
7519.5 0
7520.5 0
7521.5 0
7522.5 -1.28571
7523.5 0
7524.5 0
7525.5 0
7526.5 1
7527.5 -2.57143
7528.5 0
7529.5 0
7530.5 1
7531.5 -0.285714
7532.5 0
7533.5 0
7534.5 0
7535.5 0
7536.5 0
7537.5 1
7538.5 1
7539.5 0
7540.5 0
7541.5 0
7542.5 0
7543.5 0
7544.5 1
7545.5 1
7546.5 -0.285714
7547.5 0
7548.5 0
7549.5 0
7550.5 0
7551.5 0
7552.5 0
7553.5 0
7554.5 0
7555.5 0
7556.5 0
7557.5 0
7558.5 -0.285714
7559.5 0
7560.5 1
7561.5 0
7562.5 0
7563.5 0
7564.5 0
7565.5 0
7566.5 0
7567.5 0
7568.5 0
7569.5 1
7570.5 1
7571.5 1
7572.5 -1.28571
7573.5 1
7574.5 -1.28571
7575.5 1
7576.5 1
7577.5 -1.28571
7578.5 0
7579.5 0
7580.5 0
7581.5 -1.28571
7582.5 0
7583.5 -0.285714
7584.5 0
7585.5 0
7586.5 0
7587.5 0
7588.5 0
7589.5 0
7590.5 1
7591.5 0
7592.5 0
7593.5 0
7594.5 0
7595.5 0
7596.5 1
7597.5 -1.28571
7598.5 1
7599.5 0
7600.5 0
7601.5 1
7602.5 0
7603.5 0
7604.5 0
7605.5 0
7606.5 -1.28571
7607.5 -0.285714
7608.5 0
7609.5 -1.28571
7610.5 1
7611.5 1
7612.5 -1.28571
7613.5 0
7614.5 0
7615.5 1
7616.5 0
7617.5 0
7618.5 0
7619.5 0
7620.5 0
7621.5 0
7622.5 1
7623.5 0
7624.5 1
7625.5 -0.285714
7626.5 -1.28571
7627.5 1
7628.5 0
7629.5 0
7630.5 -1.28571
7631.5 0
7632.5 -2.57143
7633.5 0.714286
7634.5 0
7635.5 0
7636.5 0
7637.5 0
7638.5 0
7639.5 0
7640.5 -1.28571
7641.5 0
7642.5 0
7643.5 1
7644.5 1
7645.5 -0.285714
7646.5 -1.28571
7647.5 -0.285714
7648.5 0
7649.5 -1.28571
7650.5 0
7651.5 0
7652.5 0
7653.5 1
7654.5 0
7655.5 0
7656.5 0
7657.5 0
7658.5 1
7659.5 0
7660.5 0
7661.5 0
7662.5 -1.28571
7663.5 0
7664.5 0
7665.5 0
7666.5 0
7667.5 1
7668.5 0
7669.5 0
7670.5 0
7671.5 0
7672.5 1
7673.5 -1.28571
7674.5 1
7675.5 2
7676.5 0
7677.5 0
7678.5 0
7679.5 0
7680.5 0
7681.5 0
7682.5 0
7683.5 1
7684.5 0
7685.5 0
7686.5 1
7687.5 0
7688.5 0
7689.5 -1.28571
7690.5 1
7691.5 1
7692.5 0
7693.5 0
7694.5 0
7695.5 -1.28571
7696.5 1
7697.5 0
7698.5 1
7699.5 0
7700.5 0
7701.5 0
7702.5 0
7703.5 1
7704.5 -1.28571
7705.5 -1.28571
7706.5 0
7707.5 0
7708.5 0
7709.5 0
7710.5 0
7711.5 0
7712.5 -1.28571
7713.5 0
7714.5 1
7715.5 0
7716.5 0
7717.5 0
7718.5 0
7719.5 0
7720.5 0
7721.5 0
7722.5 -0.285714
7723.5 1
7724.5 1
7725.5 0
7726.5 0
7727.5 0
7728.5 0
7729.5 0
7730.5 0
7731.5 1
7732.5 0
7733.5 1
7734.5 1
7735.5 0
7736.5 0
7737.5 0
7738.5 0
7739.5 0
7740.5 0
7741.5 0
7742.5 1
7743.5 0
7744.5 0
7745.5 0
7746.5 0
7747.5 0
7748.5 0
7749.5 0
7750.5 0
7751.5 0
7752.5 0
7753.5 0
7754.5 -1.28571
7755.5 -1.28571
7756.5 0
7757.5 0
7758.5 0
7759.5 1
7760.5 0
7761.5 0
7762.5 0
7763.5 0
7764.5 1
7765.5 0
7766.5 0
7767.5 -1.28571
7768.5 0
7769.5 2
7770.5 0
7771.5 1
7772.5 1
7773.5 3
7774.5 0.428571
7775.5 0
7776.5 1
7777.5 -1.28571
7778.5 0
7779.5 0
7780.5 0
7781.5 0
7782.5 0
7783.5 2
7784.5 1
7785.5 0
7786.5 2
7787.5 0
7788.5 0
7789.5 0
7790.5 0
7791.5 0
7792.5 0
7793.5 0
7794.5 1
7795.5 -1.28571
7796.5 0
7797.5 0
7798.5 0
7799.5 1
7800.5 0
7801.5 0
7802.5 0
7803.5 0
7804.5 1
7805.5 1
7806.5 0
7807.5 0
7808.5 0
7809.5 -1.28571
7810.5 0
7811.5 -1.28571
7812.5 0
7813.5 0
7814.5 1
7815.5 0
7816.5 0
7817.5 0
7818.5 0
7819.5 0
7820.5 0
7821.5 -0.571429
7822.5 0
7823.5 0
7824.5 1
7825.5 0
7826.5 0
7827.5 1
7828.5 0
7829.5 1
7830.5 -1.28571
7831.5 1
7832.5 1
7833.5 0
7834.5 1
7835.5 -1.28571
7836.5 0
7837.5 0
7838.5 0
7839.5 0
7840.5 0
7841.5 0
7842.5 0
7843.5 0
7844.5 0
7845.5 1
7846.5 0
7847.5 0
7848.5 0
7849.5 0
7850.5 -1.28571
7851.5 0
7852.5 0
7853.5 0
7854.5 0
7855.5 0
7856.5 0
7857.5 0
7858.5 0
7859.5 0
7860.5 -1.28571
7861.5 0
7862.5 0
7863.5 0
7864.5 0
7865.5 0
7866.5 0
7867.5 0
7868.5 1
7869.5 1
7870.5 0
7871.5 0
7872.5 0
7873.5 0
7874.5 0
7875.5 0
7876.5 0
7877.5 0
7878.5 1
7879.5 1
7880.5 1
7881.5 0
7882.5 0
7883.5 0
7884.5 0
7885.5 0
7886.5 0
7887.5 0
7888.5 -1.28571
7889.5 0
7890.5 0
7891.5 0
7892.5 0
7893.5 0
7894.5 0
7895.5 0
7896.5 0
7897.5 0
7898.5 0
7899.5 0
7900.5 0
7901.5 0
7902.5 0
7903.5 1
7904.5 0
7905.5 0
7906.5 0
7907.5 0
7908.5 0
7909.5 0
7910.5 0
7911.5 0
7912.5 0
7913.5 1
7914.5 -1.28571
7915.5 0
7916.5 0
7917.5 0
7918.5 0
7919.5 0
7920.5 0
7921.5 0
7922.5 0
7923.5 1
7924.5 0
7925.5 0
7926.5 0
7927.5 0
7928.5 1
7929.5 0
7930.5 0
7931.5 -1.28571
7932.5 1
7933.5 1
7934.5 0
7935.5 0
7936.5 0
7937.5 0
7938.5 0
7939.5 0
7940.5 0
7941.5 1
7942.5 0
7943.5 1
7944.5 0
7945.5 0
7946.5 0
7947.5 0
7948.5 0
7949.5 0
7950.5 0
7951.5 1
7952.5 -1.28571
7953.5 1
7954.5 0
7955.5 0
7956.5 0
7957.5 1
7958.5 -1.28571
7959.5 1
7960.5 0
7961.5 -1.28571
7962.5 0
7963.5 0
7964.5 0
7965.5 2
7966.5 0
7967.5 0
7968.5 -2.57143
7969.5 0
7970.5 0
7971.5 2
7972.5 1
7973.5 0
7974.5 1
7975.5 -0.285714
7976.5 0
7977.5 0
7978.5 2
7979.5 0
7980.5 1
7981.5 0
7982.5 0
7983.5 0
7984.5 0
7985.5 1
7986.5 0
7987.5 0
7988.5 0
7989.5 0
7990.5 0
7991.5 0
7992.5 0
7993.5 0
7994.5 0
7995.5 0
7996.5 0
7997.5 0
7998.5 0
7999.5 -1.28571
8000.5 -1.28571
8001.5 1
8002.5 0
8003.5 0
8004.5 0
8005.5 0
8006.5 0
8007.5 0
8008.5 0
8009.5 0
8010.5 -1.28571
8011.5 0
8012.5 2
8013.5 1
8014.5 0
8015.5 0
8016.5 0
8017.5 0
8018.5 0
8019.5 0
8020.5 0
8021.5 0
8022.5 0
8023.5 0
8024.5 0
8025.5 0
8026.5 0
8027.5 0
8028.5 0
8029.5 0
8030.5 0
8031.5 0
8032.5 0
8033.5 -1.28571
8034.5 0
8035.5 0
8036.5 0
8037.5 0
8038.5 0
8039.5 0
8040.5 -2.57143
8041.5 0
8042.5 1
8043.5 0
8044.5 0
8045.5 0
8046.5 0
8047.5 0
8048.5 0
8049.5 0
8050.5 0
8051.5 0
8052.5 -1.28571
8053.5 1
8054.5 0
8055.5 0
8056.5 0
8057.5 0
8058.5 0
8059.5 0
8060.5 0
8061.5 0
8062.5 0
8063.5 0
8064.5 0
8065.5 0
8066.5 0
8067.5 0
8068.5 0
8069.5 0
8070.5 0
8071.5 0
8072.5 0
8073.5 0
8074.5 -1.28571
8075.5 0
8076.5 0
8077.5 0
8078.5 0
8079.5 2
8080.5 0
8081.5 0
8082.5 1
8083.5 1
8084.5 0
8085.5 -1.28571
8086.5 1
8087.5 -0.285714
8088.5 -0.285714
8089.5 0
8090.5 0
8091.5 1
8092.5 0
8093.5 0
8094.5 0
8095.5 0
8096.5 0
8097.5 0
8098.5 0
8099.5 0
8100.5 0
8101.5 0
8102.5 0
8103.5 0
8104.5 0
8105.5 0
8106.5 0
8107.5 0
8108.5 1
8109.5 0
8110.5 0
8111.5 1
8112.5 0
8113.5 0
8114.5 0
8115.5 0
8116.5 -1.28571
8117.5 1
8118.5 -0.285714
8119.5 0
8120.5 0
8121.5 0
8122.5 0
8123.5 0
8124.5 0
8125.5 0
8126.5 0
8127.5 0
8128.5 1
8129.5 -1.57143
8130.5 0
8131.5 0
8132.5 0
8133.5 0
8134.5 0
8135.5 0
8136.5 0
8137.5 0
8138.5 0
8139.5 0
8140.5 0
8141.5 0
8142.5 0
8143.5 0
8144.5 0
8145.5 0
8146.5 0
8147.5 0
8148.5 0
8149.5 -1.28571
8150.5 0
8151.5 0
8152.5 0
8153.5 0
8154.5 0
8155.5 -1.28571
8156.5 0
8157.5 0
8158.5 0
8159.5 0
8160.5 0
8161.5 0
8162.5 0
8163.5 0
8164.5 -1.28571
8165.5 0
8166.5 0
8167.5 0
8168.5 -1.28571
8169.5 0
8170.5 1
8171.5 0
8172.5 0
8173.5 0
8174.5 0
8175.5 0
8176.5 0
8177.5 0
8178.5 0
8179.5 0
8180.5 -1.28571
8181.5 0
8182.5 0
8183.5 0
8184.5 0
8185.5 1
8186.5 -1.28571
8187.5 -1.28571
8188.5 0
8189.5 0
8190.5 0
8191.5 0
8192.5 0
8193.5 0
8194.5 0
8195.5 0
8196.5 0
8197.5 0
8198.5 0
8199.5 -1.28571
8200.5 0
8201.5 0
8202.5 -1.28571
8203.5 1
8204.5 -1.28571
8205.5 0
8206.5 0
8207.5 0
8208.5 0
8209.5 0
8210.5 0
8211.5 0
8212.5 3
8213.5 0
8214.5 1
8215.5 0
8216.5 0
8217.5 0
8218.5 0
8219.5 0
8220.5 0
8221.5 0
8222.5 0
8223.5 0
8224.5 0
8225.5 0
8226.5 0
8227.5 -1.28571
8228.5 0
8229.5 -0.285714
8230.5 0
8231.5 0
8232.5 0
8233.5 0
8234.5 0
8235.5 0
8236.5 0
8237.5 0
8238.5 0
8239.5 0
8240.5 -0.285714
8241.5 0
8242.5 0
8243.5 1
8244.5 -0.285714
8245.5 0
8246.5 -2.57143
8247.5 0
8248.5 0
8249.5 0
8250.5 0
8251.5 1
8252.5 1
8253.5 0
8254.5 0
8255.5 1
8256.5 0
8257.5 0
8258.5 0
8259.5 0
8260.5 0
8261.5 0
8262.5 0
8263.5 0
8264.5 1
8265.5 -1.28571
8266.5 0
8267.5 -1.28571
8268.5 0
8269.5 0
8270.5 0
8271.5 1
8272.5 -1.28571
8273.5 0
8274.5 1
8275.5 0
8276.5 0
8277.5 0
8278.5 0
8279.5 0
8280.5 0
8281.5 -1.28571
8282.5 0
8283.5 0
8284.5 0
8285.5 1
8286.5 0
8287.5 0
8288.5 0
8289.5 -1.28571
8290.5 0
8291.5 0
8292.5 0
8293.5 0
8294.5 -1.28571
8295.5 0
8296.5 0
8297.5 0
8298.5 1
8299.5 0
8300.5 0
8301.5 0
8302.5 0
8303.5 0
8304.5 0
8305.5 0
8306.5 0
8307.5 0
8308.5 0
8309.5 0
8310.5 0
8311.5 0
8312.5 0
8313.5 1
8314.5 0
8315.5 -1.28571
8316.5 0
8317.5 0
8318.5 0
8319.5 0
8320.5 0
8321.5 0
8322.5 0
8323.5 0
8324.5 0
8325.5 1
8326.5 0
8327.5 0
8328.5 1
8329.5 0
8330.5 0
8331.5 0
8332.5 0
8333.5 1
8334.5 0
8335.5 1
8336.5 -0.285714
8337.5 0
8338.5 0
8339.5 0
8340.5 0
8341.5 0
8342.5 0
8343.5 0
8344.5 0
8345.5 -0.285714
8346.5 -1.28571
8347.5 0
8348.5 0
8349.5 0
8350.5 0
8351.5 0
8352.5 -0.285714
8353.5 0
8354.5 0
8355.5 1
8356.5 0
8357.5 0
8358.5 0
8359.5 -1.28571
8360.5 -1.28571
8361.5 0
8362.5 -1.28571
8363.5 1
8364.5 0
8365.5 0
8366.5 0
8367.5 0
8368.5 0
8369.5 -1.28571
8370.5 0
8371.5 0
8372.5 0
8373.5 0
8374.5 0
8375.5 0
8376.5 0
8377.5 0
8378.5 -1.28571
8379.5 0
8380.5 0
8381.5 0
8382.5 0
8383.5 0
8384.5 -1.28571
8385.5 0
8386.5 0
8387.5 -1.28571
8388.5 0.714286
8389.5 0
8390.5 0
8391.5 0
8392.5 0
8393.5 0
8394.5 0
8395.5 0
8396.5 0
8397.5 0
8398.5 0
8399.5 0
8400.5 0
8401.5 0
8402.5 0
8403.5 0
8404.5 0
8405.5 0
8406.5 0
8407.5 0
8408.5 0
8409.5 0
8410.5 0
8411.5 0
8412.5 0
8413.5 0
8414.5 0
8415.5 0
8416.5 0
8417.5 0
8418.5 0
8419.5 0
8420.5 0
8421.5 0
8422.5 0
8423.5 0
8424.5 0
8425.5 0
8426.5 0
8427.5 0
8428.5 0
8429.5 0
8430.5 -1.28571
8431.5 0
8432.5 0
8433.5 0
8434.5 0
8435.5 0
8436.5 0
8437.5 0
8438.5 0
8439.5 -1.28571
8440.5 0
8441.5 0
8442.5 0
8443.5 1
8444.5 0
8445.5 0
8446.5 -1.28571
8447.5 -1.28571
8448.5 0
8449.5 1
8450.5 0
8451.5 0
8452.5 0
8453.5 0
8454.5 0
8455.5 0
8456.5 0
8457.5 0
8458.5 0
8459.5 0
8460.5 0
8461.5 -1.28571
8462.5 0
8463.5 0
8464.5 0
8465.5 0
8466.5 0
8467.5 1
8468.5 0
8469.5 0
8470.5 0
8471.5 1
8472.5 0
8473.5 0
8474.5 0
8475.5 -0.285714
8476.5 1
8477.5 0
8478.5 0
8479.5 0
8480.5 0
8481.5 -1.28571
8482.5 0
8483.5 0
8484.5 0
8485.5 0
8486.5 0
8487.5 0
8488.5 0
8489.5 0
8490.5 0
8491.5 0
8492.5 0
8493.5 0
8494.5 0
8495.5 0
8496.5 0
8497.5 1
8498.5 1
8499.5 0
8500.5 0
8501.5 0
8502.5 1
8503.5 -1.28571
8504.5 0
8505.5 0
8506.5 0
8507.5 -1.28571
8508.5 1
8509.5 0
8510.5 0
8511.5 0
8512.5 1
8513.5 0
8514.5 0
8515.5 -1.28571
8516.5 0
8517.5 0
8518.5 0
8519.5 0
8520.5 0
8521.5 0
8522.5 0
8523.5 0
8524.5 0
8525.5 0
8526.5 0
8527.5 0
8528.5 0
8529.5 0
8530.5 0
8531.5 0
8532.5 0
8533.5 0
8534.5 -1.28571
8535.5 0
8536.5 0
8537.5 1
8538.5 0
8539.5 0
8540.5 0
8541.5 0
8542.5 0
8543.5 0
8544.5 0
8545.5 0
8546.5 0
8547.5 0
8548.5 -0.285714
8549.5 1
8550.5 0
8551.5 -1.28571
8552.5 0
8553.5 0
8554.5 0
8555.5 0
8556.5 0
8557.5 0
8558.5 0
8559.5 1
8560.5 0
8561.5 0
8562.5 0
8563.5 0
8564.5 -1.28571
8565.5 0
8566.5 0
8567.5 0
8568.5 0
8569.5 0
8570.5 0
8571.5 1
8572.5 0
8573.5 -1.28571
8574.5 0
8575.5 -1.28571
8576.5 0
8577.5 0
8578.5 0
8579.5 0
8580.5 1
8581.5 0
8582.5 1
8583.5 0
8584.5 0
8585.5 0
8586.5 0
8587.5 0
8588.5 0
8589.5 0
8590.5 0
8591.5 0
8592.5 0
8593.5 1
8594.5 0
8595.5 0
8596.5 0
8597.5 0
8598.5 0
8599.5 0
8600.5 0
8601.5 0
8602.5 0
8603.5 0
8604.5 0
8605.5 0
8606.5 0
8607.5 0
8608.5 0
8609.5 0
8610.5 0
8611.5 1
8612.5 0
8613.5 0
8614.5 0
8615.5 0
8616.5 0
8617.5 0
8618.5 0
8619.5 -1.28571
8620.5 0
8621.5 0
8622.5 0
8623.5 0
8624.5 0
8625.5 0
8626.5 0
8627.5 0
8628.5 0
8629.5 0
8630.5 0
8631.5 0
8632.5 0
8633.5 0
8634.5 1
8635.5 0
8636.5 1
8637.5 0
8638.5 0
8639.5 0
8640.5 0
8641.5 -1.28571
8642.5 0
8643.5 0
8644.5 0
8645.5 0
8646.5 1
8647.5 0
8648.5 0
8649.5 0
8650.5 0
8651.5 0
8652.5 0
8653.5 0
8654.5 0
8655.5 -1.28571
8656.5 0
8657.5 0
8658.5 0
8659.5 0
8660.5 0
8661.5 0
8662.5 0
8663.5 1
8664.5 0
8665.5 0
8666.5 0
8667.5 0
8668.5 1
8669.5 0
8670.5 0
8671.5 0
8672.5 0
8673.5 0
8674.5 0
8675.5 0
8676.5 0
8677.5 0
8678.5 0
8679.5 0
8680.5 0
8681.5 0
8682.5 0
8683.5 0
8684.5 0
8685.5 0
8686.5 0
8687.5 1
8688.5 -1.57143
8689.5 0
8690.5 0
8691.5 0
8692.5 0
8693.5 0
8694.5 1
8695.5 0
8696.5 0
8697.5 0
8698.5 0
8699.5 0
8700.5 0
8701.5 0
8702.5 0
8703.5 1
8704.5 0
8705.5 0
8706.5 0
8707.5 0
8708.5 0
8709.5 0
8710.5 0
8711.5 0
8712.5 0
8713.5 0
8714.5 0
8715.5 0
8716.5 0
8717.5 0
8718.5 1
8719.5 0
8720.5 0
8721.5 0
8722.5 0
8723.5 0
8724.5 0
8725.5 0
8726.5 0
8727.5 0
8728.5 1
8729.5 0
8730.5 0
8731.5 0
8732.5 0
8733.5 0
8734.5 -1.28571
8735.5 0
8736.5 0
8737.5 0
8738.5 0
8739.5 0
8740.5 0
8741.5 0
8742.5 1
8743.5 -1.28571
8744.5 0
8745.5 0
8746.5 1
8747.5 0
8748.5 0
8749.5 0
8750.5 1
8751.5 0
8752.5 0
8753.5 0
8754.5 0
8755.5 0
8756.5 -1.28571
8757.5 0
8758.5 0
8759.5 0
8760.5 0
8761.5 0
8762.5 0
8763.5 0
8764.5 0
8765.5 0
8766.5 0
8767.5 0
8768.5 0
8769.5 0
8770.5 0
8771.5 0
8772.5 0
8773.5 0
8774.5 0
8775.5 0
8776.5 0
8777.5 0
8778.5 0
8779.5 1
8780.5 0
8781.5 0
8782.5 0
8783.5 -1.28571
8784.5 0
8785.5 0
8786.5 0
8787.5 0
8788.5 0
8789.5 0
8790.5 0
8791.5 0
8792.5 1
8793.5 0
8794.5 0
8795.5 0
8796.5 0
8797.5 0
8798.5 0
8799.5 0
8800.5 0
8801.5 0
8802.5 0
8803.5 0
8804.5 0
8805.5 0
8806.5 0
8807.5 0
8808.5 0
8809.5 0
8810.5 0
8811.5 0
8812.5 1
8813.5 0
8814.5 0
8815.5 0
8816.5 -0.285714
8817.5 -1.28571
8818.5 0
8819.5 0
8820.5 0
8821.5 0
8822.5 -1.28571
8823.5 0
8824.5 0
8825.5 0
8826.5 1
8827.5 0
8828.5 0
8829.5 0
8830.5 0
8831.5 0
8832.5 -1.28571
8833.5 0
8834.5 -1.28571
8835.5 0
8836.5 2
8837.5 -1.28571
8838.5 -1.28571
8839.5 0
8840.5 0
8841.5 0
8842.5 0
8843.5 0
8844.5 0
8845.5 1
8846.5 0
8847.5 0
8848.5 1
8849.5 0
8850.5 0
8851.5 0
8852.5 0
8853.5 0
8854.5 0
8855.5 1
8856.5 0
8857.5 0
8858.5 0
8859.5 0
8860.5 0
8861.5 0
8862.5 0
8863.5 0
8864.5 0
8865.5 0
8866.5 1
8867.5 0
8868.5 0
8869.5 0
8870.5 0
8871.5 0
8872.5 0
8873.5 0
8874.5 0
8875.5 0
8876.5 0
8877.5 0
8878.5 0
8879.5 0
8880.5 0
8881.5 0
8882.5 1
8883.5 -1.28571
8884.5 0
8885.5 0
8886.5 0
8887.5 0
8888.5 0
8889.5 0
8890.5 0
8891.5 1
8892.5 0
8893.5 0
8894.5 0
8895.5 0
8896.5 0
8897.5 0
8898.5 0
8899.5 1
8900.5 2
8901.5 0
8902.5 0
8903.5 0
8904.5 0
8905.5 0
8906.5 0
8907.5 0
8908.5 0
8909.5 0
8910.5 0
8911.5 0
8912.5 0
8913.5 0
8914.5 0
8915.5 0
8916.5 0
8917.5 0
8918.5 0
8919.5 0
8920.5 -1.28571
8921.5 0
8922.5 0
8923.5 0
8924.5 0
8925.5 0
8926.5 0
8927.5 0
8928.5 0
8929.5 0
8930.5 0
8931.5 0
8932.5 0
8933.5 0
8934.5 0
8935.5 0
8936.5 0
8937.5 0
8938.5 0
8939.5 0
8940.5 0
8941.5 0
8942.5 0
8943.5 0
8944.5 0
8945.5 0
8946.5 0
8947.5 1
8948.5 0
8949.5 0
8950.5 0
8951.5 0
8952.5 0
8953.5 1
8954.5 1
8955.5 -1.28571
8956.5 0
8957.5 0
8958.5 0
8959.5 0
8960.5 -1.28571
8961.5 0
8962.5 0
8963.5 0
8964.5 0
8965.5 0
8966.5 -0.285714
8967.5 1
8968.5 0
8969.5 1
8970.5 0
8971.5 0
8972.5 0
8973.5 -1.28571
8974.5 0
8975.5 1
8976.5 0
8977.5 0
8978.5 0
8979.5 0
8980.5 0
8981.5 0
8982.5 0
8983.5 0
8984.5 -1.28571
8985.5 0
8986.5 0
8987.5 0
8988.5 0
8989.5 0
8990.5 0
8991.5 0
8992.5 0
8993.5 1
8994.5 0
8995.5 0
8996.5 0
8997.5 0
8998.5 0
8999.5 0
9000.5 0
9001.5 0
9002.5 0
9003.5 0
9004.5 2
9005.5 0
9006.5 0
9007.5 0
9008.5 1
9009.5 0
9010.5 0
9011.5 0
9012.5 0
9013.5 0
9014.5 1
9015.5 0
9016.5 0
9017.5 0
9018.5 0
9019.5 -1.28571
9020.5 0
9021.5 0
9022.5 0
9023.5 1
9024.5 0
9025.5 0
9026.5 0
9027.5 0
9028.5 0
9029.5 0
9030.5 0
9031.5 0
9032.5 0
9033.5 0
9034.5 0
9035.5 0
9036.5 0
9037.5 0
9038.5 0
9039.5 0
9040.5 -0.285714
9041.5 0
9042.5 0
9043.5 0
9044.5 0
9045.5 0
9046.5 0
9047.5 0
9048.5 0
9049.5 1
9050.5 -1.28571
9051.5 0
9052.5 0
9053.5 1
9054.5 0
9055.5 0
9056.5 0
9057.5 -1.28571
9058.5 0
9059.5 0
9060.5 0
9061.5 0
9062.5 0
9063.5 0
9064.5 0
9065.5 0
9066.5 0
9067.5 0
9068.5 0
9069.5 0
9070.5 0
9071.5 0
9072.5 0
9073.5 0
9074.5 -1.28571
9075.5 -1.28571
9076.5 0
9077.5 0
9078.5 0
9079.5 0
9080.5 0
9081.5 0
9082.5 1
9083.5 0
9084.5 0
9085.5 1
9086.5 -1.28571
9087.5 -1.28571
9088.5 1
9089.5 1
9090.5 0
9091.5 0
9092.5 0
9093.5 0
9094.5 0
9095.5 0
9096.5 0
9097.5 0
9098.5 0
9099.5 0
9100.5 0
9101.5 -1.28571
9102.5 0
9103.5 0
9104.5 0
9105.5 0
9106.5 0
9107.5 0
9108.5 0
9109.5 0
9110.5 1
9111.5 0
9112.5 -1.28571
9113.5 0
9114.5 0
9115.5 0
9116.5 0
9117.5 0
9118.5 -1.28571
9119.5 0
9120.5 0
9121.5 0
9122.5 1
9123.5 0
9124.5 0
9125.5 0
9126.5 0
9127.5 0
9128.5 0
9129.5 0
9130.5 0
9131.5 1
9132.5 0
9133.5 0
9134.5 0
9135.5 -1.28571
9136.5 0
9137.5 0
9138.5 0
9139.5 0
9140.5 1
9141.5 0
9142.5 0
9143.5 0
9144.5 0
9145.5 0
9146.5 0
9147.5 0
9148.5 0
9149.5 0
9150.5 0
9151.5 1
9152.5 0
9153.5 0
9154.5 0
9155.5 0
9156.5 0
9157.5 0
9158.5 0
9159.5 0
9160.5 0
9161.5 0
9162.5 0
9163.5 -1.28571
9164.5 0
9165.5 0
9166.5 0
9167.5 0
9168.5 0
9169.5 1
9170.5 0
9171.5 1
9172.5 0
9173.5 0
9174.5 0
9175.5 0
9176.5 0
9177.5 0
9178.5 0
9179.5 0
9180.5 0
9181.5 0
9182.5 0
9183.5 -1.28571
9184.5 0
9185.5 0
9186.5 0
9187.5 0
9188.5 0
9189.5 0
9190.5 0
9191.5 0
9192.5 0
9193.5 0
9194.5 0
9195.5 0
9196.5 0
9197.5 0
9198.5 -1.28571
9199.5 0
9200.5 0
9201.5 0
9202.5 -1.28571
9203.5 0
9204.5 0
9205.5 0
9206.5 0
9207.5 0
9208.5 0
9209.5 0
9210.5 0
9211.5 0
9212.5 0
9213.5 0
9214.5 0
9215.5 0
9216.5 0
9217.5 0
9218.5 0
9219.5 0
9220.5 0
9221.5 0
9222.5 -1.28571
9223.5 0
9224.5 0
9225.5 0
9226.5 0
9227.5 0
9228.5 0
9229.5 0
9230.5 0
9231.5 0
9232.5 0
9233.5 -1.28571
9234.5 0
9235.5 0
9236.5 0
9237.5 0
9238.5 0
9239.5 0
9240.5 0
9241.5 0
9242.5 0
9243.5 0
9244.5 0
9245.5 0
9246.5 0
9247.5 0
9248.5 0
9249.5 0
9250.5 0
9251.5 0
9252.5 0
9253.5 0
9254.5 0
9255.5 -1.28571
9256.5 0
9257.5 0
9258.5 0
9259.5 0
9260.5 -1.28571
9261.5 -1.28571
9262.5 -1.28571
9263.5 0
9264.5 0
9265.5 0
9266.5 0
9267.5 0
9268.5 0
9269.5 0
9270.5 0
9271.5 0
9272.5 1
9273.5 0
9274.5 0
9275.5 0
9276.5 0
9277.5 0
9278.5 0
9279.5 0
9280.5 0
9281.5 0
9282.5 -1.28571
9283.5 0
9284.5 -0.285714
9285.5 -1.28571
9286.5 0
9287.5 0
9288.5 1
9289.5 0
9290.5 0
9291.5 0
9292.5 0
9293.5 0
9294.5 0
9295.5 0
9296.5 0
9297.5 0
9298.5 1
9299.5 2
9300.5 0
9301.5 0
9302.5 0
9303.5 0
9304.5 1
9305.5 0
9306.5 0
9307.5 0
9308.5 0
9309.5 0
9310.5 0
9311.5 0
9312.5 0
9313.5 0
9314.5 0
9315.5 1
9316.5 0
9317.5 0
9318.5 0
9319.5 0
9320.5 0
9321.5 0
9322.5 0
9323.5 0
9324.5 0
9325.5 0
9326.5 0
9327.5 0
9328.5 0
9329.5 0
9330.5 0
9331.5 0
9332.5 0
9333.5 0
9334.5 0
9335.5 0
9336.5 0
9337.5 1
9338.5 -1.28571
9339.5 0
9340.5 0
9341.5 0
9342.5 0
9343.5 0
9344.5 0
9345.5 -1.28571
9346.5 0
9347.5 0
9348.5 0
9349.5 0
9350.5 0
9351.5 0
9352.5 0
9353.5 0
9354.5 0
9355.5 0
9356.5 0
9357.5 0
9358.5 0
9359.5 0
9360.5 0
9361.5 0
9362.5 0
9363.5 0
9364.5 0
9365.5 0
9366.5 0
9367.5 0
9368.5 0
9369.5 0
9370.5 0
9371.5 0
9372.5 0
9373.5 0
9374.5 0
9375.5 0
9376.5 0
9377.5 0
9378.5 0
9379.5 0
9380.5 0
9381.5 0
9382.5 -1.28571
9383.5 0
9384.5 0
9385.5 0
9386.5 0
9387.5 0
9388.5 0
9389.5 0
9390.5 0
9391.5 0
9392.5 0
9393.5 0
9394.5 0
9395.5 0
9396.5 0
9397.5 0
9398.5 0
9399.5 0
9400.5 0
9401.5 0
9402.5 0
9403.5 0
9404.5 -1.28571
9405.5 0
9406.5 1
9407.5 0
9408.5 0
9409.5 0
9410.5 0
9411.5 0
9412.5 0
9413.5 -1.28571
9414.5 0
9415.5 0
9416.5 0
9417.5 0
9418.5 0
9419.5 0
9420.5 0
9421.5 0
9422.5 0
9423.5 0
9424.5 0
9425.5 0
9426.5 0
9427.5 0
9428.5 0
9429.5 1
9430.5 0
9431.5 0
9432.5 0
9433.5 1
9434.5 0
9435.5 0
9436.5 0
9437.5 0
9438.5 0
9439.5 0
9440.5 0
9441.5 0
9442.5 0
9443.5 0
9444.5 0
9445.5 0
9446.5 0
9447.5 0
9448.5 0
9449.5 0
9450.5 0
9451.5 0
9452.5 0
9453.5 1
9454.5 0
9455.5 0
9456.5 0
9457.5 0
9458.5 0
9459.5 1
9460.5 1
9461.5 0
9462.5 0
9463.5 0
9464.5 0
9465.5 0
9466.5 0
9467.5 0
9468.5 0
9469.5 0
9470.5 0
9471.5 0
9472.5 0
9473.5 0
9474.5 0
9475.5 0
9476.5 0
9477.5 0
9478.5 0
9479.5 0
9480.5 -1.28571
9481.5 -0.285714
9482.5 0
9483.5 -1.28571
9484.5 0
9485.5 0
9486.5 0
9487.5 0
9488.5 0
9489.5 1
9490.5 0
9491.5 0
9492.5 0
9493.5 0
9494.5 0
9495.5 0
9496.5 0
9497.5 0
9498.5 0
9499.5 0
9500.5 0
9501.5 0
9502.5 0
9503.5 0
9504.5 0
9505.5 0
9506.5 0
9507.5 0
9508.5 0
9509.5 0
9510.5 0
9511.5 0
9512.5 0
9513.5 0
9514.5 0
9515.5 0
9516.5 1
9517.5 0
9518.5 0
9519.5 0
9520.5 0
9521.5 0
9522.5 0
9523.5 0
9524.5 0
9525.5 0
9526.5 0
9527.5 0
9528.5 0
9529.5 0
9530.5 0
9531.5 0
9532.5 0
9533.5 0
9534.5 0
9535.5 0
9536.5 1
9537.5 0
9538.5 0
9539.5 0
9540.5 0
9541.5 0
9542.5 0
9543.5 0
9544.5 1
9545.5 0
9546.5 0
9547.5 0
9548.5 0
9549.5 0
9550.5 0
9551.5 -1.28571
9552.5 0
9553.5 0
9554.5 0
9555.5 0
9556.5 0
9557.5 0
9558.5 0
9559.5 0
9560.5 0
9561.5 0
9562.5 0
9563.5 -1.28571
9564.5 0
9565.5 0
9566.5 0
9567.5 0
9568.5 0
9569.5 0
9570.5 0
9571.5 0
9572.5 0
9573.5 0
9574.5 0
9575.5 0
9576.5 0
9577.5 1
9578.5 1
9579.5 0
9580.5 0
9581.5 0
9582.5 0
9583.5 0
9584.5 0
9585.5 0
9586.5 0
9587.5 0
9588.5 0
9589.5 0
9590.5 0
9591.5 0
9592.5 0
9593.5 0
9594.5 0
9595.5 0
9596.5 0
9597.5 0
9598.5 1
9599.5 0
9600.5 0
9601.5 0
9602.5 0
9603.5 0
9604.5 0
9605.5 0
9606.5 0
9607.5 0
9608.5 0
9609.5 1
9610.5 0
9611.5 1
9612.5 0
9613.5 0
9614.5 0
9615.5 0
9616.5 0
9617.5 0
9618.5 0
9619.5 0
9620.5 0
9621.5 0
9622.5 0
9623.5 0
9624.5 0
9625.5 0
9626.5 0
9627.5 0
9628.5 0
9629.5 0
9630.5 0
9631.5 0
9632.5 0
9633.5 0
9634.5 -0.285714
9635.5 0
9636.5 -1.28571
9637.5 0
9638.5 0
9639.5 0
9640.5 0
9641.5 0
9642.5 0
9643.5 0
9644.5 0
9645.5 0
9646.5 0
9647.5 1
9648.5 0
9649.5 0
9650.5 -1.28571
9651.5 0
9652.5 0
9653.5 0
9654.5 -1.28571
9655.5 0
9656.5 0
9657.5 0
9658.5 0
9659.5 0
9660.5 0
9661.5 0
9662.5 0
9663.5 0
9664.5 0
9665.5 0
9666.5 0
9667.5 0
9668.5 0
9669.5 0
9670.5 0
9671.5 0
9672.5 0
9673.5 0
9674.5 0
9675.5 0
9676.5 0
9677.5 0
9678.5 0
9679.5 0
9680.5 0
9681.5 0
9682.5 0
9683.5 0
9684.5 0
9685.5 0
9686.5 0
9687.5 0
9688.5 0
9689.5 0
9690.5 0
9691.5 0
9692.5 0
9693.5 0
9694.5 0
9695.5 0
9696.5 0
9697.5 0
9698.5 0
9699.5 1
9700.5 0
9701.5 0
9702.5 0
9703.5 0
9704.5 0
9705.5 0
9706.5 0
9707.5 0
9708.5 0
9709.5 0
9710.5 0
9711.5 0
9712.5 0
9713.5 0
9714.5 0
9715.5 0
9716.5 0
9717.5 0
9718.5 0
9719.5 0
9720.5 1
9721.5 0
9722.5 0
9723.5 0
9724.5 0
9725.5 0
9726.5 0
9727.5 0
9728.5 0
9729.5 0
9730.5 0
9731.5 -1.28571
9732.5 0
9733.5 0
9734.5 0
9735.5 0
9736.5 0
9737.5 0
9738.5 0
9739.5 0
9740.5 0
9741.5 0
9742.5 0
9743.5 0
9744.5 0
9745.5 0
9746.5 0
9747.5 0
9748.5 1
9749.5 0
9750.5 0
9751.5 0
9752.5 0
9753.5 0
9754.5 0
9755.5 0
9756.5 0
9757.5 0
9758.5 0
9759.5 1
9760.5 0
9761.5 0
9762.5 0
9763.5 0
9764.5 0
9765.5 0
9766.5 0
9767.5 0
9768.5 0
9769.5 0
9770.5 -1.28571
9771.5 0
9772.5 0
9773.5 0
9774.5 0
9775.5 0
9776.5 0
9777.5 0
9778.5 0
9779.5 0
9780.5 0
9781.5 0
9782.5 0
9783.5 0
9784.5 0
9785.5 0
9786.5 0
9787.5 0
9788.5 0
9789.5 1
9790.5 0
9791.5 0
9792.5 0
9793.5 0
9794.5 1
9795.5 0
9796.5 0
9797.5 0
9798.5 0
9799.5 0
9800.5 1
9801.5 0
9802.5 0
9803.5 0
9804.5 0
9805.5 0
9806.5 0
9807.5 0
9808.5 0
9809.5 0
9810.5 0
9811.5 0
9812.5 0
9813.5 0
9814.5 0
9815.5 0
9816.5 0
9817.5 0
9818.5 0
9819.5 0
9820.5 0
9821.5 0
9822.5 0
9823.5 0
9824.5 0
9825.5 0
9826.5 0
9827.5 0
9828.5 0
9829.5 0
9830.5 0
9831.5 0
9832.5 0
9833.5 0
9834.5 0
9835.5 0
9836.5 0
9837.5 0
9838.5 0
9839.5 0
9840.5 0
9841.5 0
9842.5 0
9843.5 0
9844.5 0
9845.5 0
9846.5 0
9847.5 0
9848.5 0
9849.5 0
9850.5 0
9851.5 0
9852.5 0
9853.5 0
9854.5 0
9855.5 0
9856.5 0
9857.5 0
9858.5 0
9859.5 0
9860.5 0
9861.5 0
9862.5 0
9863.5 0
9864.5 0
9865.5 0
9866.5 0
9867.5 0
9868.5 2
9869.5 0
9870.5 0
9871.5 -1.28571
9872.5 0
9873.5 0
9874.5 0
9875.5 0
9876.5 0
9877.5 0
9878.5 0
9879.5 0
9880.5 0
9881.5 0
9882.5 0
9883.5 0
9884.5 0
9885.5 0
9886.5 0
9887.5 0
9888.5 0
9889.5 0
9890.5 0
9891.5 1
9892.5 0
9893.5 1
9894.5 0
9895.5 0
9896.5 0
9897.5 0
9898.5 0
9899.5 0
9900.5 0
9901.5 0
9902.5 0
9903.5 0
9904.5 0
9905.5 0
9906.5 0
9907.5 0
9908.5 0
9909.5 0
9910.5 -1.28571
9911.5 0
9912.5 0
9913.5 0
9914.5 0
9915.5 1
9916.5 0
9917.5 0
9918.5 0
9919.5 0
9920.5 0
9921.5 0
9922.5 0
9923.5 0
9924.5 0
9925.5 0
9926.5 0
9927.5 0
9928.5 0
9929.5 0
9930.5 0
9931.5 0
9932.5 0
9933.5 0
9934.5 0
9935.5 0
9936.5 0
9937.5 0
9938.5 0
9939.5 0
9940.5 0
9941.5 0
9942.5 0
9943.5 0
9944.5 0
9945.5 0
9946.5 0
9947.5 0
9948.5 0
9949.5 0
9950.5 0
9951.5 0
9952.5 0
9953.5 0
9954.5 0
9955.5 0
9956.5 0
9957.5 0
9958.5 0
9959.5 0
9960.5 0
9961.5 0
9962.5 0
9963.5 0
9964.5 0
9965.5 0
9966.5 0
9967.5 0
9968.5 0
9969.5 0
9970.5 0
9971.5 0
9972.5 0
9973.5 0
9974.5 0
9975.5 0
9976.5 0
9977.5 0
9978.5 0
9979.5 0
9980.5 0
9981.5 0
9982.5 0
9983.5 0
9984.5 0
9985.5 0
9986.5 0
9987.5 0
9988.5 0
9989.5 0
9990.5 0
9991.5 0
9992.5 0
9993.5 0
9994.5 0
9995.5 0
9996.5 0
9997.5 0
9998.5 0
9999.5 0
10000.5 -1.28571
10001.5 0
10002.5 0
10003.5 0
10004.5 0
10005.5 0
10006.5 0
10007.5 0
10008.5 0
10009.5 0
10010.5 0
10011.5 0
10012.5 0
10013.5 0
10014.5 0
10015.5 0
10016.5 0
10017.5 0
10018.5 0
10019.5 0
10020.5 0
10021.5 0
10022.5 0
10023.5 0
10024.5 0
10025.5 0
10026.5 0
10027.5 0
10028.5 0
10029.5 0
10030.5 0
10031.5 0
10032.5 0
10033.5 0
10034.5 0
10035.5 0
10036.5 0
10037.5 0
10038.5 0
10039.5 0
10040.5 0
10041.5 0
10042.5 0
10043.5 0
10044.5 1
10045.5 0
10046.5 0
10047.5 0
10048.5 0
10049.5 0
10050.5 0
10051.5 0
10052.5 0
10053.5 0
10054.5 0
10055.5 0
10056.5 0
10057.5 0
10058.5 0
10059.5 0
10060.5 0
10061.5 0
10062.5 0
10063.5 0
10064.5 0
10065.5 0
10066.5 0
10067.5 0
10068.5 0
10069.5 0
10070.5 0
10071.5 0
10072.5 0
10073.5 0
10074.5 0
10075.5 0
10076.5 0
10077.5 0
10078.5 0
10079.5 0
10080.5 0
10081.5 0
10082.5 0
10083.5 0
10084.5 0
10085.5 0
10086.5 0
10087.5 0
10088.5 0
10089.5 0
10090.5 0
10091.5 0
10092.5 0
10093.5 0
10094.5 0
10095.5 0
10096.5 0
10097.5 0
10098.5 0
10099.5 0
10100.5 0
10101.5 0
10102.5 0
10103.5 0
10104.5 -1.28571
10105.5 0
10106.5 0
10107.5 0
10108.5 0
10109.5 0
10110.5 0
10111.5 0
10112.5 0
10113.5 0
10114.5 0
10115.5 0
10116.5 0
10117.5 0
10118.5 0
10119.5 0
10120.5 0
10121.5 0
10122.5 0
10123.5 0
10124.5 0
10125.5 0
10126.5 0
10127.5 0
10128.5 0
10129.5 0
10130.5 0
10131.5 0
10132.5 0
10133.5 0
10134.5 0
10135.5 0
10136.5 0
10137.5 0
10138.5 0
10139.5 0
10140.5 0
10141.5 0
10142.5 0
10143.5 0
10144.5 0
10145.5 0
10146.5 0
10147.5 0
10148.5 0
10149.5 0
10150.5 0
10151.5 0
10152.5 0
10153.5 0
10154.5 0
10155.5 0
10156.5 0
10157.5 0
10158.5 0
10159.5 0
10160.5 0
10161.5 0
10162.5 0
10163.5 0
10164.5 0
10165.5 0
10166.5 0
10167.5 0
10168.5 0
10169.5 0
10170.5 0
10171.5 0
10172.5 0
10173.5 0
10174.5 0
10175.5 0
10176.5 0
10177.5 0
10178.5 0
10179.5 0
10180.5 0
10181.5 0
10182.5 0
10183.5 0
10184.5 0
10185.5 0
10186.5 0
10187.5 0
10188.5 0
10189.5 0
10190.5 1
10191.5 0
10192.5 0
10193.5 0
10194.5 0
10195.5 0
10196.5 0
10197.5 0
10198.5 0
10199.5 0
10200.5 0
10201.5 0
10202.5 0
10203.5 0
10204.5 0
10205.5 0
10206.5 0
10207.5 0
10208.5 0
10209.5 0
10210.5 0
10211.5 0
10212.5 0
10213.5 0
10214.5 0
10215.5 0
10216.5 0
10217.5 0
10218.5 0
10219.5 0
10220.5 0
10221.5 0
10222.5 0
10223.5 0
10224.5 0
10225.5 0
10226.5 0
10227.5 0
10228.5 1
10229.5 0
10230.5 0
10231.5 0
10232.5 0
10233.5 0
10234.5 0
10235.5 0
10236.5 0
10237.5 0
10238.5 0
10239.5 0
10240.5 0
10241.5 0
10242.5 0
10243.5 0
10244.5 0
10245.5 0
10246.5 0
10247.5 0
10248.5 0
10249.5 0
10250.5 0
10251.5 0
10252.5 0
10253.5 0
10254.5 0
10255.5 0
10256.5 0
10257.5 0
10258.5 0
10259.5 0
10260.5 0
10261.5 0
10262.5 0
10263.5 0
10264.5 0
10265.5 0
10266.5 0
10267.5 0
10268.5 0
10269.5 0
10270.5 0
10271.5 0
10272.5 0
10273.5 0
10274.5 0
10275.5 0
10276.5 0
10277.5 0
10278.5 0
10279.5 0
10280.5 0
10281.5 0
10282.5 0
10283.5 0
10284.5 0
10285.5 0
10286.5 0
10287.5 0
10288.5 0
10289.5 0
10290.5 0
10291.5 0
10292.5 0
10293.5 0
10294.5 0
10295.5 0
10296.5 0
10297.5 0
10298.5 0
10299.5 0
10300.5 0
10301.5 0
10302.5 0
10303.5 0
10304.5 0
10305.5 0
10306.5 0
10307.5 0
10308.5 0
10309.5 0
10310.5 0
10311.5 0
10312.5 0
10313.5 0
10314.5 -1.28571
10315.5 0
10316.5 0
10317.5 0
10318.5 0
10319.5 0
10320.5 0
10321.5 0
10322.5 0
10323.5 0
10324.5 0
10325.5 0
10326.5 0
10327.5 0
10328.5 0
10329.5 0
10330.5 0
10331.5 0
10332.5 0
10333.5 0
10334.5 0
10335.5 0
10336.5 0
10337.5 0
10338.5 0
10339.5 0
10340.5 0
10341.5 0
10342.5 0
10343.5 0
10344.5 0
10345.5 0
10346.5 0
10347.5 0
10348.5 0
10349.5 0
10350.5 0
10351.5 0
10352.5 0
10353.5 0
10354.5 0
10355.5 0
10356.5 0
10357.5 0
10358.5 0
10359.5 0
10360.5 0
10361.5 0
10362.5 0
10363.5 0
10364.5 0
10365.5 0
10366.5 0
10367.5 0
10368.5 0
10369.5 0
10370.5 1
10371.5 0
10372.5 0
10373.5 0
10374.5 0
10375.5 0
10376.5 0
10377.5 0
10378.5 0
10379.5 0
10380.5 0
10381.5 0
10382.5 0
10383.5 0
10384.5 0
10385.5 0
10386.5 0
10387.5 0
10388.5 0
10389.5 0
10390.5 0
10391.5 0
10392.5 0
10393.5 0
10394.5 0
10395.5 0
10396.5 0
10397.5 0
10398.5 0
10399.5 0
10400.5 0
10401.5 0
10402.5 0
10403.5 0
10404.5 0
10405.5 0
10406.5 0
10407.5 0
10408.5 0
10409.5 0
10410.5 0
10411.5 0
10412.5 0
10413.5 0
10414.5 0
10415.5 0
10416.5 0
10417.5 0
10418.5 0
10419.5 0
10420.5 0
10421.5 0
10422.5 0
10423.5 0
10424.5 0
10425.5 0
10426.5 0
10427.5 0
10428.5 0
10429.5 0
10430.5 0
10431.5 0
10432.5 0
10433.5 0
10434.5 0
10435.5 0
10436.5 0
10437.5 0
10438.5 0
10439.5 0
10440.5 0
10441.5 0
10442.5 0
10443.5 0
10444.5 0
10445.5 0
10446.5 0
10447.5 0
10448.5 0
10449.5 0
10450.5 0
10451.5 0
10452.5 0
10453.5 0
10454.5 0
10455.5 0
10456.5 0
10457.5 0
10458.5 0
10459.5 0
10460.5 0
10461.5 0
10462.5 0
10463.5 0
10464.5 0
10465.5 0
10466.5 0
10467.5 0
10468.5 0
10469.5 0
10470.5 0
10471.5 0
10472.5 0
10473.5 0
10474.5 0
10475.5 0
10476.5 0
10477.5 0
10478.5 0
10479.5 0
10480.5 0
10481.5 0
10482.5 0
10483.5 0
10484.5 0
10485.5 0
10486.5 0
10487.5 0
10488.5 0
10489.5 0
10490.5 0
10491.5 0
10492.5 0
10493.5 0
10494.5 0
10495.5 0
10496.5 0
10497.5 0
10498.5 0
10499.5 1
10500.5 0
10501.5 0
10502.5 0
10503.5 0
10504.5 0
10505.5 0
10506.5 0
10507.5 0
10508.5 0
10509.5 0
10510.5 0
10511.5 0
10512.5 0
10513.5 0
10514.5 0
10515.5 0
10516.5 0
10517.5 0
10518.5 0
10519.5 0
10520.5 0
10521.5 0
10522.5 0
10523.5 0
10524.5 0
10525.5 0
10526.5 0
10527.5 0
10528.5 0
10529.5 0
10530.5 0
10531.5 0
10532.5 0
10533.5 0
10534.5 0
10535.5 0
10536.5 0
10537.5 0
10538.5 0
10539.5 0
10540.5 0
10541.5 0
10542.5 0
10543.5 0
10544.5 0
10545.5 0
10546.5 0
10547.5 0
10548.5 0
10549.5 0
10550.5 0
10551.5 0
10552.5 0
10553.5 0
10554.5 0
10555.5 0
10556.5 0
10557.5 0
10558.5 0
10559.5 0
10560.5 0
10561.5 0
10562.5 0
10563.5 0
10564.5 0
10565.5 0
10566.5 0
10567.5 0
10568.5 0
10569.5 0
10570.5 0
10571.5 1
10572.5 0
10573.5 0
10574.5 0
10575.5 0
10576.5 0
10577.5 0
10578.5 0
10579.5 0
10580.5 0
10581.5 0
10582.5 0
10583.5 0
10584.5 0
10585.5 0
10586.5 0
10587.5 0
10588.5 0
10589.5 0
10590.5 0
10591.5 0
10592.5 0
10593.5 0
10594.5 0
10595.5 0
10596.5 0
10597.5 0
10598.5 0
10599.5 0
10600.5 0
10601.5 0
10602.5 0
10603.5 0
10604.5 0
10605.5 0
10606.5 0
10607.5 0
10608.5 0
10609.5 0
10610.5 0
10611.5 0
10612.5 0
10613.5 0
10614.5 0
10615.5 0
10616.5 0
10617.5 0
10618.5 -1.28571
10619.5 0
10620.5 0
10621.5 0
10622.5 0
10623.5 0
10624.5 0
10625.5 0
10626.5 0
10627.5 0
10628.5 0
10629.5 0
10630.5 0
10631.5 0
10632.5 0
10633.5 0
10634.5 0
10635.5 0
10636.5 0
10637.5 0
10638.5 0
10639.5 0
10640.5 0
10641.5 0
10642.5 0
10643.5 0
10644.5 0
10645.5 0
10646.5 0
10647.5 0
10648.5 0
10649.5 0
10650.5 0
10651.5 0
10652.5 0
10653.5 0
10654.5 0
10655.5 0
10656.5 0
10657.5 0
10658.5 0
10659.5 0
10660.5 0
10661.5 0
10662.5 0
10663.5 0
10664.5 0
10665.5 0
10666.5 0
10667.5 0
10668.5 0
10669.5 0
10670.5 0
10671.5 0
10672.5 0
10673.5 0
10674.5 0
10675.5 0
10676.5 0
10677.5 0
10678.5 0
10679.5 0
10680.5 0
10681.5 0
10682.5 0
10683.5 0
10684.5 0
10685.5 0
10686.5 0
10687.5 0
10688.5 0
10689.5 0
10690.5 0
10691.5 0
10692.5 0
10693.5 0
10694.5 0
10695.5 0
10696.5 0
10697.5 0
10698.5 0
10699.5 0
10700.5 0
10701.5 0
10702.5 0
10703.5 0
10704.5 0
10705.5 0
10706.5 0
10707.5 0
10708.5 0
10709.5 0
10710.5 0
10711.5 0
10712.5 0
10713.5 0
10714.5 0
10715.5 0
10716.5 0
10717.5 0
10718.5 0
10719.5 0
10720.5 0
10721.5 0
10722.5 0
10723.5 0
10724.5 0
10725.5 0
10726.5 0
10727.5 -1.28571
10728.5 0
10729.5 0
10730.5 0
10731.5 0
10732.5 0
10733.5 0
10734.5 0
10735.5 0
10736.5 0
10737.5 0
10738.5 0
10739.5 0
10740.5 0
10741.5 0
10742.5 0
10743.5 0
10744.5 0
10745.5 0
10746.5 0
10747.5 0
10748.5 0
10749.5 0
10750.5 0
10751.5 0
10752.5 0
10753.5 0
10754.5 0
10755.5 0
10756.5 0
10757.5 0
10758.5 0
10759.5 0
10760.5 0
10761.5 0
10762.5 0
10763.5 0
10764.5 0
10765.5 0
10766.5 0
10767.5 0
10768.5 0
10769.5 0
10770.5 0
10771.5 0
10772.5 0
10773.5 0
10774.5 0
10775.5 0
10776.5 0
10777.5 0
10778.5 0
10779.5 0
10780.5 0
10781.5 0
10782.5 0
10783.5 0
10784.5 0
10785.5 0
10786.5 0
10787.5 0
10788.5 0
10789.5 0
10790.5 0
10791.5 0
10792.5 0
10793.5 0
10794.5 0
10795.5 0
10796.5 0
10797.5 0
10798.5 0
10799.5 0
10800.5 0
10801.5 0
10802.5 0
10803.5 0
10804.5 0
10805.5 0
10806.5 0
10807.5 0
10808.5 0
10809.5 0
10810.5 0
10811.5 0
10812.5 0
10813.5 0
10814.5 0
10815.5 0
10816.5 0
10817.5 0
10818.5 0
10819.5 0
10820.5 0
10821.5 0
10822.5 0
10823.5 0
10824.5 0
10825.5 0
10826.5 0
10827.5 0
10828.5 0
10829.5 0
10830.5 0
10831.5 0
10832.5 0
10833.5 0
10834.5 0
10835.5 0
10836.5 0
10837.5 0
10838.5 0
10839.5 0
10840.5 0
10841.5 0
10842.5 0
10843.5 0
10844.5 0
10845.5 0
10846.5 0
10847.5 0
10848.5 0
10849.5 0
10850.5 0
10851.5 0
10852.5 0
10853.5 0
10854.5 0
10855.5 0
10856.5 0
10857.5 0
10858.5 0
10859.5 0
10860.5 0
10861.5 0
10862.5 0
10863.5 0
10864.5 0
10865.5 0
10866.5 0
10867.5 0
10868.5 -1.28571
10869.5 0
10870.5 0
10871.5 0
10872.5 0
10873.5 0
10874.5 0
10875.5 0
10876.5 0
10877.5 0
10878.5 1
10879.5 0
10880.5 0
10881.5 0
10882.5 0
10883.5 0
10884.5 0
10885.5 0
10886.5 0
10887.5 0
10888.5 0
10889.5 0
10890.5 0
10891.5 0
10892.5 0
10893.5 0
10894.5 0
10895.5 0
10896.5 0
10897.5 0
10898.5 0
10899.5 0
10900.5 0
10901.5 0
10902.5 0
10903.5 0
10904.5 0
10905.5 0
10906.5 0
10907.5 0
10908.5 0
10909.5 0
10910.5 0
10911.5 0
10912.5 0
10913.5 0
10914.5 0
10915.5 0
10916.5 0
10917.5 0
10918.5 0
10919.5 0
10920.5 0
10921.5 0
10922.5 0
10923.5 0
10924.5 0
10925.5 0
10926.5 0
10927.5 0
10928.5 0
10929.5 0
10930.5 0
10931.5 0
10932.5 0
10933.5 0
10934.5 0
10935.5 0
10936.5 0
10937.5 0
10938.5 0
10939.5 0
10940.5 0
10941.5 0
10942.5 0
10943.5 0
10944.5 0
10945.5 0
10946.5 0
10947.5 0
10948.5 0
10949.5 0
10950.5 0
10951.5 0
10952.5 0
10953.5 0
10954.5 0
10955.5 0
10956.5 0
10957.5 0
10958.5 0
10959.5 0
10960.5 0
10961.5 0
10962.5 0
10963.5 0
10964.5 0
10965.5 0
10966.5 0
10967.5 0
10968.5 0
10969.5 0
10970.5 0
10971.5 0
10972.5 0
10973.5 0
10974.5 0
10975.5 0
10976.5 0
10977.5 0
10978.5 0
10979.5 0
10980.5 0
10981.5 0
10982.5 0
10983.5 0
10984.5 0
10985.5 0
10986.5 0
10987.5 0
10988.5 0
10989.5 0
10990.5 0
10991.5 0
10992.5 0
10993.5 0
10994.5 0
10995.5 0
10996.5 0
10997.5 0
10998.5 0
10999.5 0
11000.5 0
11001.5 0
11002.5 0
11003.5 0
11004.5 0
11005.5 0
11006.5 0
11007.5 0
11008.5 0
11009.5 0
11010.5 0
11011.5 0
11012.5 0
11013.5 0
11014.5 0
11015.5 0
11016.5 0
11017.5 0
11018.5 0
11019.5 0
11020.5 0
11021.5 0
11022.5 0
11023.5 0
11024.5 0
11025.5 0
11026.5 0
11027.5 0
11028.5 0
11029.5 0
11030.5 0
11031.5 0
11032.5 0
11033.5 0
11034.5 0
11035.5 0
11036.5 0
11037.5 0
11038.5 0
11039.5 0
11040.5 0
11041.5 0
11042.5 0
11043.5 0
11044.5 0
11045.5 0
11046.5 0
11047.5 0
11048.5 0
11049.5 0
11050.5 0
11051.5 0
11052.5 0
11053.5 0
11054.5 0
11055.5 0
11056.5 0
11057.5 0
11058.5 0
11059.5 0
11060.5 0
11061.5 0
11062.5 0
11063.5 0
11064.5 0
11065.5 0
11066.5 0
11067.5 0
11068.5 0
11069.5 0
11070.5 0
11071.5 0
11072.5 0
11073.5 0
11074.5 0
11075.5 0
11076.5 0
11077.5 0
11078.5 0
11079.5 0
11080.5 0
11081.5 0
11082.5 0
11083.5 0
11084.5 0
11085.5 0
11086.5 0
11087.5 0
11088.5 0
11089.5 0
11090.5 0
11091.5 0
11092.5 0
11093.5 0
11094.5 0
11095.5 0
11096.5 0
11097.5 0
11098.5 0
11099.5 0
11100.5 0
11101.5 0
11102.5 0
11103.5 0
11104.5 0
11105.5 0
11106.5 0
11107.5 0
11108.5 0
11109.5 0
11110.5 0
11111.5 0
11112.5 0
11113.5 0
11114.5 0
11115.5 0
11116.5 0
11117.5 0
11118.5 0
11119.5 0
11120.5 0
11121.5 0
11122.5 0
11123.5 0
11124.5 0
11125.5 0
11126.5 0
11127.5 0
11128.5 0
11129.5 0
11130.5 0
11131.5 0
11132.5 0
11133.5 0
11134.5 0
11135.5 0
11136.5 0
11137.5 0
11138.5 0
11139.5 0
11140.5 0
11141.5 0
11142.5 0
11143.5 0
11144.5 0
11145.5 0
11146.5 0
11147.5 0
11148.5 0
11149.5 0
11150.5 0
11151.5 0
11152.5 0
11153.5 0
11154.5 0
11155.5 0
11156.5 0
11157.5 0
11158.5 0
11159.5 0
11160.5 0
11161.5 0
11162.5 0
11163.5 0
11164.5 0
11165.5 0
11166.5 0
11167.5 0
11168.5 0
11169.5 0
11170.5 0
11171.5 0
11172.5 0
11173.5 0
11174.5 0
11175.5 0
11176.5 0
11177.5 0
11178.5 0
11179.5 0
11180.5 0
11181.5 0
11182.5 0
11183.5 0
11184.5 0
11185.5 0
11186.5 0
11187.5 0
11188.5 0
11189.5 0
11190.5 0
11191.5 0
11192.5 0
11193.5 0
11194.5 0
11195.5 0
11196.5 0
11197.5 0
11198.5 0
11199.5 0
11200.5 0
11201.5 0
11202.5 0
11203.5 0
11204.5 0
11205.5 0
11206.5 0
11207.5 0
11208.5 0
11209.5 0
11210.5 0
11211.5 0
11212.5 0
11213.5 0
11214.5 0
11215.5 0
11216.5 0
11217.5 0
11218.5 0
11219.5 0
11220.5 0
11221.5 0
11222.5 0
11223.5 0
11224.5 0
11225.5 0
11226.5 0
11227.5 0
11228.5 0
11229.5 0
11230.5 0
11231.5 0
11232.5 0
11233.5 0
11234.5 0
11235.5 0
11236.5 0
11237.5 0
11238.5 0
11239.5 0
11240.5 0
11241.5 0
11242.5 0
11243.5 0
11244.5 0
11245.5 0
11246.5 0
11247.5 0
11248.5 0
11249.5 0
11250.5 0
11251.5 0
11252.5 0
11253.5 0
11254.5 0
11255.5 0
11256.5 0
11257.5 0
11258.5 0
11259.5 0
11260.5 0
11261.5 0
11262.5 0
11263.5 0
11264.5 0
11265.5 0
11266.5 0
11267.5 0
11268.5 0
11269.5 0
11270.5 0
11271.5 0
11272.5 0
11273.5 0
11274.5 0
11275.5 0
11276.5 0
11277.5 0
11278.5 0
11279.5 0
11280.5 0
11281.5 0
11282.5 0
11283.5 0
11284.5 0
11285.5 0
11286.5 0
11287.5 0
11288.5 0
11289.5 0
11290.5 0
11291.5 0
11292.5 0
11293.5 0
11294.5 0
11295.5 0
11296.5 0
11297.5 0
11298.5 0
11299.5 0
11300.5 0
11301.5 0
11302.5 0
11303.5 0
11304.5 0
11305.5 0
11306.5 0
11307.5 0
11308.5 0
11309.5 0
11310.5 0
11311.5 0
11312.5 0
11313.5 0
11314.5 0
11315.5 0
11316.5 0
11317.5 0
11318.5 0
11319.5 0
11320.5 0
11321.5 0
11322.5 0
11323.5 0
11324.5 0
11325.5 0
11326.5 0
11327.5 0
11328.5 0
11329.5 0
11330.5 0
11331.5 0
11332.5 0
11333.5 0
11334.5 0
11335.5 0
11336.5 0
11337.5 0
11338.5 0
11339.5 0
11340.5 0
11341.5 0
11342.5 0
11343.5 0
11344.5 0
11345.5 0
11346.5 0
11347.5 0
11348.5 0
11349.5 0
11350.5 0
11351.5 0
11352.5 0
11353.5 0
11354.5 0
11355.5 0
11356.5 0
11357.5 0
11358.5 0
11359.5 0
11360.5 0
11361.5 0
11362.5 0
11363.5 0
11364.5 0
11365.5 0
11366.5 0
11367.5 0
11368.5 0
11369.5 0
11370.5 0
11371.5 0
11372.5 0
11373.5 0
11374.5 0
11375.5 0
11376.5 0
11377.5 0
11378.5 0
11379.5 0
11380.5 0
11381.5 0
11382.5 0
11383.5 0
11384.5 0
11385.5 0
11386.5 0
11387.5 0
11388.5 0
11389.5 0
11390.5 0
11391.5 0
11392.5 0
11393.5 0
11394.5 0
11395.5 0
11396.5 0
11397.5 0
11398.5 0
11399.5 0
11400.5 0
11401.5 0
11402.5 0
11403.5 0
11404.5 0
11405.5 0
11406.5 0
11407.5 0
11408.5 0
11409.5 0
11410.5 0
11411.5 0
11412.5 0
11413.5 0
11414.5 0
11415.5 0
11416.5 0
11417.5 0
11418.5 0
11419.5 0
11420.5 0
11421.5 0
11422.5 0
11423.5 0
11424.5 0
11425.5 0
11426.5 0
11427.5 0
11428.5 0
11429.5 0
11430.5 0
11431.5 0
11432.5 0
11433.5 0
11434.5 0
11435.5 0
11436.5 0
11437.5 0
11438.5 0
11439.5 0
11440.5 0
11441.5 0
11442.5 0
11443.5 0
11444.5 0
11445.5 0
11446.5 0
11447.5 0
11448.5 0
11449.5 0
11450.5 0
11451.5 0
11452.5 0
11453.5 0
11454.5 0
11455.5 0
11456.5 0
11457.5 0
11458.5 0
11459.5 0
11460.5 0
11461.5 0
11462.5 0
11463.5 0
11464.5 0
11465.5 0
11466.5 0
11467.5 0
11468.5 0
11469.5 0
11470.5 0
11471.5 0
11472.5 0
11473.5 0
11474.5 0
11475.5 0
11476.5 0
11477.5 0
11478.5 0
11479.5 0
11480.5 0
11481.5 0
11482.5 0
11483.5 0
11484.5 0
11485.5 0
11486.5 0
11487.5 0
11488.5 0
11489.5 0
11490.5 0
11491.5 0
11492.5 0
11493.5 0
11494.5 0
11495.5 0
11496.5 0
11497.5 0
11498.5 0
11499.5 0
11500.5 0
11501.5 0
11502.5 0
11503.5 0
11504.5 0
11505.5 0
11506.5 0
11507.5 0
11508.5 0
11509.5 0
11510.5 0
11511.5 0
11512.5 0
11513.5 0
11514.5 0
11515.5 0
11516.5 0
11517.5 0
11518.5 0
11519.5 0
11520.5 0
11521.5 0
11522.5 0
11523.5 0
11524.5 0
11525.5 0
11526.5 0
11527.5 0
11528.5 0
11529.5 0
11530.5 0
11531.5 0
11532.5 0
11533.5 0
11534.5 0
11535.5 0
11536.5 0
11537.5 0
11538.5 0
11539.5 0
11540.5 0
11541.5 0
11542.5 0
11543.5 0
11544.5 0
11545.5 0
11546.5 0
11547.5 0
11548.5 0
11549.5 0
11550.5 0
11551.5 0
11552.5 0
11553.5 0
11554.5 0
11555.5 0
11556.5 0
11557.5 0
11558.5 0
11559.5 0
11560.5 0
11561.5 0
11562.5 0
11563.5 0
11564.5 0
11565.5 0
11566.5 0
11567.5 0
11568.5 0
11569.5 0
11570.5 0
11571.5 0
11572.5 0
11573.5 0
11574.5 0
11575.5 0
11576.5 0
11577.5 0
11578.5 0
11579.5 0
11580.5 0
11581.5 0
11582.5 0
11583.5 0
11584.5 0
11585.5 0
11586.5 0
11587.5 0
11588.5 0
11589.5 0
11590.5 0
11591.5 0
11592.5 0
11593.5 0
11594.5 0
11595.5 0
11596.5 0
11597.5 0
11598.5 0
11599.5 0
11600.5 0
11601.5 0
11602.5 0
11603.5 0
11604.5 0
11605.5 0
11606.5 0
11607.5 0
11608.5 0
11609.5 0
11610.5 0
11611.5 0
11612.5 0
11613.5 0
11614.5 0
11615.5 0
11616.5 0
11617.5 0
11618.5 0
11619.5 0
11620.5 0
11621.5 0
11622.5 0
11623.5 0
11624.5 0
11625.5 0
11626.5 0
11627.5 0
11628.5 0
11629.5 0
11630.5 0
11631.5 0
11632.5 0
11633.5 0
11634.5 0
11635.5 0
11636.5 0
11637.5 0
11638.5 0
11639.5 0
11640.5 0
11641.5 0
11642.5 0
11643.5 0
11644.5 0
11645.5 0
11646.5 0
11647.5 0
11648.5 0
11649.5 0
11650.5 0
11651.5 0
11652.5 0
11653.5 0
11654.5 0
11655.5 0
11656.5 0
11657.5 0
11658.5 0
11659.5 0
11660.5 0
11661.5 0
11662.5 0
11663.5 0
11664.5 0
11665.5 0
11666.5 0
11667.5 0
11668.5 0
11669.5 0
11670.5 0
11671.5 0
11672.5 0
11673.5 0
11674.5 0
11675.5 0
11676.5 0
11677.5 0
11678.5 0
11679.5 -1.28571
11680.5 0
11681.5 0
11682.5 0
11683.5 0
11684.5 0
11685.5 0
11686.5 0
11687.5 0
11688.5 0
11689.5 0
11690.5 0
11691.5 0
11692.5 0
11693.5 0
11694.5 0
11695.5 0
11696.5 0
11697.5 0
11698.5 0
11699.5 0
11700.5 0
11701.5 0
11702.5 0
11703.5 0
11704.5 0
11705.5 0
11706.5 0
11707.5 0
11708.5 0
11709.5 0
11710.5 0
11711.5 0
11712.5 0
11713.5 0
11714.5 0
11715.5 0
11716.5 0
11717.5 0
11718.5 0
11719.5 0
11720.5 0
11721.5 0
11722.5 0
11723.5 0
11724.5 0
11725.5 0
11726.5 0
11727.5 0
11728.5 0
11729.5 0
11730.5 0
11731.5 0
11732.5 0
11733.5 0
11734.5 0
11735.5 0
11736.5 0
11737.5 0
11738.5 0
11739.5 0
11740.5 0
11741.5 0
11742.5 0
11743.5 0
11744.5 0
11745.5 0
11746.5 0
11747.5 0
11748.5 0
11749.5 0
11750.5 0
11751.5 0
11752.5 0
11753.5 0
11754.5 0
11755.5 0
11756.5 0
11757.5 0
11758.5 0
11759.5 0
11760.5 0
11761.5 0
11762.5 0
11763.5 0
11764.5 0
11765.5 0
11766.5 0
11767.5 0
11768.5 0
11769.5 0
11770.5 0
11771.5 0
11772.5 0
11773.5 0
11774.5 0
11775.5 0
11776.5 0
11777.5 0
11778.5 0
11779.5 0
11780.5 0
11781.5 0
11782.5 0
11783.5 0
11784.5 0
11785.5 0
11786.5 0
11787.5 0
11788.5 0
11789.5 0
11790.5 0
11791.5 0
11792.5 0
11793.5 0
11794.5 0
11795.5 0
11796.5 0
11797.5 0
11798.5 0
11799.5 0
11800.5 0
11801.5 0
11802.5 0
11803.5 0
11804.5 0
11805.5 0
11806.5 0
11807.5 0
11808.5 0
11809.5 0
11810.5 0
11811.5 0
11812.5 0
11813.5 0
11814.5 0
11815.5 0
11816.5 0
11817.5 0
11818.5 0
11819.5 0
11820.5 1
11821.5 0
11822.5 0
11823.5 0
11824.5 0
11825.5 1
11826.5 0
11827.5 0
11828.5 0
11829.5 0
11830.5 0
11831.5 0
11832.5 0
11833.5 0
11834.5 0
11835.5 0
11836.5 0
11837.5 0
11838.5 0
11839.5 0
11840.5 0
11841.5 0
11842.5 0
11843.5 0
11844.5 0
11845.5 0
11846.5 0
11847.5 0
11848.5 0
11849.5 0
11850.5 0
11851.5 0
11852.5 0
11853.5 0
11854.5 0
11855.5 0
11856.5 0
11857.5 0
11858.5 0
11859.5 0
11860.5 0
11861.5 0
11862.5 0
11863.5 0
11864.5 0
11865.5 0
11866.5 0
11867.5 0
11868.5 0
11869.5 0
11870.5 0
11871.5 0
11872.5 0
11873.5 0
11874.5 0
11875.5 0
11876.5 0
11877.5 0
11878.5 0
11879.5 0
11880.5 0
11881.5 0
11882.5 0
11883.5 0
11884.5 0
11885.5 0
11886.5 0
11887.5 0
11888.5 0
11889.5 0
11890.5 0
11891.5 0
11892.5 0
11893.5 0
11894.5 0
11895.5 0
11896.5 0
11897.5 0
11898.5 0
11899.5 0
11900.5 0
11901.5 0
11902.5 0
11903.5 0
11904.5 0
11905.5 0
11906.5 0
11907.5 0
11908.5 0
11909.5 0
11910.5 0
11911.5 0
11912.5 0
11913.5 0
11914.5 0
11915.5 0
11916.5 0
11917.5 0
11918.5 0
11919.5 0
11920.5 0
11921.5 0
11922.5 0
11923.5 0
11924.5 0
11925.5 0
11926.5 0
11927.5 0
11928.5 0
11929.5 0
11930.5 0
11931.5 0
11932.5 0
11933.5 0
11934.5 0
11935.5 0
11936.5 0
11937.5 0
11938.5 0
11939.5 0
11940.5 0
11941.5 0
11942.5 0
11943.5 0
11944.5 0
11945.5 0
11946.5 0
11947.5 0
11948.5 0
11949.5 0
11950.5 0
11951.5 0
11952.5 0
11953.5 0
11954.5 0
11955.5 0
11956.5 0
11957.5 0
11958.5 0
11959.5 0
11960.5 0
11961.5 0
11962.5 0
11963.5 0
11964.5 0
11965.5 0
11966.5 0
11967.5 0
11968.5 0
11969.5 0
11970.5 0
11971.5 0
11972.5 0
11973.5 0
11974.5 0
11975.5 0
11976.5 0
11977.5 0
11978.5 0
11979.5 0
11980.5 0
11981.5 0
11982.5 0
11983.5 0
11984.5 0
11985.5 0
11986.5 0
11987.5 0
11988.5 0
11989.5 0
11990.5 0
11991.5 0
11992.5 0
11993.5 0
11994.5 0
11995.5 0
11996.5 0
11997.5 0
11998.5 0
11999.5 0
