# EGG_ProjY_E2151.5(4.5)_B2135.5(2.5)_B2160.5(1.5)
# X axis : Energy (keV) [Y axis]
# Y axis : Counts/1 keV
# N Bins : 12000
# X Min : 0
# X Max : 12000
# X value at the center of the bins
0.5 0
1.5 0
2.5 0
3.5 0
4.5 0
5.5 103.625
6.5 90.375
7.5 142.5
8.5 133.5
9.5 109.75
10.5 69.5
11.5 118.75
12.5 158.75
13.5 206.5
14.5 278.125
15.5 337.875
16.5 411.125
17.5 679.625
18.5 885.25
19.5 1088.38
20.5 1322.38
21.5 1483.25
22.5 1905.12
23.5 2408.5
24.5 2833.62
25.5 2952.75
26.5 3303.12
27.5 3743.88
28.5 4186.5
29.5 4517.12
30.5 4936.5
31.5 5158
32.5 5718.12
33.5 5948.5
34.5 6088
35.5 6028.62
36.5 6309.88
37.5 6495.25
38.5 6753.12
39.5 6721.5
40.5 6736.88
41.5 7078
42.5 7435.75
43.5 7479.62
44.5 7079
45.5 7346.62
46.5 7237.88
47.5 7770.62
48.5 7741.38
49.5 7641.88
50.5 7616.62
51.5 7670
52.5 7942.5
53.5 8075.75
54.5 8005.88
55.5 8068.88
56.5 8340.75
57.5 9790.25
58.5 11837.9
59.5 12346.6
60.5 10291.5
61.5 8309.62
62.5 8048
63.5 7998.12
64.5 8166.25
65.5 8621.38
66.5 9445.75
67.5 10582.2
68.5 9631
69.5 9332.75
70.5 9041.5
71.5 8875.12
72.5 9401.25
73.5 10853
74.5 14984.4
75.5 16995
76.5 18182.4
77.5 20389.4
78.5 12631.9
79.5 8833.12
80.5 8478.38
81.5 8401
82.5 8044.25
83.5 8187.25
84.5 8545
85.5 9234.5
86.5 11632.4
87.5 13282.6
88.5 11010.1
89.5 10260.4
90.5 9639.88
91.5 8934
92.5 8521.88
93.5 8674.5
94.5 8576.75
95.5 8872.38
96.5 9106.12
97.5 8931
98.5 8898.88
99.5 9118.88
100.5 9162.75
101.5 9030
102.5 9301.5
103.5 9422.88
104.5 9538.25
105.5 9572
106.5 9550.5
107.5 9927.38
108.5 9901.25
109.5 9816.5
110.5 9961.12
111.5 9937.62
112.5 10033
113.5 10017.2
114.5 10035.4
115.5 10220.5
116.5 10482.2
117.5 10555.9
118.5 10724.9
119.5 10341.1
120.5 10637.2
121.5 10908.8
122.5 10815.2
123.5 10950.5
124.5 11408.5
125.5 10953.9
126.5 10938.1
127.5 11032.1
128.5 11138.8
129.5 11390.1
130.5 11354.2
131.5 11440.9
132.5 11317.5
133.5 11150.5
134.5 11584.6
135.5 11795.4
136.5 11536
137.5 11284.6
138.5 11311.5
139.5 11935.1
140.5 11905.1
141.5 11983.8
142.5 12165.5
143.5 11911.5
144.5 12211.8
145.5 12231.5
146.5 12357.9
147.5 11995.4
148.5 12493.8
149.5 12706.6
150.5 12515
151.5 12615.9
152.5 12937.9
153.5 12446.9
154.5 12728
155.5 12891
156.5 13046.8
157.5 13545.1
158.5 13624.2
159.5 13700.6
160.5 13759.4
161.5 13520.4
162.5 13792.1
163.5 13521.9
164.5 13330.5
165.5 13616.5
166.5 13502.8
167.5 13841.5
168.5 13411.4
169.5 13761.4
170.5 13656.9
171.5 13431.2
172.5 13440.8
173.5 14295.5
174.5 14494.4
175.5 14122.5
176.5 13773.1
177.5 13612.1
178.5 13355.1
179.5 13354.4
180.5 13916.2
181.5 14356.2
182.5 14583.1
183.5 13413.8
184.5 13435.9
185.5 13277.8
186.5 13407.8
187.5 13169.1
188.5 12941
189.5 13148
190.5 13006.9
191.5 13201.9
192.5 13000.1
193.5 13252.2
194.5 12903.4
195.5 13018.6
196.5 13183.4
197.5 13144.9
198.5 13343.9
199.5 13623.6
200.5 14521.6
201.5 17985.2
202.5 18425.9
203.5 14795.1
204.5 13451.6
205.5 13387.4
206.5 13288.9
207.5 13388.6
208.5 13825.8
209.5 14511.4
210.5 17115
211.5 17010.5
212.5 15153.8
213.5 14476.4
214.5 14238.8
215.5 14133.2
216.5 14434.6
217.5 14417.8
218.5 14172.9
219.5 14180.4
220.5 13946
221.5 14146.6
222.5 14570.2
223.5 14416.1
224.5 14204.4
225.5 14416
226.5 14431.5
227.5 14753.6
228.5 14168.5
229.5 14185.5
230.5 14151.6
231.5 14346.6
232.5 14236.2
233.5 14337.1
234.5 14115.4
235.5 14225.9
236.5 14375.5
237.5 14240.9
238.5 14051.9
239.5 14430.2
240.5 14038.2
241.5 14422.6
242.5 14546.8
243.5 14231.8
244.5 14027.1
245.5 13983.8
246.5 13668.5
247.5 13510.9
248.5 13357.6
249.5 13230.9
250.5 13001.9
251.5 12396.4
252.5 12831
253.5 12690
254.5 12302.2
255.5 11886.6
256.5 12122.1
257.5 11954.1
258.5 11991.8
259.5 11896.9
260.5 11878.5
261.5 11857.8
262.5 11774.1
263.5 11808.9
264.5 11382.4
265.5 11427.5
266.5 11387
267.5 11435.9
268.5 10837.8
269.5 10803
270.5 10898.4
271.5 10884.1
272.5 10918.8
273.5 10957.8
274.5 11080.9
275.5 10509.5
276.5 11098.8
277.5 10769.2
278.5 11024.1
279.5 10747.5
280.5 11022
281.5 11102.9
282.5 10923.2
283.5 10748.5
284.5 10683.4
285.5 10489.4
286.5 10357.9
287.5 10318.1
288.5 10549.6
289.5 10389.2
290.5 9980.38
291.5 10045.1
292.5 10047.4
293.5 9985.88
294.5 9794.62
295.5 9908.75
296.5 9841.25
297.5 10643.9
298.5 13531.5
299.5 14645.8
300.5 11805
301.5 9795.12
302.5 9631.12
303.5 9517.25
304.5 9582.75
305.5 9585
306.5 9550.75
307.5 9749.12
308.5 9490.62
309.5 9294.75
310.5 9368.38
311.5 9270.62
312.5 9371.75
313.5 9304.25
314.5 9478.5
315.5 9705.38
316.5 9642.75
317.5 9585.25
318.5 9593.75
319.5 9418.62
320.5 9495.25
321.5 9438.25
322.5 9260.12
323.5 9074.75
324.5 9207.88
325.5 9022.75
326.5 9176.88
327.5 9024
328.5 8812.5
329.5 9300.62
330.5 8925.88
331.5 8640.38
332.5 8887
333.5 9014.12
334.5 8816.88
335.5 8943.38
336.5 8776.38
337.5 8913.12
338.5 8575.88
339.5 9069.12
340.5 8534
341.5 8919.5
342.5 8546.88
343.5 8526.88
344.5 8636.12
345.5 8600.38
346.5 8497
347.5 8580.12
348.5 8354.12
349.5 8551.12
350.5 8527.12
351.5 8385.75
352.5 8275.5
353.5 8433.5
354.5 8441.75
355.5 8237.12
356.5 7962.5
357.5 7881
358.5 7687.5
359.5 7791.62
360.5 8010.62
361.5 8109
362.5 8474.25
363.5 8421.12
364.5 8669.5
365.5 9099
366.5 12985.9
367.5 29953.4
368.5 41513.5
369.5 23452.5
370.5 10694.9
371.5 8311.88
372.5 7813.5
373.5 7684.88
374.5 7990.12
375.5 7964
376.5 7820.5
377.5 7833.38
378.5 7836.38
379.5 7660.12
380.5 7567.25
381.5 7123.38
382.5 7048.75
383.5 7042.88
384.5 7059.62
385.5 7036.5
386.5 7146
387.5 7265.38
388.5 7452.75
389.5 7333.12
390.5 7348.38
391.5 7263.75
392.5 7176.25
393.5 7259.25
394.5 7304.38
395.5 7155.38
396.5 7264.12
397.5 7458.5
398.5 7471.25
399.5 7519
400.5 8697.12
401.5 16385.4
402.5 69300
403.5 224830
404.5 238248
405.5 79774.6
406.5 17566.6
407.5 7515
408.5 6178.5
409.5 6070.62
410.5 5802.75
411.5 5703.38
412.5 5612
413.5 5678.25
414.5 5794.88
415.5 5664.12
416.5 5636.5
417.5 5675.62
418.5 5620.25
419.5 5789.62
420.5 5773.5
421.5 5691.25
422.5 5793.62
423.5 5692.88
424.5 5804.88
425.5 5655.25
426.5 5683.5
427.5 5702.62
428.5 5674.38
429.5 5297.12
430.5 5503.75
431.5 5540.38
432.5 5668.75
433.5 5616.12
434.5 5683.75
435.5 5568.5
436.5 5478.62
437.5 5431.62
438.5 5484.38
439.5 5411
440.5 5328.25
441.5 5605.25
442.5 5467.5
443.5 5577.88
444.5 5771.62
445.5 5579.12
446.5 5447.62
447.5 5137.62
448.5 5501.25
449.5 5483
450.5 5265.5
451.5 5299.88
452.5 5416.75
453.5 5257.12
454.5 5233.88
455.5 5195.5
456.5 5624.5
457.5 5330.5
458.5 5309.62
459.5 5266.75
460.5 5386
461.5 5449.75
462.5 5497.38
463.5 5464.12
464.5 5707.62
465.5 5557.25
466.5 5616.75
467.5 5789.12
468.5 5818.12
469.5 5887
470.5 5495.12
471.5 5413.25
472.5 5945.38
473.5 5958.62
474.5 6290.75
475.5 6270.38
476.5 6107.12
477.5 5871.88
478.5 5851.5
479.5 5726.62
480.5 5548.12
481.5 5647.62
482.5 5759.88
483.5 6452.88
484.5 5970
485.5 5334.5
486.5 5117.5
487.5 4977.75
488.5 5155.25
489.5 5217.25
490.5 5064
491.5 4852.25
492.5 4972.38
493.5 4985.75
494.5 5090.62
495.5 5076.62
496.5 5176.25
497.5 4957.38
498.5 4965
499.5 5171.5
500.5 5442.62
501.5 5208.12
502.5 5255
503.5 5202.62
504.5 5229.12
505.5 5669.38
506.5 6909.12
507.5 10280.2
508.5 17399.9
509.5 31436.5
510.5 43892
511.5 42345.9
512.5 28596.2
513.5 14793.2
514.5 8258.62
515.5 5658.75
516.5 4759
517.5 4705.75
518.5 4647.75
519.5 4588.12
520.5 4352.5
521.5 4336.62
522.5 4267.25
523.5 4458.38
524.5 4505.62
525.5 4564.88
526.5 4433.25
527.5 4293.38
528.5 4379.25
529.5 4438.5
530.5 4400.88
531.5 4502.62
532.5 4471.38
533.5 4462
534.5 4396.75
535.5 4355.75
536.5 4407.38
537.5 4265.88
538.5 4467
539.5 4253.12
540.5 4354.12
541.5 4340.12
542.5 4399.25
543.5 4192.5
544.5 4429.38
545.5 4230.62
546.5 4195.38
547.5 4372.75
548.5 4259.75
549.5 4207.25
550.5 4002.25
551.5 4117.75
552.5 4180.5
553.5 4299.38
554.5 4109
555.5 4018.12
556.5 4083.88
557.5 4022.5
558.5 3937
559.5 4057.75
560.5 4200.38
561.5 4084
562.5 4152.62
563.5 4179.75
564.5 4256.75
565.5 4257.88
566.5 4387
567.5 4534
568.5 4435.75
569.5 4525.75
570.5 4370.12
571.5 4397.12
572.5 4379.5
573.5 4313.25
574.5 4307.62
575.5 4388
576.5 4135.38
577.5 4094
578.5 4261.88
579.5 4144.5
580.5 4047.5
581.5 4050.88
582.5 4244.25
583.5 4186
584.5 4073.38
585.5 3936.75
586.5 3921.38
587.5 3985.75
588.5 4053.5
589.5 4160.38
590.5 4120
591.5 4064.88
592.5 4147.75
593.5 4213.88
594.5 4319.5
595.5 4099.88
596.5 4077.62
597.5 4106.62
598.5 4552.25
599.5 4528.75
600.5 4259
601.5 4080.38
602.5 3980.25
603.5 4409.62
604.5 6179.38
605.5 9203.38
606.5 8145
607.5 5263
608.5 4192.25
609.5 4009.75
610.5 3955.62
611.5 4126.75
612.5 4108
613.5 4074.12
614.5 4034.38
615.5 3943.25
616.5 3912.88
617.5 3948.12
618.5 3941.5
619.5 4313
620.5 4047.38
621.5 4268.75
622.5 4126.88
623.5 4061.62
624.5 3961.12
625.5 3960
626.5 4039.12
627.5 4113.88
628.5 4101.75
629.5 3981.12
630.5 4032.38
631.5 3895.25
632.5 3921.62
633.5 3966.62
634.5 4028.38
635.5 4013.25
636.5 3991.5
637.5 3916.88
638.5 3762.38
639.5 3864.75
640.5 3947.12
641.5 4004.88
642.5 3986.88
643.5 4089.25
644.5 4416.25
645.5 6029.38
646.5 7319.62
647.5 6237.75
648.5 4998.75
649.5 5083.75
650.5 5896.88
651.5 5325.75
652.5 4382.25
653.5 4036.88
654.5 4048.75
655.5 4137.12
656.5 3983.75
657.5 4066.5
658.5 3935.12
659.5 3965.62
660.5 3903.38
661.5 3830.5
662.5 4045
663.5 4084
664.5 3917.12
665.5 4024.5
666.5 4062.5
667.5 4533
668.5 4467.5
669.5 4317
670.5 4199.38
671.5 3767
672.5 4087.88
673.5 4070
674.5 3862.38
675.5 4008.38
676.5 3993.5
677.5 4109.62
678.5 4093.38
679.5 3987
680.5 4075
681.5 4538.12
682.5 4694.38
683.5 4365.12
684.5 4234.25
685.5 4490.62
686.5 5679.12
687.5 5568.88
688.5 4583.5
689.5 4159.38
690.5 3951.88
691.5 4105
692.5 3988.12
693.5 4007
694.5 4183.5
695.5 4035.38
696.5 4166.62
697.5 4409.75
698.5 4134
699.5 3922.25
700.5 3924.88
701.5 4906.25
702.5 6814.25
703.5 6459.25
704.5 4876.12
705.5 4034.75
706.5 3796.88
707.5 4020.12
708.5 3706.12
709.5 3712.12
710.5 3904.75
711.5 3763.38
712.5 3800.38
713.5 3793
714.5 3847.12
715.5 3901.38
716.5 3690.25
717.5 3865.25
718.5 3967.88
719.5 3798
720.5 3961.12
721.5 4103.75
722.5 4128.75
723.5 4175.75
724.5 3940
725.5 3860.38
726.5 3898.62
727.5 3936.5
728.5 3949.5
729.5 4024.75
730.5 4022.88
731.5 3946.38
732.5 4034.75
733.5 4053
734.5 3872.62
735.5 4031.88
736.5 4441.75
737.5 5790.12
738.5 5683.62
739.5 4367.88
740.5 3887.25
741.5 3920.38
742.5 3835.38
743.5 3877.75
744.5 3946.75
745.5 3881.5
746.5 3656.88
747.5 3874.12
748.5 3903.38
749.5 3900.25
750.5 4004.75
751.5 3894.75
752.5 3818.38
753.5 3950.88
754.5 3979.75
755.5 3759.5
756.5 3955
757.5 3896.62
758.5 3818.62
759.5 4178.62
760.5 4110.12
761.5 4471.62
762.5 4041.88
763.5 3958.12
764.5 3908.38
765.5 3990.88
766.5 3968.25
767.5 4012.12
768.5 3912
769.5 3780.62
770.5 3889.38
771.5 4174
772.5 3950.88
773.5 3838.25
774.5 3929.12
775.5 3961.62
776.5 4109
777.5 4089.12
778.5 3983.5
779.5 4032.38
780.5 3950.88
781.5 4032.12
782.5 4020.62
783.5 3925.38
784.5 3768.5
785.5 3970.5
786.5 4042.25
787.5 4106.62
788.5 4114
789.5 4105.12
790.5 3965.12
791.5 4222.75
792.5 4246.5
793.5 4249
794.5 4088.5
795.5 4468.75
796.5 4467.12
797.5 4407
798.5 4067.62
799.5 4109.25
800.5 3938.12
801.5 3983
802.5 4014.62
803.5 3995.62
804.5 4132.12
805.5 4177.25
806.5 4234
807.5 4104.88
808.5 4195.38
809.5 3930.5
810.5 3940
811.5 4143.38
812.5 3939.38
813.5 4226.12
814.5 4562.38
815.5 4928.5
816.5 4602.62
817.5 4214.5
818.5 4092.38
819.5 3992.62
820.5 3969
821.5 4245
822.5 4110.25
823.5 4340.38
824.5 4239.38
825.5 4113.62
826.5 4125.75
827.5 4110.5
828.5 4085.12
829.5 4133.62
830.5 4339.38
831.5 4131.25
832.5 4337.88
833.5 4249.25
834.5 4077.12
835.5 4266.38
836.5 4212.5
837.5 4164.88
838.5 4287.5
839.5 4132.38
840.5 4149.38
841.5 4231.62
842.5 4229.12
843.5 4379.25
844.5 4344.88
845.5 4511
846.5 4620.5
847.5 4311.5
848.5 4339.38
849.5 4350.62
850.5 4331.5
851.5 4429.38
852.5 4516.25
853.5 4530.38
854.5 4271
855.5 4285
856.5 4313.38
857.5 4493.88
858.5 4288.38
859.5 4465.62
860.5 4556
861.5 4491.88
862.5 4102.88
863.5 4410.75
864.5 4164
865.5 4345
866.5 4105.12
867.5 4375.25
868.5 4447.5
869.5 4547.62
870.5 4912.12
871.5 5639.38
872.5 5985.5
873.5 5270.88
874.5 4933.12
875.5 4935.62
876.5 5248.25
877.5 5015.25
878.5 4604.5
879.5 4369.75
880.5 4501.25
881.5 4672
882.5 4562.88
883.5 4630
884.5 4939.38
885.5 5310.25
886.5 6951
887.5 8373.75
888.5 7184.75
889.5 5293.38
890.5 4611.12
891.5 4624.38
892.5 4460.62
893.5 4465.75
894.5 4668.5
895.5 4616.12
896.5 4611.25
897.5 4726.38
898.5 4815.62
899.5 4647.5
900.5 5006
901.5 4863
902.5 4878.5
903.5 4872.12
904.5 4794.5
905.5 4946.75
906.5 4823.38
907.5 4906.75
908.5 4904.12
909.5 4982
910.5 4719.38
911.5 5037.88
912.5 4980.62
913.5 4996.12
914.5 5366.88
915.5 5131.5
916.5 5326
917.5 5164.62
918.5 5200.75
919.5 5244.75
920.5 5299.25
921.5 5413.62
922.5 5367
923.5 5435
924.5 5434.88
925.5 5495
926.5 5648
927.5 5581.5
928.5 5636.25
929.5 5738.12
930.5 5685.12
931.5 5738.62
932.5 5772.75
933.5 5825.62
934.5 5902.38
935.5 5842
936.5 5849
937.5 6179.62
938.5 6000.75
939.5 5986.5
940.5 5941
941.5 6127.88
942.5 5932.12
943.5 5951.88
944.5 5812.5
945.5 5699.88
946.5 5506
947.5 5250.75
948.5 5158.38
949.5 4890.62
950.5 4897.75
951.5 4720.25
952.5 4651.5
953.5 4430.5
954.5 4451.38
955.5 4361.62
956.5 4217.5
957.5 4335.88
958.5 4219.38
959.5 4207.12
960.5 4251.25
961.5 4210.12
962.5 4118.25
963.5 4185.88
964.5 4064.5
965.5 4140.5
966.5 4188
967.5 4072.25
968.5 4072.5
969.5 3811
970.5 3999.62
971.5 3998
972.5 4067.88
973.5 4335
974.5 4441.12
975.5 4309.5
976.5 3974.25
977.5 3803
978.5 3830.88
979.5 3797.5
980.5 3864.38
981.5 3750.62
982.5 3848
983.5 3812.38
984.5 3830.25
985.5 3715.62
986.5 3781
987.5 3852.75
988.5 3858.12
989.5 3699.62
990.5 3892.12
991.5 3744.25
992.5 3582.5
993.5 3666
994.5 3651.62
995.5 3777
996.5 3795.88
997.5 3957.62
998.5 3803.12
999.5 3819.88
1000.5 3983.12
1001.5 4747.88
1002.5 4431.88
1003.5 3918.75
1004.5 3785.62
1005.5 4337.75
1006.5 5769
1007.5 7097.75
1008.5 5869.25
1009.5 4090.5
1010.5 3537.88
1011.5 3485.88
1012.5 3413.5
1013.5 3313.75
1014.5 3491.75
1015.5 3513.25
1016.5 3763
1017.5 3527.5
1018.5 3329.75
1019.5 3373.62
1020.5 3430.75
1021.5 3201.88
1022.5 3538.62
1023.5 3697.5
1024.5 3986.5
1025.5 3500.12
1026.5 3309.88
1027.5 3219.75
1028.5 3201.38
1029.5 3115.12
1030.5 3186.25
1031.5 3019
1032.5 3069.38
1033.5 2995.38
1034.5 2982.38
1035.5 3128.62
1036.5 2908.88
1037.5 3094.5
1038.5 3099.38
1039.5 3117.25
1040.5 2833.75
1041.5 2995.25
1042.5 3014.38
1043.5 2754.25
1044.5 2872
1045.5 2936.5
1046.5 3119.38
1047.5 3827.75
1048.5 7583
1049.5 16792.5
1050.5 27226
1051.5 20944.1
1052.5 8203.62
1053.5 3693.88
1054.5 2881.25
1055.5 2577.62
1056.5 2704.62
1057.5 2639.5
1058.5 2689.25
1059.5 2621.88
1060.5 2622.12
1061.5 2580.88
1062.5 2532
1063.5 2764.38
1064.5 2787.12
1065.5 2810
1066.5 2702.12
1067.5 2501.62
1068.5 2523
1069.5 2309.75
1070.5 2552.25
1071.5 2390.25
1072.5 2597.5
1073.5 2819.12
1074.5 2890.25
1075.5 2620.88
1076.5 2569.75
1077.5 2518.12
1078.5 2488.5
1079.5 2359.75
1080.5 2345
1081.5 2416.88
1082.5 2365.62
1083.5 2277
1084.5 2385.62
1085.5 2333.88
1086.5 2239.38
1087.5 2491.5
1088.5 2837
1089.5 4146.88
1090.5 6587.25
1091.5 6947.25
1092.5 4595.75
1093.5 3024.62
1094.5 2508
1095.5 2432.12
1096.5 2263.88
1097.5 2177.62
1098.5 2381.75
1099.5 2398.5
1100.5 2329.25
1101.5 2347.5
1102.5 2280.62
1103.5 2217.5
1104.5 2275.88
1105.5 2212.12
1106.5 2165.12
1107.5 2073.38
1108.5 2265.88
1109.5 2174.75
1110.5 2185
1111.5 2220.62
1112.5 2292.75
1113.5 2429.88
1114.5 2380
1115.5 2348.38
1116.5 2179.25
1117.5 2176.12
1118.5 2127.5
1119.5 2292.75
1120.5 2153.62
1121.5 2253.5
1122.5 2245.75
1123.5 2547.88
1124.5 3761
1125.5 5021.38
1126.5 6375.75
1127.5 3859.88
1128.5 2858.88
1129.5 2300.5
1130.5 2372.25
1131.5 2207.38
1132.5 2171.25
1133.5 2266
1134.5 2168.38
1135.5 2221.75
1136.5 2188.5
1137.5 2247.38
1138.5 2292.12
1139.5 2285.38
1140.5 2158.25
1141.5 2351.88
1142.5 2554.88
1143.5 2509.38
1144.5 2285.38
1145.5 2390.62
1146.5 2515.62
1147.5 2619
1148.5 2455.75
1149.5 2434.38
1150.5 2427.75
1151.5 2707
1152.5 3863.5
1153.5 10258
1154.5 40584.8
1155.5 141148
1156.5 309940
1157.5 317927
1158.5 134368
1159.5 28889.9
1160.5 6577.38
1161.5 2650.5
1162.5 1867.38
1163.5 1691
1164.5 1650.88
1165.5 1619.12
1166.5 1666.25
1167.5 1393.5
1168.5 1512.5
1169.5 1456.5
1170.5 1661
1171.5 2002.62
1172.5 1678.25
1173.5 1555.62
1174.5 1422.25
1175.5 1406.38
1176.5 1415.38
1177.5 1404.88
1178.5 1506
1179.5 1416
1180.5 1587
1181.5 1833.75
1182.5 2278.88
1183.5 2139.5
1184.5 1680.88
1185.5 1522.88
1186.5 1619.25
1187.5 1472
1188.5 1485.75
1189.5 1514.5
1190.5 1682
1191.5 1835.75
1192.5 1971.75
1193.5 2105.75
1194.5 1964.5
1195.5 1547.62
1196.5 1553.62
1197.5 1467.38
1198.5 1380.5
1199.5 1324.38
1200.5 1359.38
1201.5 1265
1202.5 1300.62
1203.5 1327
1204.5 1388.25
1205.5 1404.38
1206.5 1477.38
1207.5 1443.25
1208.5 1460.75
1209.5 1343
1210.5 1378.75
1211.5 1352.75
1212.5 1584.25
1213.5 2390.25
1214.5 2802
1215.5 2367.25
1216.5 1867.88
1217.5 2135.88
1218.5 2811.25
1219.5 2512.75
1220.5 1717.38
1221.5 1525.75
1222.5 1457.38
1223.5 1441
1224.5 1561.88
1225.5 1620.88
1226.5 1685.12
1227.5 1583
1228.5 1649.5
1229.5 1893.62
1230.5 1676
1231.5 1491.38
1232.5 1462.5
1233.5 1431.88
1234.5 1346.88
1235.5 1384.88
1236.5 1457.38
1237.5 1493
1238.5 1342.38
1239.5 1317.62
1240.5 1362.75
1241.5 1454.38
1242.5 1701.5
1243.5 2236
1244.5 3013.5
1245.5 2729.88
1246.5 1848.5
1247.5 1520.62
1248.5 1442.12
1249.5 1339.38
1250.5 1294.5
1251.5 1319.38
1252.5 1417
1253.5 1345.88
1254.5 1431.75
1255.5 1603.38
1256.5 1717.88
1257.5 1499.5
1258.5 1421.75
1259.5 1228.38
1260.5 1322.12
1261.5 1446.38
1262.5 1482.75
1263.5 1587.25
1264.5 2634.38
1265.5 5411.12
1266.5 8430.12
1267.5 6842.5
1268.5 3242.38
1269.5 1820
1270.5 1426.75
1271.5 1433.62
1272.5 1431.88
1273.5 1709
1274.5 2344
1275.5 3910.5
1276.5 4810.25
1277.5 3506.12
1278.5 2096.5
1279.5 1528.38
1280.5 1463.62
1281.5 1429.75
1282.5 1566.38
1283.5 1569.62
1284.5 1456.75
1285.5 1295.62
1286.5 1369.25
1287.5 1307.75
1288.5 1374.12
1289.5 1321
1290.5 1413.25
1291.5 1425.5
1292.5 1607.25
1293.5 1525.38
1294.5 1501.5
1295.5 1476.5
1296.5 1385.75
1297.5 1392.25
1298.5 1315.12
1299.5 1398
1300.5 1354.38
1301.5 1445.75
1302.5 1470.62
1303.5 1324.38
1304.5 1250.75
1305.5 1404.62
1306.5 1371.25
1307.5 1430.38
1308.5 1293.62
1309.5 1321
1310.5 1226.88
1311.5 1337.62
1312.5 1617.88
1313.5 2518.25
1314.5 3414
1315.5 3042.75
1316.5 2035.75
1317.5 1588.62
1318.5 1473.25
1319.5 1379.12
1320.5 1350.12
1321.5 1414.75
1322.5 1507.25
1323.5 1467.25
1324.5 1482.25
1325.5 1313.5
1326.5 1331.5
1327.5 1389.62
1328.5 1297.88
1329.5 1504.88
1330.5 1638.25
1331.5 1638.25
1332.5 1511.75
1333.5 1393.62
1334.5 1388.88
1335.5 1450
1336.5 1358.62
1337.5 1302.75
1338.5 1456.62
1339.5 1330.5
1340.5 1600
1341.5 1741.5
1342.5 2281.12
1343.5 2108.75
1344.5 1733.62
1345.5 1497.5
1346.5 1575.5
1347.5 1617
1348.5 1549.5
1349.5 1338.75
1350.5 1411.25
1351.5 1526.75
1352.5 1509.12
1353.5 1551.75
1354.5 1500.25
1355.5 1415.38
1356.5 1369.25
1357.5 1404.38
1358.5 1388
1359.5 1321.25
1360.5 1435
1361.5 1478.12
1362.5 1451.38
1363.5 1472.75
1364.5 1428.62
1365.5 1368.5
1366.5 1380.75
1367.5 1457.88
1368.5 1404.5
1369.5 1482.88
1370.5 1392.88
1371.5 1572.38
1372.5 1653.75
1373.5 1573
1374.5 1541.75
1375.5 1678.25
1376.5 1641.88
1377.5 1582.62
1378.5 1373.5
1379.5 1409
1380.5 1387.25
1381.5 1359
1382.5 1458.5
1383.5 1544.75
1384.5 1521.88
1385.5 1482.38
1386.5 1488.12
1387.5 1501.88
1388.5 1645.5
1389.5 1479
1390.5 1446
1391.5 1222.75
1392.5 1273.62
1393.5 1329.5
1394.5 1312.62
1395.5 1395.75
1396.5 1362
1397.5 1430.25
1398.5 1310.12
1399.5 1394.75
1400.5 1358.75
1401.5 1298.12
1402.5 1308.62
1403.5 1305.38
1404.5 1384.38
1405.5 1388.5
1406.5 1380.25
1407.5 1463.25
1408.5 1429.25
1409.5 1422.75
1410.5 1335.88
1411.5 1431.25
1412.5 1542.5
1413.5 1629
1414.5 1629.75
1415.5 1893.62
1416.5 2071.5
1417.5 2082.5
1418.5 1821.38
1419.5 1754.38
1420.5 1756.25
1421.5 1480.12
1422.5 1258.5
1423.5 1285
1424.5 1270
1425.5 1314.75
1426.5 1384.88
1427.5 1702.25
1428.5 1843.12
1429.5 1638.62
1430.5 1396.12
1431.5 1293
1432.5 1237.12
1433.5 1225
1434.5 1367.12
1435.5 1286
1436.5 1257.12
1437.5 1315.38
1438.5 1312.75
1439.5 1401
1440.5 1419.62
1441.5 1399.75
1442.5 1447.5
1443.5 1318.38
1444.5 1416
1445.5 1379.62
1446.5 1316.62
1447.5 1349.88
1448.5 1438
1449.5 1467.12
1450.5 1345.12
1451.5 1308.75
1452.5 1271.12
1453.5 1240
1454.5 1327.88
1455.5 1311.5
1456.5 1310.88
1457.5 1254.5
1458.5 1469
1459.5 1584.12
1460.5 1616.25
1461.5 1484.5
1462.5 1362.5
1463.5 1325.75
1464.5 1294.88
1465.5 1239.75
1466.5 1292.25
1467.5 1494.25
1468.5 1586.88
1469.5 1416.38
1470.5 1363.12
1471.5 1270.25
1472.5 1283.75
1473.5 1388.25
1474.5 1325
1475.5 1270.88
1476.5 1401.62
1477.5 1260.12
1478.5 1323.25
1479.5 1260.12
1480.5 1363.88
1481.5 1365.75
1482.5 1364.38
1483.5 1289.38
1484.5 1312.38
1485.5 1208.62
1486.5 1279.38
1487.5 1223.5
1488.5 1382.5
1489.5 1403
1490.5 1263
1491.5 1495.5
1492.5 1672.12
1493.5 2284.62
1494.5 2792.12
1495.5 2512
1496.5 1772.88
1497.5 1543.38
1498.5 1653.88
1499.5 1765.62
1500.5 1478.62
1501.5 1221.75
1502.5 1108.12
1503.5 1229.38
1504.5 1225.38
1505.5 1235.12
1506.5 1462
1507.5 1766.5
1508.5 1946.12
1509.5 1853.5
1510.5 1573.5
1511.5 1370.62
1512.5 1224.12
1513.5 1281.88
1514.5 1276.38
1515.5 1291
1516.5 1763
1517.5 2547
1518.5 2473.12
1519.5 1911
1520.5 1484.38
1521.5 1333.62
1522.5 1221.62
1523.5 1235.25
1524.5 1234.25
1525.5 1279.5
1526.5 1258.62
1527.5 1253.62
1528.5 1245.12
1529.5 1216.12
1530.5 1169
1531.5 1155.5
1532.5 1211.88
1533.5 1216.38
1534.5 1225.75
1535.5 1213.62
1536.5 1377.25
1537.5 1430.62
1538.5 1447.5
1539.5 1353.75
1540.5 1297.38
1541.5 1305
1542.5 1184.5
1543.5 1254.5
1544.5 1245.12
1545.5 1424.88
1546.5 1335.88
1547.5 1405.88
1548.5 1418
1549.5 1314.62
1550.5 1397
1551.5 1484.62
1552.5 1382.75
1553.5 1259.12
1554.5 1296.25
1555.5 1283.62
1556.5 1190.88
1557.5 1321.25
1558.5 1180
1559.5 1451.75
1560.5 1690.62
1561.5 1663
1562.5 1431
1563.5 1396.88
1564.5 1343.5
1565.5 1397.12
1566.5 1240.62
1567.5 1249.88
1568.5 1365.5
1569.5 1233.75
1570.5 1257.25
1571.5 1313.12
1572.5 1531.12
1573.5 1792.62
1574.5 2883
1575.5 4964.38
1576.5 6466
1577.5 5180
1578.5 2923.38
1579.5 1826.12
1580.5 1407.38
1581.5 1335.5
1582.5 1269
1583.5 1273.12
1584.5 1376.25
1585.5 1710.75
1586.5 3181.62
1587.5 6732
1588.5 10643.2
1589.5 9563
1590.5 4725.38
1591.5 2075
1592.5 1511.62
1593.5 1351.75
1594.5 1414
1595.5 1631.12
1596.5 1926.12
1597.5 2141.75
1598.5 1886.88
1599.5 1438
1600.5 1211.88
1601.5 1119.75
1602.5 1305
1603.5 1373.38
1604.5 1488.12
1605.5 1313.75
1606.5 1170
1607.5 1187.12
1608.5 1190.75
1609.5 1141.38
1610.5 1215.25
1611.5 1059.62
1612.5 1085.5
1613.5 1114
1614.5 1053
1615.5 1052.62
1616.5 1202.25
1617.5 1186.38
1618.5 1266.38
1619.5 1925.38
1620.5 2662.25
1621.5 3735.62
1622.5 3685
1623.5 3206.12
1624.5 3200.25
1625.5 2379.88
1626.5 1550.88
1627.5 1220
1628.5 1426.62
1629.5 1807.62
1630.5 1588.75
1631.5 1461.88
1632.5 1497.5
1633.5 1497.75
1634.5 1494.88
1635.5 1258.12
1636.5 1206.5
1637.5 1185.62
1638.5 1088.88
1639.5 1082.38
1640.5 1165.62
1641.5 1200.12
1642.5 1124.12
1643.5 1035.38
1644.5 1081.12
1645.5 1219.75
1646.5 1283.5
1647.5 1304.75
1648.5 1230
1649.5 1134
1650.5 1123.88
1651.5 1142
1652.5 1166.38
1653.5 1005.38
1654.5 1081.5
1655.5 1022.62
1656.5 1196.62
1657.5 1179.5
1658.5 1282.75
1659.5 1188.62
1660.5 1113.5
1661.5 1052.25
1662.5 1057.38
1663.5 1067.12
1664.5 1092.12
1665.5 1176
1666.5 1134.75
1667.5 1135.38
1668.5 1332.75
1669.5 1483.5
1670.5 1599.25
1671.5 1603.5
1672.5 1445.88
1673.5 1531.88
1674.5 2013.75
1675.5 2647.62
1676.5 2402.12
1677.5 1666.12
1678.5 1260.12
1679.5 1159
1680.5 1319.62
1681.5 1797.12
1682.5 2597.38
1683.5 3370
1684.5 2750.38
1685.5 1695.88
1686.5 1308.75
1687.5 1154.5
1688.5 1034
1689.5 1119.25
1690.5 1054.88
1691.5 1059.88
1692.5 1164.25
1693.5 1138.12
1694.5 1243.88
1695.5 1369.38
1696.5 1611.5
1697.5 1813.38
1698.5 2085.62
1699.5 2181.12
1700.5 1954.25
1701.5 1359.62
1702.5 1069.5
1703.5 1040.38
1704.5 1040.75
1705.5 1015.5
1706.5 957
1707.5 1205.12
1708.5 1443.25
1709.5 1410.75
1710.5 1334.62
1711.5 1158.5
1712.5 1087.62
1713.5 1129.12
1714.5 1168.25
1715.5 1694.5
1716.5 3118.62
1717.5 5490
1718.5 6935.75
1719.5 4798.12
1720.5 2273.12
1721.5 1318.5
1722.5 1102.75
1723.5 1156.12
1724.5 1233.88
1725.5 1329.12
1726.5 1417.75
1727.5 1253.88
1728.5 1212.25
1729.5 1037
1730.5 919.375
1731.5 1056.5
1732.5 1019.75
1733.5 991
1734.5 988
1735.5 1015.62
1736.5 1086.62
1737.5 1160.38
1738.5 1208.88
1739.5 1008
1740.5 1000.38
1741.5 988.375
1742.5 1026.62
1743.5 988.375
1744.5 918.375
1745.5 1025.75
1746.5 1017
1747.5 984.25
1748.5 923.875
1749.5 997.5
1750.5 881.375
1751.5 888
1752.5 853
1753.5 900.625
1754.5 1000.12
1755.5 930.125
1756.5 1071.12
1757.5 1023.38
1758.5 947.375
1759.5 964.125
1760.5 1044.88
1761.5 1050.88
1762.5 1025.38
1763.5 1089.62
1764.5 1001.75
1765.5 1093.38
1766.5 1050.5
1767.5 1013.12
1768.5 1081.62
1769.5 1040.38
1770.5 1024.25
1771.5 1091.25
1772.5 1005.75
1773.5 1055.38
1774.5 1067.62
1775.5 1000.62
1776.5 1081.62
1777.5 1103.12
1778.5 1271
1779.5 1242.38
1780.5 1464.75
1781.5 2199.88
1782.5 4091.12
1783.5 5323.38
1784.5 4369.88
1785.5 2787.75
1786.5 3234.38
1787.5 5493.75
1788.5 7322.38
1789.5 5338.25
1790.5 2566
1791.5 1338.5
1792.5 1152.12
1793.5 1099.75
1794.5 1062.38
1795.5 1099
1796.5 1037.12
1797.5 1002.12
1798.5 923.375
1799.5 909.125
1800.5 1005.5
1801.5 957.75
1802.5 1089.75
1803.5 1161.5
1804.5 1112.5
1805.5 1081.88
1806.5 1006.75
1807.5 1052
1808.5 1064.88
1809.5 994.75
1810.5 1052.88
1811.5 1158.25
1812.5 1053
1813.5 1110
1814.5 1161.25
1815.5 1276.38
1816.5 1963.38
1817.5 3011.75
1818.5 3276.12
1819.5 2479.38
1820.5 1716.88
1821.5 1498.62
1822.5 1397.88
1823.5 1279.38
1824.5 1334
1825.5 1449.75
1826.5 1338.5
1827.5 1145.5
1828.5 1030.88
1829.5 1102.25
1830.5 1029.12
1831.5 1057
1832.5 1154.25
1833.5 993.625
1834.5 1043.25
1835.5 1145.88
1836.5 1276.12
1837.5 1367
1838.5 1148.5
1839.5 1133.38
1840.5 1112.75
1841.5 1045.5
1842.5 1038.25
1843.5 962
1844.5 1008.38
1845.5 956.75
1846.5 1042.62
1847.5 1040.75
1848.5 1012.62
1849.5 1112
1850.5 1245.62
1851.5 1885.75
1852.5 1935.88
1853.5 1614.5
1854.5 1217.62
1855.5 1004.88
1856.5 1012.5
1857.5 1070.38
1858.5 1109.25
1859.5 1297
1860.5 1178.5
1861.5 1227.5
1862.5 986.625
1863.5 1063.12
1864.5 1010.12
1865.5 1094.25
1866.5 1269.38
1867.5 1428.88
1868.5 1171.62
1869.5 1144.62
1870.5 1079.88
1871.5 1142.75
1872.5 1282.38
1873.5 1137.75
1874.5 1107.5
1875.5 1048.75
1876.5 963
1877.5 916.125
1878.5 963
1879.5 884
1880.5 994.375
1881.5 1134.62
1882.5 1111.25
1883.5 1217.25
1884.5 1216.38
1885.5 1296.62
1886.5 1206.25
1887.5 1226.88
1888.5 1092.88
1889.5 931.375
1890.5 930.125
1891.5 1019
1892.5 961.375
1893.5 1002
1894.5 946
1895.5 983
1896.5 975.125
1897.5 961.875
1898.5 985.875
1899.5 1000.75
1900.5 987.375
1901.5 1176.38
1902.5 1024.12
1903.5 1022.12
1904.5 937.375
1905.5 987.5
1906.5 992.125
1907.5 999.75
1908.5 1019.38
1909.5 1036
1910.5 1246.38
1911.5 1817.62
1912.5 2329.88
1913.5 1952.5
1914.5 1401
1915.5 1229.25
1916.5 1097.38
1917.5 1075.75
1918.5 1304
1919.5 1832.75
1920.5 3096.5
1921.5 4587.25
1922.5 4473.5
1923.5 2786.75
1924.5 1645.25
1925.5 1300.12
1926.5 1172.88
1927.5 1144
1928.5 1070.88
1929.5 1002
1930.5 944
1931.5 1030.12
1932.5 968.25
1933.5 949.625
1934.5 985.875
1935.5 973.625
1936.5 985.25
1937.5 1051.75
1938.5 1088.88
1939.5 1125.62
1940.5 1215.38
1941.5 1234.5
1942.5 1241
1943.5 1139.88
1944.5 1022.25
1945.5 1076.75
1946.5 999.75
1947.5 1013.5
1948.5 1037.88
1949.5 1123.12
1950.5 976.875
1951.5 938.625
1952.5 972.5
1953.5 1109.62
1954.5 994.125
1955.5 1021.38
1956.5 1010.25
1957.5 1026.62
1958.5 1127.75
1959.5 1152.12
1960.5 1052.5
1961.5 981.125
1962.5 1041.75
1963.5 925.5
1964.5 1030.5
1965.5 943.625
1966.5 958
1967.5 1038.25
1968.5 916.875
1969.5 966.25
1970.5 1003.62
1971.5 912.875
1972.5 926.375
1973.5 893.125
1974.5 911.125
1975.5 1011
1976.5 1043.12
1977.5 1027.38
1978.5 1039.62
1979.5 1029.5
1980.5 1095.5
1981.5 1184.38
1982.5 1148.5
1983.5 1194.62
1984.5 1071.62
1985.5 1122.75
1986.5 1311.25
1987.5 1760
1988.5 2004.38
1989.5 1718.25
1990.5 1225.5
1991.5 1230
1992.5 1181.62
1993.5 1120.5
1994.5 1115
1995.5 974.875
1996.5 1011.25
1997.5 950.25
1998.5 865.125
1999.5 973.625
2000.5 939.375
2001.5 888.25
2002.5 935.375
2003.5 968.5
2004.5 944.125
2005.5 1137.75
2006.5 1106.5
2007.5 1133.62
2008.5 1004.5
2009.5 921.125
2010.5 894.25
2011.5 867.375
2012.5 920.5
2013.5 849.375
2014.5 892.25
2015.5 927.125
2016.5 970.625
2017.5 1007.12
2018.5 916.125
2019.5 928.5
2020.5 934.75
2021.5 827.125
2022.5 899.625
2023.5 996.875
2024.5 1150.62
2025.5 1182.62
2026.5 1135.62
2027.5 1007.62
2028.5 1075.25
2029.5 973.75
2030.5 937.375
2031.5 893.25
2032.5 1050.5
2033.5 1191.62
2034.5 1181.25
2035.5 897.75
2036.5 850.75
2037.5 801
2038.5 835.875
2039.5 803.625
2040.5 762.125
2041.5 772.625
2042.5 757.625
2043.5 836.5
2044.5 851.25
2045.5 797.25
2046.5 821
2047.5 794
2048.5 887.5
2049.5 934.125
2050.5 979.25
2051.5 903.25
2052.5 913.875
2053.5 878.25
2054.5 834.75
2055.5 877.5
2056.5 812.375
2057.5 914.125
2058.5 873.5
2059.5 877.375
2060.5 860.25
2061.5 1144.12
2062.5 1517.12
2063.5 1621.5
2064.5 1255.88
2065.5 999.875
2066.5 893.875
2067.5 971.75
2068.5 968.75
2069.5 951
2070.5 937.375
2071.5 875.5
2072.5 904.375
2073.5 832.25
2074.5 867.875
2075.5 889.5
2076.5 1031
2077.5 999.125
2078.5 938.125
2079.5 891.875
2080.5 881.375
2081.5 835.625
2082.5 972.875
2083.5 1220.75
2084.5 2311.88
2085.5 4961.62
2086.5 9526
2087.5 11535.4
2088.5 8102.62
2089.5 3663.12
2090.5 1613.12
2091.5 1032.12
2092.5 906.375
2093.5 839.125
2094.5 821.375
2095.5 922.375
2096.5 1153.5
2097.5 1826.88
2098.5 2437.88
2099.5 2364.62
2100.5 1580.12
2101.5 1093.25
2102.5 849.25
2103.5 831
2104.5 819.125
2105.5 770.875
2106.5 888.25
2107.5 877
2108.5 810.375
2109.5 795.875
2110.5 788.625
2111.5 744.125
2112.5 774.875
2113.5 849.125
2114.5 833.125
2115.5 954.125
2116.5 1043.75
2117.5 1064.5
2118.5 922.75
2119.5 788.125
2120.5 892.875
2121.5 818.375
2122.5 831.625
2123.5 773.875
2124.5 800
2125.5 813.375
2126.5 861
2127.5 715
2128.5 766.75
2129.5 818.625
2130.5 762.375
2131.5 853.375
2132.5 890.25
2133.5 954.125
2134.5 973.5
2135.5 1038.5
2136.5 1055.88
2137.5 992
2138.5 909.625
2139.5 801.875
2140.5 767.25
2141.5 747.75
2142.5 731
2143.5 720.125
2144.5 870
2145.5 917.125
2146.5 1066
2147.5 1170.12
2148.5 1372.75
2149.5 1659.25
2150.5 1908.38
2151.5 1626.5
2152.5 1274.75
2153.5 1375.88
2154.5 1366.12
2155.5 1273.5
2156.5 1076.88
2157.5 974.125
2158.5 885.5
2159.5 791.75
2160.5 804.875
2161.5 897.875
2162.5 874.5
2163.5 915.375
2164.5 889.875
2165.5 867.875
2166.5 838.375
2167.5 861.875
2168.5 892.375
2169.5 788.25
2170.5 759.375
2171.5 712.25
2172.5 744.25
2173.5 781.125
2174.5 809.5
2175.5 874.125
2176.5 1215.75
2177.5 1577.62
2178.5 1916.75
2179.5 1711.12
2180.5 1350.75
2181.5 1025.25
2182.5 887.25
2183.5 813.5
2184.5 854.375
2185.5 867.625
2186.5 905.75
2187.5 989.625
2188.5 1040.5
2189.5 1093.5
2190.5 1749
2191.5 2802.88
2192.5 4296
2193.5 5027.38
2194.5 3781.62
2195.5 2171.25
2196.5 1226.75
2197.5 943.5
2198.5 875.5
2199.5 884.25
2200.5 973.375
2201.5 867.375
2202.5 746.25
2203.5 710.125
2204.5 784.875
2205.5 836.5
2206.5 865.75
2207.5 932.625
2208.5 904.625
2209.5 867.75
2210.5 801.75
2211.5 876.75
2212.5 761
2213.5 784.25
2214.5 925.625
2215.5 907.75
2216.5 972.625
2217.5 940.25
2218.5 943.125
2219.5 1069.5
2220.5 1206.25
2221.5 1739.12
2222.5 2337.88
2223.5 2297.12
2224.5 1722.25
2225.5 1083.38
2226.5 916.375
2227.5 958.375
2228.5 1136.12
2229.5 1214
2230.5 1192.88
2231.5 1276.62
2232.5 1283.62
2233.5 1465.5
2234.5 1167.25
2235.5 932.875
2236.5 801.5
2237.5 825.875
2238.5 851.5
2239.5 834.375
2240.5 859.25
2241.5 832.25
2242.5 763.625
2243.5 749.75
2244.5 784.375
2245.5 771
2246.5 812.625
2247.5 887.875
2248.5 974.5
2249.5 965
2250.5 980.75
2251.5 956.25
2252.5 1040.12
2253.5 1149.38
2254.5 1134.75
2255.5 929
2256.5 972.5
2257.5 982.875
2258.5 1048.38
2259.5 1049.75
2260.5 912.5
2261.5 843.75
2262.5 1164.25
2263.5 1581.12
2264.5 2063
2265.5 1893.38
2266.5 1285.25
2267.5 955.625
2268.5 963.25
2269.5 966.125
2270.5 888.25
2271.5 935.875
2272.5 927.375
2273.5 1081.62
2274.5 988.125
2275.5 932
2276.5 846.5
2277.5 827.75
2278.5 888.625
2279.5 840.375
2280.5 980.5
2281.5 1026.62
2282.5 1031.12
2283.5 997.375
2284.5 853.5
2285.5 792.875
2286.5 730.375
2287.5 722.25
2288.5 658.375
2289.5 706
2290.5 740.625
2291.5 735.125
2292.5 740.125
2293.5 675.75
2294.5 748
2295.5 810.25
2296.5 910
2297.5 978.625
2298.5 982.375
2299.5 749.5
2300.5 664
2301.5 714
2302.5 680.125
2303.5 749.625
2304.5 830
2305.5 865
2306.5 851.75
2307.5 872.75
2308.5 826.5
2309.5 913.25
2310.5 976.125
2311.5 963.5
2312.5 951
2313.5 952.875
2314.5 951.25
2315.5 878
2316.5 869
2317.5 827
2318.5 825.25
2319.5 719.625
2320.5 718
2321.5 775.25
2322.5 762.875
2323.5 706.375
2324.5 688.625
2325.5 654.25
2326.5 758.625
2327.5 847.25
2328.5 821.625
2329.5 772.375
2330.5 835.5
2331.5 893.375
2332.5 943.375
2333.5 1056.25
2334.5 957.25
2335.5 818.125
2336.5 715.875
2337.5 741.125
2338.5 713
2339.5 704.375
2340.5 713.875
2341.5 714.5
2342.5 799.125
2343.5 861.625
2344.5 776.625
2345.5 788.875
2346.5 756.25
2347.5 731.5
2348.5 746.625
2349.5 724.375
2350.5 875.625
2351.5 730.75
2352.5 781.5
2353.5 782.375
2354.5 743.625
2355.5 854.375
2356.5 895
2357.5 844.75
2358.5 691.875
2359.5 675.5
2360.5 632.875
2361.5 711.625
2362.5 677
2363.5 729.375
2364.5 704.25
2365.5 668.875
2366.5 695.625
2367.5 735.125
2368.5 695.875
2369.5 809.25
2370.5 694.75
2371.5 748.5
2372.5 739.75
2373.5 664.5
2374.5 712.125
2375.5 715.75
2376.5 751.125
2377.5 810.5
2378.5 926.5
2379.5 1128.62
2380.5 1194.75
2381.5 1206.5
2382.5 987.75
2383.5 826
2384.5 739.625
2385.5 681.75
2386.5 728.25
2387.5 718.625
2388.5 688.875
2389.5 706.375
2390.5 686
2391.5 640.25
2392.5 693.75
2393.5 688.625
2394.5 709.875
2395.5 686
2396.5 722.25
2397.5 770.875
2398.5 754.75
2399.5 719.625
2400.5 688.125
2401.5 719.125
2402.5 746.375
2403.5 827
2404.5 878
2405.5 841.375
2406.5 795.875
2407.5 702.875
2408.5 714.375
2409.5 685
2410.5 738.5
2411.5 753.125
2412.5 868.125
2413.5 812.25
2414.5 797.125
2415.5 726.375
2416.5 783.625
2417.5 754.25
2418.5 739
2419.5 663
2420.5 689.625
2421.5 681.625
2422.5 686.625
2423.5 882.375
2424.5 855.875
2425.5 915.125
2426.5 870.125
2427.5 760.25
2428.5 821.25
2429.5 922.625
2430.5 893.125
2431.5 960
2432.5 875.25
2433.5 795.5
2434.5 796.75
2435.5 800.5
2436.5 705.75
2437.5 754.75
2438.5 702.875
2439.5 716.625
2440.5 768.75
2441.5 805
2442.5 1005.25
2443.5 1286
2444.5 1570.25
2445.5 1542.62
2446.5 1217.88
2447.5 829.25
2448.5 708.625
2449.5 769.5
2450.5 701
2451.5 655.75
2452.5 704.5
2453.5 708.75
2454.5 766.5
2455.5 816.375
2456.5 691.125
2457.5 690
2458.5 671.125
2459.5 685.5
2460.5 697.5
2461.5 691.75
2462.5 728.75
2463.5 920.75
2464.5 1111.62
2465.5 1519.88
2466.5 1652.88
2467.5 1411.5
2468.5 982.25
2469.5 809.875
2470.5 744.375
2471.5 717.75
2472.5 813.25
2473.5 866
2474.5 854.125
2475.5 875.125
2476.5 833.875
2477.5 782.375
2478.5 737.125
2479.5 713
2480.5 594.75
2481.5 669.5
2482.5 591
2483.5 642.125
2484.5 645
2485.5 695.75
2486.5 636
2487.5 761.25
2488.5 757.75
2489.5 779.5
2490.5 779.125
2491.5 829.375
2492.5 719.375
2493.5 739.625
2494.5 799.875
2495.5 795.25
2496.5 869.375
2497.5 1093.75
2498.5 1278.25
2499.5 1443.62
2500.5 1254.62
2501.5 922.75
2502.5 756.125
2503.5 739.625
2504.5 752.125
2505.5 757.625
2506.5 662.25
2507.5 654.25
2508.5 646.625
2509.5 702.75
2510.5 739
2511.5 854.5
2512.5 893.25
2513.5 968.75
2514.5 886.75
2515.5 1122.25
2516.5 1602.62
2517.5 2586.12
2518.5 3526.5
2519.5 3505.62
2520.5 2370.88
2521.5 1363.5
2522.5 802.5
2523.5 768.625
2524.5 755.875
2525.5 739.5
2526.5 861.5
2527.5 947
2528.5 957.25
2529.5 939.375
2530.5 790.375
2531.5 721.625
2532.5 754.75
2533.5 819.75
2534.5 812.25
2535.5 762.875
2536.5 761.875
2537.5 812.25
2538.5 886.25
2539.5 1037.12
2540.5 1038.5
2541.5 936
2542.5 803.875
2543.5 776.875
2544.5 729.75
2545.5 707.375
2546.5 655.375
2547.5 830.375
2548.5 892.625
2549.5 964.125
2550.5 832.25
2551.5 790.125
2552.5 784
2553.5 695
2554.5 645.875
2555.5 724.25
2556.5 739.375
2557.5 743
2558.5 790.625
2559.5 790
2560.5 742
2561.5 685.125
2562.5 738
2563.5 636.625
2564.5 629.125
2565.5 713.75
2566.5 708.625
2567.5 681.25
2568.5 705.625
2569.5 676.125
2570.5 645.125
2571.5 645.125
2572.5 641.75
2573.5 695.75
2574.5 640.25
2575.5 837.875
2576.5 779.125
2577.5 777.125
2578.5 713.375
2579.5 751.25
2580.5 774.25
2581.5 856.625
2582.5 806
2583.5 822.5
2584.5 863.25
2585.5 889.75
2586.5 898.375
2587.5 803.5
2588.5 697.125
2589.5 728.375
2590.5 720.5
2591.5 676.375
2592.5 701.25
2593.5 625
2594.5 676.25
2595.5 667.625
2596.5 616
2597.5 635.375
2598.5 832.875
2599.5 852.875
2600.5 1058.12
2601.5 1135.5
2602.5 1115.62
2603.5 1015.88
2604.5 905.375
2605.5 821.5
2606.5 692.25
2607.5 711.875
2608.5 777.5
2609.5 816.375
2610.5 876.75
2611.5 923.375
2612.5 870
2613.5 826
2614.5 705.25
2615.5 643.625
2616.5 709.25
2617.5 680.5
2618.5 750.125
2619.5 695.5
2620.5 709.875
2621.5 747.75
2622.5 728.5
2623.5 719.625
2624.5 783.625
2625.5 1048.38
2626.5 1247.38
2627.5 1406.25
2628.5 1264.5
2629.5 961.375
2630.5 820.375
2631.5 747.75
2632.5 998.875
2633.5 1095.75
2634.5 913.625
2635.5 761.25
2636.5 632.125
2637.5 675.875
2638.5 658.875
2639.5 599.75
2640.5 602.5
2641.5 627.25
2642.5 660.5
2643.5 720.75
2644.5 621.75
2645.5 678.875
2646.5 651.5
2647.5 696.875
2648.5 695.25
2649.5 729.125
2650.5 736.25
2651.5 791.25
2652.5 768
2653.5 761.125
2654.5 734
2655.5 686.625
2656.5 611.75
2657.5 644
2658.5 737.875
2659.5 864.625
2660.5 1051.88
2661.5 1435.88
2662.5 1329.88
2663.5 1022.38
2664.5 930.125
2665.5 908.375
2666.5 879.25
2667.5 839.75
2668.5 962.75
2669.5 1017
2670.5 1012
2671.5 1097.5
2672.5 886.375
2673.5 846.25
2674.5 816.375
2675.5 828.375
2676.5 861.75
2677.5 765.75
2678.5 703
2679.5 753.625
2680.5 802.75
2681.5 838.875
2682.5 794.5
2683.5 800.5
2684.5 778.125
2685.5 709.25
2686.5 680.75
2687.5 744.125
2688.5 639.625
2689.5 604.5
2690.5 702.625
2691.5 678.125
2692.5 688.625
2693.5 722
2694.5 672
2695.5 680.25
2696.5 666.125
2697.5 634.5
2698.5 654.25
2699.5 594
2700.5 674
2701.5 617.375
2702.5 639.375
2703.5 659.75
2704.5 714.375
2705.5 763.375
2706.5 765.125
2707.5 746.625
2708.5 784.75
2709.5 691
2710.5 714.25
2711.5 654.125
2712.5 705
2713.5 716.875
2714.5 619
2715.5 600.625
2716.5 561.5
2717.5 619.125
2718.5 537.625
2719.5 647.625
2720.5 690.375
2721.5 738.875
2722.5 682.75
2723.5 777.625
2724.5 745.875
2725.5 639.625
2726.5 573.5
2727.5 619
2728.5 628.125
2729.5 611.25
2730.5 679.875
2731.5 730.75
2732.5 762.75
2733.5 687.25
2734.5 662.875
2735.5 709.875
2736.5 695.375
2737.5 719.25
2738.5 674.5
2739.5 618.25
2740.5 601.75
2741.5 636.875
2742.5 708.25
2743.5 695.25
2744.5 773.75
2745.5 929.375
2746.5 881.125
2747.5 888.375
2748.5 813.375
2749.5 810.25
2750.5 696.125
2751.5 740.75
2752.5 662
2753.5 631.625
2754.5 700.125
2755.5 665
2756.5 814.25
2757.5 724.25
2758.5 715
2759.5 688.75
2760.5 655.625
2761.5 701.375
2762.5 768
2763.5 882
2764.5 1038.5
2765.5 1137.38
2766.5 962.625
2767.5 761.75
2768.5 687.75
2769.5 618.75
2770.5 650.5
2771.5 681.625
2772.5 727.875
2773.5 738.125
2774.5 814.5
2775.5 719.75
2776.5 751.25
2777.5 776.375
2778.5 775.625
2779.5 723.875
2780.5 848.875
2781.5 1026.5
2782.5 1408
2783.5 1917.62
2784.5 2563.88
2785.5 2404.38
2786.5 1642.62
2787.5 1086.75
2788.5 713.5
2789.5 624.875
2790.5 646.75
2791.5 683.875
2792.5 634.625
2793.5 768.75
2794.5 801.625
2795.5 719.875
2796.5 726.625
2797.5 662.5
2798.5 633.875
2799.5 633.375
2800.5 668.25
2801.5 694.375
2802.5 680.625
2803.5 568.5
2804.5 593.375
2805.5 620.25
2806.5 623.5
2807.5 697
2808.5 728.75
2809.5 663
2810.5 659.25
2811.5 787.125
2812.5 868
2813.5 1005.38
2814.5 1263
2815.5 1499.38
2816.5 1419.5
2817.5 1147.5
2818.5 935.25
2819.5 806.375
2820.5 840.25
2821.5 808.75
2822.5 856.125
2823.5 810.125
2824.5 802.625
2825.5 723.375
2826.5 732.25
2827.5 893
2828.5 908.125
2829.5 1032.88
2830.5 991.375
2831.5 868.875
2832.5 633.75
2833.5 559.5
2834.5 578
2835.5 535.625
2836.5 531.625
2837.5 591.625
2838.5 637.5
2839.5 629.625
2840.5 691.25
2841.5 733
2842.5 780
2843.5 805.125
2844.5 762.5
2845.5 798.875
2846.5 797.875
2847.5 768.25
2848.5 903.625
2849.5 820
2850.5 661
2851.5 655.25
2852.5 693.75
2853.5 758.125
2854.5 820.625
2855.5 845.875
2856.5 729.375
2857.5 666.375
2858.5 666.5
2859.5 577.25
2860.5 607.875
2861.5 556.5
2862.5 611.375
2863.5 599.625
2864.5 608.375
2865.5 665.375
2866.5 689.5
2867.5 730.375
2868.5 692.125
2869.5 664.25
2870.5 630.625
2871.5 643
2872.5 564.75
2873.5 563.375
2874.5 527.5
2875.5 553.5
2876.5 610.75
2877.5 540.875
2878.5 607.5
2879.5 632.25
2880.5 617.125
2881.5 679.5
2882.5 647.25
2883.5 623.125
2884.5 636.375
2885.5 537.375
2886.5 563.25
2887.5 613.75
2888.5 637.25
2889.5 762.25
2890.5 885.375
2891.5 825.125
2892.5 799.875
2893.5 711.125
2894.5 700
2895.5 701.5
2896.5 686.25
2897.5 672.875
2898.5 649.5
2899.5 548.375
2900.5 626.375
2901.5 701.875
2902.5 758.75
2903.5 934.5
2904.5 766.875
2905.5 663.5
2906.5 613.75
2907.5 593.875
2908.5 644.375
2909.5 646.75
2910.5 744.875
2911.5 740.125
2912.5 730.75
2913.5 681.125
2914.5 698.625
2915.5 862.875
2916.5 1112.5
2917.5 1192.12
2918.5 1091.12
2919.5 866.75
2920.5 651.625
2921.5 669.375
2922.5 625.75
2923.5 648.875
2924.5 597
2925.5 727.125
2926.5 692.625
2927.5 753.25
2928.5 733.25
2929.5 675.5
2930.5 639.875
2931.5 647.875
2932.5 613
2933.5 611.125
2934.5 553.5
2935.5 592.625
2936.5 625.5
2937.5 675.125
2938.5 601.875
2939.5 647.125
2940.5 652
2941.5 674.75
2942.5 665.875
2943.5 712.25
2944.5 625.375
2945.5 656.125
2946.5 765.25
2947.5 647.25
2948.5 739.5
2949.5 749.375
2950.5 687.125
2951.5 814.25
2952.5 902.75
2953.5 856.875
2954.5 987.625
2955.5 1161.5
2956.5 1285.75
2957.5 1390.88
2958.5 1206.12
2959.5 955.875
2960.5 955.875
2961.5 1012.5
2962.5 861.75
2963.5 689.375
2964.5 680.875
2965.5 668.625
2966.5 621.375
2967.5 721.25
2968.5 737.75
2969.5 795.25
2970.5 810.625
2971.5 898.75
2972.5 876
2973.5 676.5
2974.5 647.125
2975.5 561.625
2976.5 627.875
2977.5 678.375
2978.5 711.75
2979.5 681
2980.5 678.375
2981.5 682.875
2982.5 542.25
2983.5 503
2984.5 550.125
2985.5 545.375
2986.5 555.875
2987.5 534.25
2988.5 592.625
2989.5 563
2990.5 584.375
2991.5 697.875
2992.5 714.5
2993.5 750.125
2994.5 754.875
2995.5 740
2996.5 619.125
2997.5 646.5
2998.5 564.75
2999.5 598.875
3000.5 548.5
3001.5 625.125
3002.5 716.75
3003.5 663.125
3004.5 670.625
3005.5 672.375
3006.5 667.125
3007.5 716
3008.5 690.125
3009.5 710.625
3010.5 660.625
3011.5 682.375
3012.5 707.375
3013.5 786
3014.5 816.125
3015.5 845.375
3016.5 739.5
3017.5 589
3018.5 523.5
3019.5 506
3020.5 586.375
3021.5 590.375
3022.5 567.25
3023.5 636.125
3024.5 571.875
3025.5 617.25
3026.5 640.875
3027.5 626.25
3028.5 584
3029.5 597
3030.5 792.25
3031.5 935.625
3032.5 972
3033.5 901.25
3034.5 643.75
3035.5 596.75
3036.5 603.625
3037.5 576.875
3038.5 617.25
3039.5 526.5
3040.5 627.25
3041.5 630.125
3042.5 596.625
3043.5 641.375
3044.5 669.875
3045.5 616
3046.5 669.75
3047.5 666.125
3048.5 734.625
3049.5 922.375
3050.5 1121.12
3051.5 1624.38
3052.5 1678.62
3053.5 1375.88
3054.5 913.125
3055.5 680.25
3056.5 582.5
3057.5 683.25
3058.5 560.25
3059.5 567.75
3060.5 650.125
3061.5 615.875
3062.5 602.75
3063.5 598.75
3064.5 655.625
3065.5 713.25
3066.5 614.5
3067.5 601.75
3068.5 590.25
3069.5 613.75
3070.5 647.375
3071.5 740.625
3072.5 779.625
3073.5 757.5
3074.5 838.875
3075.5 797.625
3076.5 774.375
3077.5 712.5
3078.5 676.375
3079.5 599.375
3080.5 530.625
3081.5 497.75
3082.5 488.125
3083.5 549
3084.5 582.125
3085.5 527.75
3086.5 597.5
3087.5 499.875
3088.5 484.75
3089.5 526.5
3090.5 530.75
3091.5 588.75
3092.5 559
3093.5 565.875
3094.5 523.125
3095.5 554
3096.5 539
3097.5 595
3098.5 663.875
3099.5 710.875
3100.5 696.875
3101.5 662.75
3102.5 593.25
3103.5 611.625
3104.5 609.875
3105.5 685.25
3106.5 711.5
3107.5 864
3108.5 1036.25
3109.5 956.125
3110.5 992.625
3111.5 825
3112.5 738.375
3113.5 758.375
3114.5 719
3115.5 626
3116.5 632.375
3117.5 527.5
3118.5 556.875
3119.5 532
3120.5 567.125
3121.5 600.875
3122.5 685.875
3123.5 600.875
3124.5 593.125
3125.5 515.5
3126.5 557.75
3127.5 524.75
3128.5 534.375
3129.5 490.75
3130.5 506.125
3131.5 487
3132.5 529.625
3133.5 607.75
3134.5 533.25
3135.5 548.625
3136.5 657.5
3137.5 647.125
3138.5 753.375
3139.5 747.5
3140.5 717.375
3141.5 656.625
3142.5 608.875
3143.5 531.875
3144.5 462.5
3145.5 616.75
3146.5 619.125
3147.5 524.875
3148.5 602.875
3149.5 665.375
3150.5 725.75
3151.5 653.25
3152.5 669.625
3153.5 558.75
3154.5 518.5
3155.5 578
3156.5 543.25
3157.5 574.375
3158.5 709.125
3159.5 841.25
3160.5 942.125
3161.5 988.25
3162.5 736.125
3163.5 640.5
3164.5 508.875
3165.5 561.25
3166.5 525.625
3167.5 530.875
3168.5 501.25
3169.5 516.25
3170.5 543.75
3171.5 590.25
3172.5 671.25
3173.5 796.5
3174.5 1126
3175.5 1462
3176.5 1591.5
3177.5 1151.88
3178.5 854.375
3179.5 605.25
3180.5 579.75
3181.5 626.5
3182.5 687.25
3183.5 852.5
3184.5 794.125
3185.5 719.125
3186.5 663.75
3187.5 737.125
3188.5 653.875
3189.5 638.75
3190.5 612.25
3191.5 559
3192.5 559.25
3193.5 598.75
3194.5 675.25
3195.5 760.125
3196.5 856
3197.5 952.125
3198.5 839.125
3199.5 633.5
3200.5 591.875
3201.5 579.875
3202.5 756.125
3203.5 869.25
3204.5 1022
3205.5 1164
3206.5 1139.5
3207.5 929.875
3208.5 732.5
3209.5 637.5
3210.5 595.75
3211.5 625.5
3212.5 631.75
3213.5 633.25
3214.5 662.75
3215.5 654.5
3216.5 704.125
3217.5 660.375
3218.5 653.375
3219.5 568.25
3220.5 601.375
3221.5 706.125
3222.5 851.75
3223.5 859.625
3224.5 826.125
3225.5 618.875
3226.5 530.375
3227.5 476.625
3228.5 520
3229.5 568.125
3230.5 658
3231.5 834.25
3232.5 1042.62
3233.5 1250.75
3234.5 1116.12
3235.5 789.375
3236.5 583.75
3237.5 481.625
3238.5 523.5
3239.5 515.875
3240.5 503.5
3241.5 442.125
3242.5 479
3243.5 467.75
3244.5 492.125
3245.5 555.25
3246.5 594.75
3247.5 668
3248.5 656.375
3249.5 616.625
3250.5 619.75
3251.5 579.625
3252.5 550.125
3253.5 571.625
3254.5 727
3255.5 931.25
3256.5 1229.25
3257.5 1514.62
3258.5 1524.88
3259.5 1328.5
3260.5 1048
3261.5 869.5
3262.5 712.375
3263.5 629.625
3264.5 571.75
3265.5 628
3266.5 625.5
3267.5 596
3268.5 546
3269.5 538
3270.5 538.125
3271.5 465
3272.5 505.75
3273.5 477
3274.5 490
3275.5 474.25
3276.5 480.875
3277.5 439.875
3278.5 450.25
3279.5 492.125
3280.5 489.75
3281.5 511
3282.5 548.625
3283.5 528.875
3284.5 551.375
3285.5 523.375
3286.5 592.125
3287.5 487.375
3288.5 508.25
3289.5 551.25
3290.5 542.75
3291.5 522
3292.5 545.875
3293.5 499.75
3294.5 482.25
3295.5 541.25
3296.5 596.75
3297.5 529.875
3298.5 484.625
3299.5 482.5
3300.5 472.25
3301.5 484.875
3302.5 468
3303.5 471.125
3304.5 484.375
3305.5 530.125
3306.5 544.25
3307.5 655.625
3308.5 673.375
3309.5 656.625
3310.5 654.25
3311.5 658.25
3312.5 672
3313.5 693.125
3314.5 593.125
3315.5 510.75
3316.5 514.75
3317.5 512.125
3318.5 489.625
3319.5 498.125
3320.5 617.375
3321.5 609.625
3322.5 669.125
3323.5 648.875
3324.5 612.5
3325.5 532.75
3326.5 509.25
3327.5 527.5
3328.5 595
3329.5 565.5
3330.5 669.5
3331.5 948.375
3332.5 1279.62
3333.5 1430.75
3334.5 1254.62
3335.5 832.375
3336.5 609.625
3337.5 588.625
3338.5 641.75
3339.5 705.125
3340.5 619.375
3341.5 568.125
3342.5 489
3343.5 428.125
3344.5 421.75
3345.5 450.625
3346.5 403.5
3347.5 499.5
3348.5 469.25
3349.5 501.75
3350.5 587.875
3351.5 739.75
3352.5 1006.88
3353.5 1467.88
3354.5 1575.75
3355.5 1454.75
3356.5 981.75
3357.5 698
3358.5 580.5
3359.5 512.125
3360.5 527.375
3361.5 564.625
3362.5 687.625
3363.5 799.875
3364.5 1151.75
3365.5 1443.75
3366.5 1776.5
3367.5 1874.5
3368.5 1437.12
3369.5 835.375
3370.5 584.375
3371.5 447.875
3372.5 486.5
3373.5 468.125
3374.5 453.125
3375.5 432.625
3376.5 472.125
3377.5 424.125
3378.5 472.75
3379.5 496.5
3380.5 481.5
3381.5 501.25
3382.5 567.75
3383.5 524.5
3384.5 515.75
3385.5 484.875
3386.5 502.125
3387.5 535.25
3388.5 591.25
3389.5 693.375
3390.5 645.875
3391.5 754
3392.5 926.125
3393.5 841.5
3394.5 708.75
3395.5 529.25
3396.5 482.625
3397.5 510.5
3398.5 490.25
3399.5 462.125
3400.5 500.375
3401.5 527.625
3402.5 534.375
3403.5 506.875
3404.5 472.5
3405.5 477.25
3406.5 475.875
3407.5 460.875
3408.5 449
3409.5 457.125
3410.5 453
3411.5 502
3412.5 445.25
3413.5 446.625
3414.5 457
3415.5 400.375
3416.5 472.75
3417.5 510.25
3418.5 530.625
3419.5 525.625
3420.5 504.5
3421.5 457.625
3422.5 382.625
3423.5 422
3424.5 410.125
3425.5 503.625
3426.5 515.25
3427.5 603.5
3428.5 664.5
3429.5 631.75
3430.5 506.875
3431.5 493.625
3432.5 474.125
3433.5 587
3434.5 518.125
3435.5 519.625
3436.5 530.625
3437.5 579.875
3438.5 571.25
3439.5 648.625
3440.5 695
3441.5 644.875
3442.5 570
3443.5 619.375
3444.5 696.75
3445.5 787.5
3446.5 800.875
3447.5 735.5
3448.5 573.375
3449.5 463.75
3450.5 499.75
3451.5 411.875
3452.5 418
3453.5 499.125
3454.5 491.875
3455.5 482.875
3456.5 597.875
3457.5 560.25
3458.5 489.25
3459.5 548.375
3460.5 578.5
3461.5 496.375
3462.5 549.875
3463.5 461.5
3464.5 554.125
3465.5 602.375
3466.5 620
3467.5 642.375
3468.5 491.375
3469.5 424.875
3470.5 459.625
3471.5 421.375
3472.5 428.625
3473.5 465.125
3474.5 431.875
3475.5 457.375
3476.5 479
3477.5 449.5
3478.5 463.625
3479.5 459.875
3480.5 484
3481.5 558.125
3482.5 512.375
3483.5 543.5
3484.5 520.625
3485.5 491.75
3486.5 428.75
3487.5 481.75
3488.5 446.375
3489.5 391.625
3490.5 415.875
3491.5 506.625
3492.5 528
3493.5 531.375
3494.5 506.875
3495.5 525.5
3496.5 483.5
3497.5 500.625
3498.5 479.375
3499.5 428
3500.5 489.875
3501.5 426.5
3502.5 461.875
3503.5 473.625
3504.5 524.5
3505.5 597.5
3506.5 739.125
3507.5 843.625
3508.5 842.875
3509.5 768
3510.5 724.125
3511.5 634.875
3512.5 669.75
3513.5 852.125
3514.5 929.25
3515.5 1242.12
3516.5 1355.38
3517.5 1317.62
3518.5 993
3519.5 683.5
3520.5 579.25
3521.5 532.375
3522.5 646
3523.5 594.125
3524.5 637.125
3525.5 637.625
3526.5 608.375
3527.5 557.125
3528.5 487.875
3529.5 494
3530.5 553
3531.5 592.375
3532.5 606.625
3533.5 563.375
3534.5 602.25
3535.5 478.25
3536.5 476.75
3537.5 487.25
3538.5 505.125
3539.5 524.5
3540.5 554.75
3541.5 603
3542.5 650.25
3543.5 736.375
3544.5 750
3545.5 586.5
3546.5 505.5
3547.5 548.625
3548.5 467.125
3549.5 444.625
3550.5 381.5
3551.5 387.625
3552.5 383.25
3553.5 459.5
3554.5 510.375
3555.5 575.375
3556.5 699.5
3557.5 737.75
3558.5 637.625
3559.5 535.125
3560.5 468.375
3561.5 499.25
3562.5 414
3563.5 444.875
3564.5 472.75
3565.5 486.625
3566.5 488.875
3567.5 465.25
3568.5 425.125
3569.5 412.5
3570.5 492.125
3571.5 378.875
3572.5 449.25
3573.5 429.25
3574.5 412.5
3575.5 453.125
3576.5 429.125
3577.5 494
3578.5 461.75
3579.5 473.625
3580.5 540.75
3581.5 565.75
3582.5 693.375
3583.5 617
3584.5 516
3585.5 544.25
3586.5 530.75
3587.5 491.25
3588.5 467.375
3589.5 445.375
3590.5 410.25
3591.5 441.5
3592.5 458.375
3593.5 445.125
3594.5 469.875
3595.5 478.25
3596.5 448.5
3597.5 416.125
3598.5 426.75
3599.5 441
3600.5 456
3601.5 413
3602.5 488.75
3603.5 430.125
3604.5 396.125
3605.5 442.125
3606.5 422.625
3607.5 538.625
3608.5 566.625
3609.5 647
3610.5 672.5
3611.5 674.625
3612.5 650.125
3613.5 588.875
3614.5 499.5
3615.5 525
3616.5 468.875
3617.5 500.375
3618.5 604.25
3619.5 816.375
3620.5 1007.38
3621.5 1215.25
3622.5 1147.38
3623.5 871
3624.5 633.75
3625.5 482.625
3626.5 432.75
3627.5 441.375
3628.5 421.5
3629.5 385
3630.5 431
3631.5 425.625
3632.5 490
3633.5 411.25
3634.5 421.125
3635.5 404
3636.5 403.125
3637.5 424
3638.5 460.625
3639.5 448
3640.5 436.625
3641.5 407
3642.5 388.25
3643.5 427.25
3644.5 454.125
3645.5 557.875
3646.5 659.125
3647.5 832.5
3648.5 989.375
3649.5 974.375
3650.5 913.25
3651.5 592.75
3652.5 513.5
3653.5 518.25
3654.5 509.75
3655.5 542.625
3656.5 592.75
3657.5 563.25
3658.5 522.875
3659.5 496
3660.5 460.25
3661.5 531.375
3662.5 469.375
3663.5 497.875
3664.5 489.5
3665.5 431.875
3666.5 408.375
3667.5 442.125
3668.5 477.25
3669.5 554.375
3670.5 747.875
3671.5 927.75
3672.5 1074.75
3673.5 1052.62
3674.5 812.5
3675.5 523.75
3676.5 491.375
3677.5 436
3678.5 367.875
3679.5 382.875
3680.5 423.625
3681.5 404.5
3682.5 415.375
3683.5 406.875
3684.5 420.75
3685.5 408.625
3686.5 484.625
3687.5 505
3688.5 560.125
3689.5 566.75
3690.5 562.5
3691.5 598.5
3692.5 468.125
3693.5 544.625
3694.5 559.5
3695.5 546.125
3696.5 538.125
3697.5 583.5
3698.5 580.125
3699.5 458.625
3700.5 463.625
3701.5 400
3702.5 430.5
3703.5 470.125
3704.5 468.375
3705.5 424
3706.5 429.125
3707.5 408.75
3708.5 362.25
3709.5 428.875
3710.5 401.5
3711.5 391
3712.5 458
3713.5 557.375
3714.5 592.625
3715.5 653.875
3716.5 620.625
3717.5 606.875
3718.5 613.625
3719.5 650.125
3720.5 746.625
3721.5 779
3722.5 742
3723.5 662.25
3724.5 750.5
3725.5 668
3726.5 528.375
3727.5 466.375
3728.5 411.25
3729.5 390.875
3730.5 432.625
3731.5 456.25
3732.5 456
3733.5 374.375
3734.5 405.5
3735.5 352.75
3736.5 388.625
3737.5 346.25
3738.5 383.75
3739.5 377.875
3740.5 357.125
3741.5 398.5
3742.5 519
3743.5 603.75
3744.5 723.25
3745.5 875
3746.5 806.125
3747.5 791.625
3748.5 603.625
3749.5 514.625
3750.5 474.375
3751.5 434.75
3752.5 484.625
3753.5 450.75
3754.5 446.375
3755.5 416.5
3756.5 427.875
3757.5 463.625
3758.5 485.25
3759.5 520.875
3760.5 571.75
3761.5 483.5
3762.5 505.25
3763.5 439.75
3764.5 413.125
3765.5 429.875
3766.5 458
3767.5 446.125
3768.5 483.625
3769.5 475.125
3770.5 428.375
3771.5 394.5
3772.5 403.625
3773.5 388.125
3774.5 411
3775.5 418.125
3776.5 465.375
3777.5 373.875
3778.5 374.625
3779.5 367
3780.5 400.625
3781.5 442
3782.5 376.625
3783.5 411
3784.5 416.375
3785.5 447.375
3786.5 498.375
3787.5 487.375
3788.5 442.375
3789.5 471.75
3790.5 416.625
3791.5 468.875
3792.5 483.5
3793.5 527.625
3794.5 556.375
3795.5 684.125
3796.5 704.75
3797.5 665
3798.5 588.25
3799.5 495.125
3800.5 426
3801.5 397.625
3802.5 452.5
3803.5 414.5
3804.5 452.375
3805.5 567.625
3806.5 660.75
3807.5 873.5
3808.5 860.75
3809.5 852.625
3810.5 641.25
3811.5 495.125
3812.5 424.25
3813.5 338.75
3814.5 398.375
3815.5 389.875
3816.5 398.875
3817.5 365.125
3818.5 388.5
3819.5 396.75
3820.5 395.25
3821.5 361.5
3822.5 376.875
3823.5 364.375
3824.5 411.5
3825.5 389.875
3826.5 342.625
3827.5 375.625
3828.5 444.875
3829.5 398.75
3830.5 439.75
3831.5 492.875
3832.5 570.375
3833.5 629.375
3834.5 536.5
3835.5 621
3836.5 530
3837.5 424.375
3838.5 326
3839.5 428.5
3840.5 400.625
3841.5 370.625
3842.5 429.125
3843.5 476.25
3844.5 435.75
3845.5 436.375
3846.5 450.5
3847.5 483.5
3848.5 518.625
3849.5 510.625
3850.5 454.625
3851.5 428.125
3852.5 332.25
3853.5 378.375
3854.5 377.75
3855.5 395.375
3856.5 389.75
3857.5 424.375
3858.5 508
3859.5 540.125
3860.5 584.875
3861.5 572.25
3862.5 444.5
3863.5 444.25
3864.5 387.625
3865.5 451.125
3866.5 423
3867.5 466.625
3868.5 459.25
3869.5 517.875
3870.5 477.125
3871.5 485
3872.5 541.75
3873.5 595.25
3874.5 577
3875.5 606
3876.5 590.375
3877.5 500.375
3878.5 417.375
3879.5 327.5
3880.5 342.25
3881.5 359.625
3882.5 397.875
3883.5 422.125
3884.5 412.5
3885.5 359.125
3886.5 387.625
3887.5 444.375
3888.5 407
3889.5 390.125
3890.5 400.5
3891.5 401.875
3892.5 475.125
3893.5 434.875
3894.5 433.25
3895.5 411.75
3896.5 454.75
3897.5 508.875
3898.5 480.125
3899.5 525.125
3900.5 642.125
3901.5 719.625
3902.5 844.25
3903.5 831.875
3904.5 731.875
3905.5 584.75
3906.5 586.125
3907.5 609.5
3908.5 589.875
3909.5 555.5
3910.5 423.75
3911.5 434.75
3912.5 459.375
3913.5 482.875
3914.5 511.25
3915.5 503.5
3916.5 460
3917.5 428.75
3918.5 442.875
3919.5 431.625
3920.5 479.25
3921.5 524.125
3922.5 487.5
3923.5 471.125
3924.5 416.125
3925.5 363
3926.5 353.75
3927.5 355.625
3928.5 379.625
3929.5 369.875
3930.5 318.75
3931.5 384.75
3932.5 333.875
3933.5 348.625
3934.5 289.875
3935.5 357.375
3936.5 366.375
3937.5 323.75
3938.5 365.75
3939.5 334.75
3940.5 423.375
3941.5 439.5
3942.5 567.25
3943.5 573.625
3944.5 578.625
3945.5 699.875
3946.5 651.625
3947.5 629.375
3948.5 554.125
3949.5 582.5
3950.5 547.125
3951.5 568.625
3952.5 617.625
3953.5 722.125
3954.5 894.875
3955.5 1050.88
3956.5 1197.5
3957.5 1023.12
3958.5 865.875
3959.5 659.875
3960.5 591.375
3961.5 501
3962.5 518.75
3963.5 419.875
3964.5 393.875
3965.5 384.75
3966.5 372.375
3967.5 372.375
3968.5 391
3969.5 400.5
3970.5 433.875
3971.5 488.75
3972.5 451.5
3973.5 525.75
3974.5 514.5
3975.5 542.125
3976.5 602.75
3977.5 641.5
3978.5 563.25
3979.5 538.625
3980.5 426.125
3981.5 397.5
3982.5 387
3983.5 383
3984.5 379
3985.5 373.375
3986.5 447.5
3987.5 461.5
3988.5 469.75
3989.5 434.625
3990.5 408
3991.5 380.125
3992.5 355.5
3993.5 360.625
3994.5 340.5
3995.5 330.125
3996.5 422.5
3997.5 403.625
3998.5 337.75
3999.5 366
4000.5 380.875
4001.5 285.25
4002.5 305.5
4003.5 358.875
4004.5 330.375
4005.5 344.625
4006.5 324.75
4007.5 337
4008.5 367.5
4009.5 323.75
4010.5 380
4011.5 376.125
4012.5 431.75
4013.5 396.375
4014.5 445.625
4015.5 483.875
4016.5 428.875
4017.5 375.875
4018.5 379.125
4019.5 373.5
4020.5 422.375
4021.5 457.875
4022.5 579.75
4023.5 757
4024.5 937
4025.5 1057.75
4026.5 909.125
4027.5 700.875
4028.5 515.25
4029.5 495
4030.5 487.75
4031.5 572.125
4032.5 733.875
4033.5 925.125
4034.5 1007.38
4035.5 980.875
4036.5 785.625
4037.5 515.25
4038.5 507.75
4039.5 434.125
4040.5 389.25
4041.5 452.125
4042.5 383.75
4043.5 429.875
4044.5 428.75
4045.5 425.875
4046.5 423.75
4047.5 335.75
4048.5 468.375
4049.5 455.375
4050.5 578.375
4051.5 596.125
4052.5 599.875
4053.5 600.375
4054.5 546.125
4055.5 469
4056.5 379.125
4057.5 376.125
4058.5 365.75
4059.5 371.625
4060.5 374.625
4061.5 426.5
4062.5 375
4063.5 383.75
4064.5 363.625
4065.5 325.375
4066.5 345.75
4067.5 338.875
4068.5 381.25
4069.5 385.5
4070.5 392.875
4071.5 383.375
4072.5 399.875
4073.5 370.25
4074.5 455
4075.5 479
4076.5 495
4077.5 438.75
4078.5 476.625
4079.5 452.5
4080.5 360.375
4081.5 365.75
4082.5 355.25
4083.5 395
4084.5 365.875
4085.5 403
4086.5 425.25
4087.5 427
4088.5 417.5
4089.5 378.75
4090.5 388.625
4091.5 386.875
4092.5 353.125
4093.5 373
4094.5 397.5
4095.5 457.875
4096.5 460.875
4097.5 474.25
4098.5 434.25
4099.5 397.75
4100.5 416.125
4101.5 342.625
4102.5 404.375
4103.5 438.625
4104.5 514.75
4105.5 499.375
4106.5 553.5
4107.5 553.875
4108.5 540.25
4109.5 461.875
4110.5 429.625
4111.5 410.5
4112.5 396.5
4113.5 483.75
4114.5 519.875
4115.5 482.375
4116.5 406.625
4117.5 456.5
4118.5 410
4119.5 406.125
4120.5 372.5
4121.5 380.5
4122.5 316.75
4123.5 401.375
4124.5 331.25
4125.5 313.625
4126.5 354.25
4127.5 371.75
4128.5 423.625
4129.5 403
4130.5 385.75
4131.5 436.625
4132.5 484
4133.5 536.75
4134.5 516.375
4135.5 430.25
4136.5 459.875
4137.5 421.875
4138.5 345.375
4139.5 354.875
4140.5 335.625
4141.5 373.25
4142.5 324.875
4143.5 362.875
4144.5 314.625
4145.5 309.25
4146.5 366.875
4147.5 405.875
4148.5 488.75
4149.5 467.875
4150.5 472.125
4151.5 407.125
4152.5 382.75
4153.5 367
4154.5 348.875
4155.5 402.375
4156.5 450.5
4157.5 498.75
4158.5 543.75
4159.5 530.625
4160.5 477.75
4161.5 394.625
4162.5 359.625
4163.5 416.25
4164.5 401.5
4165.5 485.375
4166.5 460.375
4167.5 463.125
4168.5 495.5
4169.5 504
4170.5 592.875
4171.5 518.125
4172.5 488
4173.5 496.5
4174.5 489.75
4175.5 428.75
4176.5 360.625
4177.5 352.5
4178.5 289.125
4179.5 307.25
4180.5 313.625
4181.5 335.125
4182.5 319.75
4183.5 398.75
4184.5 394.125
4185.5 367
4186.5 488.25
4187.5 411
4188.5 383.5
4189.5 393.125
4190.5 312
4191.5 329
4192.5 323.875
4193.5 349.5
4194.5 342.375
4195.5 332.625
4196.5 384.625
4197.5 440.25
4198.5 549.5
4199.5 628.875
4200.5 724
4201.5 697.5
4202.5 675.25
4203.5 485
4204.5 499.125
4205.5 492.75
4206.5 551.625
4207.5 682.25
4208.5 739.25
4209.5 754.25
4210.5 679.625
4211.5 567.5
4212.5 466.25
4213.5 423.5
4214.5 425.5
4215.5 435.75
4216.5 393.625
4217.5 309.75
4218.5 282.375
4219.5 305.875
4220.5 288.875
4221.5 348.75
4222.5 358.625
4223.5 359.75
4224.5 328.375
4225.5 298.5
4226.5 333.875
4227.5 368.5
4228.5 335.625
4229.5 392.375
4230.5 376.25
4231.5 410.375
4232.5 367.375
4233.5 384.25
4234.5 397.5
4235.5 468.375
4236.5 443.625
4237.5 415.5
4238.5 415.125
4239.5 393.375
4240.5 379.25
4241.5 450.75
4242.5 415.875
4243.5 374.875
4244.5 353.25
4245.5 394.5
4246.5 350.875
4247.5 329.5
4248.5 338.625
4249.5 277.125
4250.5 334.625
4251.5 322.625
4252.5 357.125
4253.5 373.625
4254.5 379.125
4255.5 428.5
4256.5 583.625
4257.5 604.375
4258.5 584.25
4259.5 538
4260.5 455.5
4261.5 484.25
4262.5 488.875
4263.5 565.375
4264.5 637.625
4265.5 671.375
4266.5 594.75
4267.5 496
4268.5 398.5
4269.5 334.5
4270.5 376.5
4271.5 369.625
4272.5 354.75
4273.5 389.75
4274.5 375
4275.5 415.375
4276.5 424.5
4277.5 429.125
4278.5 468.25
4279.5 502.5
4280.5 512
4281.5 505
4282.5 443.5
4283.5 425.125
4284.5 419.625
4285.5 417.25
4286.5 343.375
4287.5 385.75
4288.5 342.5
4289.5 347.625
4290.5 398.25
4291.5 330.875
4292.5 373.125
4293.5 362.75
4294.5 391.25
4295.5 428.75
4296.5 382.625
4297.5 362.125
4298.5 391.375
4299.5 401.25
4300.5 385.875
4301.5 403.5
4302.5 505.375
4303.5 585
4304.5 762.625
4305.5 771.125
4306.5 731.625
4307.5 586
4308.5 460.625
4309.5 469.25
4310.5 432.25
4311.5 431.5
4312.5 433.625
4313.5 395.875
4314.5 408.75
4315.5 472
4316.5 454.5
4317.5 479
4318.5 473.375
4319.5 378.625
4320.5 368.375
4321.5 350.875
4322.5 299.25
4323.5 277.625
4324.5 351
4325.5 342.5
4326.5 345
4327.5 328.25
4328.5 339
4329.5 337
4330.5 362
4331.5 386.625
4332.5 424.375
4333.5 443.625
4334.5 358.875
4335.5 386.125
4336.5 330.625
4337.5 371.5
4338.5 320
4339.5 320.625
4340.5 359.875
4341.5 256.875
4342.5 342.375
4343.5 308.5
4344.5 300
4345.5 275.25
4346.5 356.25
4347.5 309.25
4348.5 325.75
4349.5 342.875
4350.5 303.75
4351.5 336.625
4352.5 306.25
4353.5 324.25
4354.5 366.5
4355.5 350.25
4356.5 367.625
4357.5 323.5
4358.5 361.875
4359.5 287.75
4360.5 300.75
4361.5 284.125
4362.5 294.75
4363.5 306.875
4364.5 334.625
4365.5 325.625
4366.5 352
4367.5 371.125
4368.5 352.875
4369.5 361.625
4370.5 340.625
4371.5 318.875
4372.5 321.25
4373.5 421.375
4374.5 442.625
4375.5 469.25
4376.5 515.125
4377.5 419.25
4378.5 383.25
4379.5 330.75
4380.5 326.625
4381.5 327.625
4382.5 407.125
4383.5 406.75
4384.5 379.625
4385.5 357.625
4386.5 345.875
4387.5 349
4388.5 341.625
4389.5 304.75
4390.5 335.625
4391.5 416.875
4392.5 459.5
4393.5 453.875
4394.5 418.875
4395.5 440.25
4396.5 348.375
4397.5 328.25
4398.5 327.625
4399.5 301.875
4400.5 335.5
4401.5 293.625
4402.5 325.5
4403.5 350
4404.5 415.5
4405.5 421.125
4406.5 469
4407.5 518.125
4408.5 502
4409.5 469.875
4410.5 397.375
4411.5 367.75
4412.5 364.25
4413.5 307.875
4414.5 324
4415.5 334
4416.5 322
4417.5 268.625
4418.5 348.125
4419.5 312.5
4420.5 301.5
4421.5 314.625
4422.5 311.625
4423.5 367.5
4424.5 373.875
4425.5 322.25
4426.5 356.25
4427.5 326.125
4428.5 284.375
4429.5 275.25
4430.5 260.875
4431.5 280.5
4432.5 287.875
4433.5 277.875
4434.5 291.25
4435.5 267.125
4436.5 287.375
4437.5 295
4438.5 331.25
4439.5 322.125
4440.5 294.5
4441.5 328.25
4442.5 281.25
4443.5 276
4444.5 316.75
4445.5 273.375
4446.5 262.875
4447.5 290.75
4448.5 278.75
4449.5 333
4450.5 353.75
4451.5 446.125
4452.5 588.25
4453.5 831
4454.5 1045.5
4455.5 1292.88
4456.5 1523.75
4457.5 1563.75
4458.5 1348.5
4459.5 1188.75
4460.5 1132.88
4461.5 953
4462.5 910.5
4463.5 682
4464.5 706.125
4465.5 656
4466.5 806.75
4467.5 902.125
4468.5 851.25
4469.5 782.625
4470.5 485.75
4471.5 378.5
4472.5 331.375
4473.5 311.875
4474.5 309.125
4475.5 293.75
4476.5 271
4477.5 291
4478.5 318.875
4479.5 274
4480.5 308.125
4481.5 295.375
4482.5 304.5
4483.5 315.875
4484.5 390.5
4485.5 359
4486.5 517.375
4487.5 616.625
4488.5 752.625
4489.5 765.125
4490.5 651
4491.5 454.375
4492.5 382.375
4493.5 383.875
4494.5 376.125
4495.5 366
4496.5 410.25
4497.5 417.75
4498.5 348.125
4499.5 359.875
4500.5 297.75
4501.5 340.75
4502.5 278.625
4503.5 307
4504.5 369.875
4505.5 338.75
4506.5 292.5
4507.5 301
4508.5 355.625
4509.5 285.625
4510.5 294.5
4511.5 284.75
4512.5 263.5
4513.5 254
4514.5 287.125
4515.5 282.625
4516.5 276.875
4517.5 306
4518.5 266.875
4519.5 282.25
4520.5 272.625
4521.5 294.25
4522.5 336
4523.5 373.75
4524.5 430.375
4525.5 442.875
4526.5 529.75
4527.5 503.625
4528.5 411.5
4529.5 378.125
4530.5 330.875
4531.5 280.375
4532.5 291.375
4533.5 320.75
4534.5 362.625
4535.5 312.625
4536.5 271.75
4537.5 311.625
4538.5 298.375
4539.5 276.375
4540.5 283.875
4541.5 285.875
4542.5 287.5
4543.5 312.5
4544.5 290.125
4545.5 351.875
4546.5 357
4547.5 351.375
4548.5 429.25
4549.5 477.125
4550.5 585
4551.5 634.75
4552.5 661.875
4553.5 551.125
4554.5 561.25
4555.5 542.875
4556.5 567.125
4557.5 536.125
4558.5 453
4559.5 394.125
4560.5 440.125
4561.5 527.5
4562.5 620.25
4563.5 837.5
4564.5 941.5
4565.5 913.5
4566.5 781.375
4567.5 504
4568.5 344.625
4569.5 292.625
4570.5 310.375
4571.5 266.375
4572.5 295.375
4573.5 288.75
4574.5 283.125
4575.5 266
4576.5 294.875
4577.5 265.25
4578.5 278.375
4579.5 244.625
4580.5 298.5
4581.5 286.625
4582.5 238
4583.5 262.875
4584.5 259
4585.5 225.875
4586.5 276.75
4587.5 318.125
4588.5 392
4589.5 402.75
4590.5 353.125
4591.5 271.75
4592.5 274.375
4593.5 280.75
4594.5 341.125
4595.5 341.375
4596.5 352.25
4597.5 442.125
4598.5 505.625
4599.5 458
4600.5 386.875
4601.5 337.5
4602.5 342.25
4603.5 373.5
4604.5 451.625
4605.5 479
4606.5 494.125
4607.5 439.25
4608.5 402.375
4609.5 324.875
4610.5 325.75
4611.5 288.625
4612.5 324.75
4613.5 319.875
4614.5 428.75
4615.5 517.375
4616.5 519.875
4617.5 477.5
4618.5 402.875
4619.5 366.375
4620.5 362.75
4621.5 408.75
4622.5 517.875
4623.5 619.625
4624.5 717.5
4625.5 744.75
4626.5 563.875
4627.5 448.875
4628.5 358.875
4629.5 345.875
4630.5 275.625
4631.5 309.125
4632.5 283
4633.5 264.375
4634.5 301.875
4635.5 263.75
4636.5 291.75
4637.5 323.625
4638.5 343
4639.5 370.5
4640.5 306.5
4641.5 313.125
4642.5 376.625
4643.5 396.125
4644.5 512.5
4645.5 533.125
4646.5 629.375
4647.5 554.875
4648.5 532
4649.5 448.625
4650.5 410.625
4651.5 326.125
4652.5 343.125
4653.5 319.5
4654.5 296.5
4655.5 287.75
4656.5 276.875
4657.5 266.875
4658.5 241.625
4659.5 248.125
4660.5 245.5
4661.5 258.25
4662.5 251.5
4663.5 267.5
4664.5 263.25
4665.5 280.875
4666.5 255.375
4667.5 272
4668.5 327
4669.5 269.125
4670.5 285.125
4671.5 287.375
4672.5 288.625
4673.5 299
4674.5 260.125
4675.5 305.375
4676.5 284.875
4677.5 262.75
4678.5 267
4679.5 340
4680.5 336.5
4681.5 377.25
4682.5 406.625
4683.5 456.625
4684.5 495.125
4685.5 458.375
4686.5 442.25
4687.5 373.75
4688.5 310
4689.5 269.75
4690.5 327.875
4691.5 248.625
4692.5 277.125
4693.5 270.375
4694.5 267.125
4695.5 245.875
4696.5 262.5
4697.5 262.375
4698.5 283.75
4699.5 247.375
4700.5 305
4701.5 304.5
4702.5 292.125
4703.5 249
4704.5 275.25
4705.5 256.625
4706.5 270.125
4707.5 305
4708.5 355.5
4709.5 398.125
4710.5 462.875
4711.5 513.75
4712.5 586.5
4713.5 526.375
4714.5 441.125
4715.5 378.875
4716.5 314.625
4717.5 287.625
4718.5 274.125
4719.5 248.5
4720.5 280.875
4721.5 300.625
4722.5 260.875
4723.5 272.875
4724.5 309
4725.5 302.875
4726.5 343.375
4727.5 334.25
4728.5 311.875
4729.5 359.375
4730.5 286.875
4731.5 264.25
4732.5 272.125
4733.5 281
4734.5 224.75
4735.5 251.625
4736.5 255.875
4737.5 238.625
4738.5 249
4739.5 254.75
4740.5 304
4741.5 312.875
4742.5 323.375
4743.5 320.375
4744.5 388.875
4745.5 469.25
4746.5 475.625
4747.5 530.125
4748.5 539.875
4749.5 508.75
4750.5 460.25
4751.5 449.5
4752.5 429.625
4753.5 377.625
4754.5 332
4755.5 321
4756.5 255.875
4757.5 268.5
4758.5 253.5
4759.5 272.25
4760.5 293.5
4761.5 247.875
4762.5 282
4763.5 265.75
4764.5 295.5
4765.5 293.25
4766.5 323.5
4767.5 312.75
4768.5 329.375
4769.5 311.25
4770.5 354.125
4771.5 336.5
4772.5 363
4773.5 290.75
4774.5 321.5
4775.5 224.25
4776.5 249.875
4777.5 269.875
4778.5 274.25
4779.5 255.25
4780.5 268.75
4781.5 283.75
4782.5 274.75
4783.5 367.375
4784.5 364.25
4785.5 417.625
4786.5 431.125
4787.5 379.5
4788.5 390.25
4789.5 417.125
4790.5 473.5
4791.5 524
4792.5 479.75
4793.5 477.125
4794.5 407.25
4795.5 334.375
4796.5 283.25
4797.5 280.375
4798.5 280
4799.5 266.375
4800.5 252.125
4801.5 262.125
4802.5 305.125
4803.5 296.375
4804.5 335
4805.5 432.375
4806.5 506.75
4807.5 570.75
4808.5 505.375
4809.5 456.875
4810.5 377.125
4811.5 371.75
4812.5 356.625
4813.5 378.5
4814.5 394
4815.5 356.5
4816.5 390
4817.5 332.5
4818.5 344.625
4819.5 338.625
4820.5 316.375
4821.5 261.875
4822.5 310.75
4823.5 256.25
4824.5 238.125
4825.5 265.125
4826.5 249
4827.5 281.75
4828.5 254.375
4829.5 270.625
4830.5 225.625
4831.5 256.25
4832.5 235.25
4833.5 249.75
4834.5 245.125
4835.5 281.25
4836.5 298.75
4837.5 257.5
4838.5 340.5
4839.5 330.125
4840.5 394
4841.5 505.875
4842.5 635.375
4843.5 646.875
4844.5 633
4845.5 539.625
4846.5 428
4847.5 401
4848.5 334.25
4849.5 371.125
4850.5 356.125
4851.5 307.625
4852.5 318.625
4853.5 261.25
4854.5 264.625
4855.5 256
4856.5 310.125
4857.5 246.25
4858.5 262.25
4859.5 256.375
4860.5 267.5
4861.5 292.625
4862.5 245.375
4863.5 297
4864.5 266.875
4865.5 280.75
4866.5 254.375
4867.5 308
4868.5 311.875
4869.5 331.5
4870.5 349.625
4871.5 302
4872.5 309.875
4873.5 323.5
4874.5 326.25
4875.5 347.5
4876.5 399.25
4877.5 477.375
4878.5 463.75
4879.5 491.75
4880.5 404.375
4881.5 356.125
4882.5 334.375
4883.5 320.875
4884.5 335.25
4885.5 370.375
4886.5 431
4887.5 401.125
4888.5 400.5
4889.5 432.625
4890.5 433.875
4891.5 364.75
4892.5 359.75
4893.5 293.5
4894.5 223
4895.5 255.5
4896.5 275.125
4897.5 284.375
4898.5 277.5
4899.5 256.75
4900.5 353.5
4901.5 362.625
4902.5 460.625
4903.5 538.25
4904.5 606.5
4905.5 644.5
4906.5 549.875
4907.5 359.25
4908.5 329.875
4909.5 303.125
4910.5 264
4911.5 321.75
4912.5 295
4913.5 324.5
4914.5 392.75
4915.5 534.125
4916.5 641.75
4917.5 907.5
4918.5 1079
4919.5 1091.25
4920.5 901.875
4921.5 648.125
4922.5 455.75
4923.5 303.5
4924.5 275.875
4925.5 272.125
4926.5 268.125
4927.5 264.375
4928.5 267.375
4929.5 251.5
4930.5 252
4931.5 277.875
4932.5 263.75
4933.5 248.875
4934.5 237.625
4935.5 272.625
4936.5 252
4937.5 227.25
4938.5 258.125
4939.5 238.125
4940.5 256.5
4941.5 272.5
4942.5 270.625
4943.5 272.625
4944.5 304.875
4945.5 261.25
4946.5 261.625
4947.5 246.125
4948.5 276.25
4949.5 232.75
4950.5 235.375
4951.5 271.75
4952.5 275.125
4953.5 260.125
4954.5 276.375
4955.5 253.75
4956.5 252
4957.5 242.25
4958.5 278.75
4959.5 219.125
4960.5 276.25
4961.5 257.875
4962.5 276
4963.5 267.875
4964.5 278.25
4965.5 284
4966.5 252.5
4967.5 288.125
4968.5 258.875
4969.5 342.625
4970.5 357.625
4971.5 417.5
4972.5 538
4973.5 547.5
4974.5 543.875
4975.5 481.75
4976.5 337.875
4977.5 338.625
4978.5 300.375
4979.5 281.75
4980.5 292.75
4981.5 250.5
4982.5 278.5
4983.5 270.75
4984.5 293.625
4985.5 264.25
4986.5 281.375
4987.5 263.375
4988.5 300.125
4989.5 297.75
4990.5 352.75
4991.5 364.25
4992.5 352.25
4993.5 306.875
4994.5 272
4995.5 252.375
4996.5 270.25
4997.5 244.75
4998.5 266.25
4999.5 251.75
5000.5 288.125
5001.5 274
5002.5 284
5003.5 351.625
5004.5 364.125
5005.5 380.5
5006.5 449.375
5007.5 450.375
5008.5 431.375
5009.5 382.875
5010.5 418
5011.5 467.375
5012.5 445
5013.5 392.75
5014.5 366.5
5015.5 338
5016.5 367.625
5017.5 348.625
5018.5 287.25
5019.5 249
5020.5 239.75
5021.5 281
5022.5 240.875
5023.5 248.125
5024.5 269.5
5025.5 313.5
5026.5 283.875
5027.5 272.125
5028.5 286.125
5029.5 238
5030.5 286.75
5031.5 277.125
5032.5 406.625
5033.5 451.75
5034.5 557.125
5035.5 732.125
5036.5 904.5
5037.5 1047
5038.5 955.625
5039.5 800.625
5040.5 608.375
5041.5 461.375
5042.5 351
5043.5 383.25
5044.5 414.375
5045.5 375.75
5046.5 349.125
5047.5 412.5
5048.5 359.375
5049.5 331.875
5050.5 288.875
5051.5 294.125
5052.5 277.5
5053.5 314.75
5054.5 308.25
5055.5 274.375
5056.5 280.125
5057.5 329.875
5058.5 335.5
5059.5 295.75
5060.5 305.875
5061.5 290.5
5062.5 246.375
5063.5 313
5064.5 289.5
5065.5 261
5066.5 307
5067.5 298
5068.5 261.25
5069.5 296.25
5070.5 339.25
5071.5 274.25
5072.5 254.625
5073.5 282.375
5074.5 216.875
5075.5 259.25
5076.5 270.375
5077.5 266.25
5078.5 263.375
5079.5 274
5080.5 289.875
5081.5 318.25
5082.5 312.5
5083.5 319
5084.5 280
5085.5 227.75
5086.5 277.25
5087.5 246.625
5088.5 283
5089.5 278.75
5090.5 269.125
5091.5 279
5092.5 284.625
5093.5 273
5094.5 259.375
5095.5 266.75
5096.5 241.625
5097.5 234.625
5098.5 243.25
5099.5 258.25
5100.5 246.875
5101.5 295.125
5102.5 260.375
5103.5 252
5104.5 237.75
5105.5 247.5
5106.5 251.875
5107.5 244.25
5108.5 283.625
5109.5 257.875
5110.5 253.75
5111.5 297.875
5112.5 329.75
5113.5 337.375
5114.5 350.375
5115.5 417.5
5116.5 471.125
5117.5 483.875
5118.5 452.625
5119.5 446
5120.5 369
5121.5 297.5
5122.5 286
5123.5 274.125
5124.5 264
5125.5 265.75
5126.5 273.875
5127.5 243.5
5128.5 310.625
5129.5 282
5130.5 310.625
5131.5 335.875
5132.5 322
5133.5 402.5
5134.5 450.625
5135.5 422.875
5136.5 460.625
5137.5 381.375
5138.5 329
5139.5 303.625
5140.5 285.75
5141.5 261.625
5142.5 270.625
5143.5 268.625
5144.5 260.25
5145.5 222
5146.5 232.5
5147.5 237.625
5148.5 272
5149.5 272.25
5150.5 236.25
5151.5 237.375
5152.5 197.375
5153.5 289.25
5154.5 265
5155.5 248
5156.5 290.125
5157.5 344
5158.5 372.375
5159.5 419.375
5160.5 451.625
5161.5 442.375
5162.5 366.125
5163.5 354.875
5164.5 248.875
5165.5 255.875
5166.5 235.25
5167.5 240.75
5168.5 225.25
5169.5 221.625
5170.5 199.375
5171.5 256
5172.5 240
5173.5 223.375
5174.5 200
5175.5 233.25
5176.5 214.625
5177.5 228.125
5178.5 255.875
5179.5 219.75
5180.5 240
5181.5 213.375
5182.5 260.375
5183.5 219
5184.5 227
5185.5 240.875
5186.5 293.625
5187.5 259.25
5188.5 232.125
5189.5 292
5190.5 330.875
5191.5 402
5192.5 507.125
5193.5 596
5194.5 712.875
5195.5 755.5
5196.5 674.75
5197.5 486.5
5198.5 379.125
5199.5 284.375
5200.5 284.75
5201.5 281.625
5202.5 230.25
5203.5 277.375
5204.5 284.125
5205.5 252.375
5206.5 263.5
5207.5 234.25
5208.5 269.5
5209.5 268.5
5210.5 271.625
5211.5 274.375
5212.5 261.25
5213.5 319
5214.5 245.625
5215.5 231.875
5216.5 277.75
5217.5 305.5
5218.5 363.75
5219.5 436.375
5220.5 543.875
5221.5 672.875
5222.5 838.75
5223.5 838.25
5224.5 861.125
5225.5 721.25
5226.5 532.5
5227.5 414.25
5228.5 338.875
5229.5 270.5
5230.5 255.625
5231.5 260.875
5232.5 276
5233.5 254.75
5234.5 296.75
5235.5 357.625
5236.5 373.625
5237.5 387.5
5238.5 423
5239.5 441
5240.5 444.625
5241.5 383.75
5242.5 294.875
5243.5 295.375
5244.5 247.5
5245.5 206.875
5246.5 217.375
5247.5 218.875
5248.5 209.625
5249.5 201.125
5250.5 205.625
5251.5 200.5
5252.5 227.5
5253.5 182.25
5254.5 209.125
5255.5 206.5
5256.5 212.875
5257.5 243.875
5258.5 230.875
5259.5 356.25
5260.5 337.5
5261.5 453.625
5262.5 571.875
5263.5 667.75
5264.5 644.375
5265.5 523.25
5266.5 392.875
5267.5 318.25
5268.5 305.625
5269.5 253.25
5270.5 212.625
5271.5 278.125
5272.5 271.625
5273.5 243.625
5274.5 242.375
5275.5 253.5
5276.5 231.125
5277.5 219.125
5278.5 221
5279.5 216
5280.5 250.25
5281.5 193.625
5282.5 221.375
5283.5 187.125
5284.5 215.875
5285.5 237.625
5286.5 215.875
5287.5 222.5
5288.5 243.125
5289.5 233.125
5290.5 213.375
5291.5 253.25
5292.5 206.375
5293.5 244.5
5294.5 210.5
5295.5 228.875
5296.5 226.625
5297.5 249.5
5298.5 293.375
5299.5 382
5300.5 482.75
5301.5 642.375
5302.5 794.875
5303.5 944.625
5304.5 840.625
5305.5 681
5306.5 485
5307.5 312.625
5308.5 297.375
5309.5 239.875
5310.5 220.25
5311.5 280.25
5312.5 270.125
5313.5 329.25
5314.5 377.875
5315.5 464.375
5316.5 545.5
5317.5 711
5318.5 749.75
5319.5 714.25
5320.5 665
5321.5 520.875
5322.5 387.5
5323.5 350.75
5324.5 320.25
5325.5 302
5326.5 285.125
5327.5 327.375
5328.5 314.5
5329.5 352.25
5330.5 402.875
5331.5 344.25
5332.5 358.625
5333.5 316.25
5334.5 236.25
5335.5 207.375
5336.5 239.5
5337.5 205.875
5338.5 208.875
5339.5 193.25
5340.5 229.5
5341.5 203.25
5342.5 198.25
5343.5 234.875
5344.5 222.875
5345.5 259.25
5346.5 217.25
5347.5 225.375
5348.5 277.625
5349.5 344.75
5350.5 445.625
5351.5 620.875
5352.5 783.625
5353.5 993.5
5354.5 1288.75
5355.5 1341
5356.5 1131.38
5357.5 856
5358.5 517.75
5359.5 350.625
5360.5 280.875
5361.5 261
5362.5 242.875
5363.5 221
5364.5 191.375
5365.5 212.25
5366.5 227.375
5367.5 211.875
5368.5 209.875
5369.5 219.375
5370.5 223.625
5371.5 243.125
5372.5 219
5373.5 191.625
5374.5 241.75
5375.5 237.25
5376.5 193.875
5377.5 201.125
5378.5 240.125
5379.5 218.375
5380.5 243.875
5381.5 226.5
5382.5 247.125
5383.5 263.5
5384.5 296.625
5385.5 357
5386.5 375.125
5387.5 471.75
5388.5 480.5
5389.5 578.625
5390.5 530.375
5391.5 408.125
5392.5 395.125
5393.5 382.5
5394.5 382.625
5395.5 453.75
5396.5 496.375
5397.5 474.25
5398.5 402.375
5399.5 338.75
5400.5 303
5401.5 313.5
5402.5 219.125
5403.5 258.75
5404.5 217.5
5405.5 247.375
5406.5 219.25
5407.5 224
5408.5 230.625
5409.5 240.25
5410.5 208.25
5411.5 242.875
5412.5 212.875
5413.5 209.125
5414.5 231.25
5415.5 225.75
5416.5 241.375
5417.5 199.125
5418.5 229.375
5419.5 226.375
5420.5 199
5421.5 192
5422.5 212.25
5423.5 216.625
5424.5 236.375
5425.5 241.75
5426.5 254.25
5427.5 234.25
5428.5 204.5
5429.5 221
5430.5 207.5
5431.5 206.75
5432.5 189.5
5433.5 248.5
5434.5 198.375
5435.5 198.875
5436.5 219.625
5437.5 192
5438.5 202
5439.5 193.625
5440.5 207.875
5441.5 225.25
5442.5 221
5443.5 250.125
5444.5 226.5
5445.5 216.25
5446.5 199.125
5447.5 213.5
5448.5 219.875
5449.5 189.125
5450.5 191.875
5451.5 204.625
5452.5 230.5
5453.5 215.375
5454.5 198.375
5455.5 229.875
5456.5 255.125
5457.5 228.625
5458.5 235.5
5459.5 239.125
5460.5 184.875
5461.5 199
5462.5 223
5463.5 195
5464.5 224
5465.5 213.25
5466.5 190.25
5467.5 229.75
5468.5 230.75
5469.5 244.375
5470.5 234.5
5471.5 267.875
5472.5 228.75
5473.5 245.5
5474.5 232.125
5475.5 266.75
5476.5 246.625
5477.5 265.75
5478.5 212.625
5479.5 245.375
5480.5 222.625
5481.5 199.5
5482.5 206
5483.5 220.625
5484.5 244.875
5485.5 218.125
5486.5 208
5487.5 269.625
5488.5 289.5
5489.5 290.125
5490.5 273.375
5491.5 222.25
5492.5 286.375
5493.5 220.75
5494.5 217.625
5495.5 201.75
5496.5 173.375
5497.5 237.125
5498.5 224.75
5499.5 212.5
5500.5 198
5501.5 201.25
5502.5 198.625
5503.5 200.25
5504.5 219.5
5505.5 242.125
5506.5 218.75
5507.5 214.25
5508.5 184.625
5509.5 188.25
5510.5 209.5
5511.5 198
5512.5 197.875
5513.5 229.125
5514.5 212.5
5515.5 237
5516.5 242.25
5517.5 292.625
5518.5 314.375
5519.5 408
5520.5 453.5
5521.5 540.375
5522.5 629.875
5523.5 673.875
5524.5 588.125
5525.5 562.25
5526.5 509.5
5527.5 479.625
5528.5 382.125
5529.5 325.5
5530.5 301.625
5531.5 275.75
5532.5 267.875
5533.5 224.875
5534.5 211.375
5535.5 253.75
5536.5 281.5
5537.5 242.875
5538.5 287.125
5539.5 211.875
5540.5 215.125
5541.5 232.375
5542.5 221.25
5543.5 224.375
5544.5 211.5
5545.5 222.625
5546.5 219.375
5547.5 201.75
5548.5 215.25
5549.5 247.25
5550.5 183.875
5551.5 232.125
5552.5 255.25
5553.5 284.25
5554.5 327.125
5555.5 423.625
5556.5 445.375
5557.5 475.75
5558.5 495
5559.5 469.25
5560.5 331.25
5561.5 298.625
5562.5 245.125
5563.5 243.875
5564.5 231.625
5565.5 227.75
5566.5 244.75
5567.5 263.5
5568.5 229.875
5569.5 225.625
5570.5 203.25
5571.5 228.5
5572.5 234.875
5573.5 199
5574.5 254.875
5575.5 277.25
5576.5 263.375
5577.5 236.375
5578.5 253.875
5579.5 285.25
5580.5 327
5581.5 320.875
5582.5 309.5
5583.5 320.375
5584.5 232
5585.5 238.375
5586.5 217.375
5587.5 251.5
5588.5 275.375
5589.5 341.875
5590.5 394
5591.5 468.125
5592.5 437.625
5593.5 438.5
5594.5 458.125
5595.5 376
5596.5 264.5
5597.5 231.25
5598.5 234.625
5599.5 201.625
5600.5 210.375
5601.5 207.375
5602.5 192.375
5603.5 170.875
5604.5 216.25
5605.5 179.125
5606.5 207.125
5607.5 197.75
5608.5 214.125
5609.5 189
5610.5 199.625
5611.5 231.25
5612.5 215.125
5613.5 246.125
5614.5 229.5
5615.5 202.25
5616.5 185.5
5617.5 193
5618.5 213.375
5619.5 203.125
5620.5 241.75
5621.5 253.75
5622.5 277.25
5623.5 274.25
5624.5 332.5
5625.5 405.125
5626.5 573.125
5627.5 673.125
5628.5 769.25
5629.5 835.125
5630.5 738.5
5631.5 542.75
5632.5 374.875
5633.5 267.375
5634.5 244.5
5635.5 255.875
5636.5 232.5
5637.5 228.375
5638.5 244.125
5639.5 256.25
5640.5 262
5641.5 271.875
5642.5 277.25
5643.5 235.625
5644.5 212.125
5645.5 200
5646.5 172.625
5647.5 156.5
5648.5 174.875
5649.5 188
5650.5 166.875
5651.5 191.375
5652.5 176.5
5653.5 174.625
5654.5 179.75
5655.5 195
5656.5 162.625
5657.5 179.5
5658.5 207
5659.5 208.375
5660.5 177.375
5661.5 179.25
5662.5 169.75
5663.5 180.625
5664.5 183
5665.5 198.75
5666.5 180.75
5667.5 228.625
5668.5 224.5
5669.5 251
5670.5 283.25
5671.5 291.75
5672.5 302.375
5673.5 275.25
5674.5 253
5675.5 234.25
5676.5 175.75
5677.5 188.875
5678.5 200.125
5679.5 163.375
5680.5 163.875
5681.5 157.125
5682.5 178.125
5683.5 187.375
5684.5 142.875
5685.5 161.25
5686.5 176.125
5687.5 171.625
5688.5 199.75
5689.5 168.5
5690.5 187.375
5691.5 142.125
5692.5 180.375
5693.5 166.125
5694.5 170.75
5695.5 164
5696.5 164.75
5697.5 157.375
5698.5 192.375
5699.5 171.25
5700.5 192.875
5701.5 186.375
5702.5 157.125
5703.5 170.75
5704.5 180.25
5705.5 162.625
5706.5 183.75
5707.5 163.75
5708.5 174
5709.5 192.25
5710.5 193
5711.5 218
5712.5 226.25
5713.5 235.25
5714.5 236.125
5715.5 241.5
5716.5 216
5717.5 188.875
5718.5 211.875
5719.5 203
5720.5 234.25
5721.5 243
5722.5 229
5723.5 221
5724.5 185.75
5725.5 194
5726.5 222.5
5727.5 207.5
5728.5 299.125
5729.5 414.5
5730.5 562.375
5731.5 754.125
5732.5 1034.5
5733.5 1284.38
5734.5 1529.62
5735.5 1579.25
5736.5 1341.88
5737.5 913.625
5738.5 547.75
5739.5 333.125
5740.5 261.5
5741.5 261.625
5742.5 239.125
5743.5 248.25
5744.5 214.625
5745.5 226
5746.5 214.375
5747.5 222.25
5748.5 302.25
5749.5 319.125
5750.5 307.625
5751.5 278.625
5752.5 265
5753.5 194.5
5754.5 161.75
5755.5 175.75
5756.5 184.25
5757.5 164.25
5758.5 149.625
5759.5 151.5
5760.5 136.5
5761.5 136.5
5762.5 158.375
5763.5 125.875
5764.5 142.75
5765.5 130.375
5766.5 151.125
5767.5 179.5
5768.5 178.5
5769.5 151.625
5770.5 161.125
5771.5 194.375
5772.5 146.125
5773.5 160.125
5774.5 160.875
5775.5 157.375
5776.5 170.5
5777.5 167.75
5778.5 144.25
5779.5 140.625
5780.5 137.125
5781.5 142.5
5782.5 140.5
5783.5 179.75
5784.5 155.125
5785.5 222.875
5786.5 203.625
5787.5 209.75
5788.5 243.5
5789.5 223.5
5790.5 191.375
5791.5 228
5792.5 179.25
5793.5 198.875
5794.5 215
5795.5 192.75
5796.5 230.125
5797.5 230.625
5798.5 225.375
5799.5 196.5
5800.5 192.25
5801.5 169.375
5802.5 150
5803.5 166.5
5804.5 159
5805.5 144.375
5806.5 139.75
5807.5 132.5
5808.5 120.625
5809.5 167.875
5810.5 139
5811.5 194.5
5812.5 140
5813.5 238.25
5814.5 207.75
5815.5 211.25
5816.5 226.25
5817.5 282
5818.5 188.625
5819.5 189.625
5820.5 162.25
5821.5 159.625
5822.5 199.5
5823.5 274.375
5824.5 377.875
5825.5 564.5
5826.5 687.375
5827.5 886.375
5828.5 1248.5
5829.5 1514.25
5830.5 1444
5831.5 1274.38
5832.5 907.75
5833.5 618.625
5834.5 504.25
5835.5 406.125
5836.5 334
5837.5 308.25
5838.5 345.375
5839.5 364
5840.5 477.125
5841.5 556.25
5842.5 549.5
5843.5 448.625
5844.5 311.75
5845.5 203
5846.5 166.375
5847.5 162
5848.5 140.5
5849.5 158.375
5850.5 118.75
5851.5 148.125
5852.5 123.25
5853.5 115.875
5854.5 152
5855.5 127.125
5856.5 141.625
5857.5 134.25
5858.5 115.5
5859.5 142.25
5860.5 156.625
5861.5 138.125
5862.5 140.25
5863.5 143.5
5864.5 147.125
5865.5 106.375
5866.5 117.5
5867.5 116.75
5868.5 139.625
5869.5 97.5
5870.5 149.25
5871.5 129.875
5872.5 146.625
5873.5 101.375
5874.5 126.5
5875.5 119
5876.5 114.75
5877.5 130.375
5878.5 118.125
5879.5 121.875
5880.5 134.375
5881.5 123.125
5882.5 143.375
5883.5 137.75
5884.5 78.125
5885.5 112.625
5886.5 127
5887.5 114.5
5888.5 108.375
5889.5 117.875
5890.5 122.75
5891.5 124.25
5892.5 135.75
5893.5 191.875
5894.5 246.25
5895.5 298
5896.5 383
5897.5 512.625
5898.5 703.875
5899.5 862.75
5900.5 1019.88
5901.5 815
5902.5 708.25
5903.5 440.875
5904.5 303.375
5905.5 236.625
5906.5 229
5907.5 219.375
5908.5 277.125
5909.5 266.625
5910.5 282.875
5911.5 256.75
5912.5 192.25
5913.5 174
5914.5 143.75
5915.5 134.5
5916.5 116.25
5917.5 110.625
5918.5 103.375
5919.5 95.75
5920.5 115
5921.5 88.75
5922.5 102.5
5923.5 113
5924.5 96.375
5925.5 104.25
5926.5 97.625
5927.5 86
5928.5 113.5
5929.5 84.75
5930.5 91.125
5931.5 122.875
5932.5 108.5
5933.5 102.625
5934.5 107.125
5935.5 114.625
5936.5 126.25
5937.5 115.5
5938.5 91.125
5939.5 113.375
5940.5 107.75
5941.5 104.875
5942.5 101.75
5943.5 106.25
5944.5 97.375
5945.5 98.5
5946.5 113.875
5947.5 116.375
5948.5 97.625
5949.5 100.375
5950.5 117.5
5951.5 123.25
5952.5 108.75
5953.5 135.5
5954.5 120.25
5955.5 116.25
5956.5 123.5
5957.5 131.125
5958.5 110.125
5959.5 81.125
5960.5 111.125
5961.5 110.375
5962.5 121.375
5963.5 97.5
5964.5 134.75
5965.5 123.875
5966.5 151.375
5967.5 136.5
5968.5 135.375
5969.5 156.625
5970.5 112.625
5971.5 104.75
5972.5 109.75
5973.5 98.5
5974.5 96.875
5975.5 104.375
5976.5 117.25
5977.5 108.375
5978.5 109.125
5979.5 94.875
5980.5 121.25
5981.5 74.625
5982.5 101.125
5983.5 77.75
5984.5 91.25
5985.5 82.875
5986.5 90.875
5987.5 90.5
5988.5 86.625
5989.5 85.375
5990.5 107.25
5991.5 84
5992.5 99.75
5993.5 116
5994.5 103.625
5995.5 114
5996.5 145.5
5997.5 133.5
5998.5 164.5
5999.5 233
6000.5 236.625
6001.5 254.375
6002.5 238
6003.5 202.875
6004.5 182.625
6005.5 137.625
6006.5 152.875
6007.5 97.75
6008.5 95.625
6009.5 84.875
6010.5 94.75
6011.5 77.125
6012.5 85.375
6013.5 92.125
6014.5 108.125
6015.5 95
6016.5 96.375
6017.5 92.375
6018.5 90.75
6019.5 106.75
6020.5 87.375
6021.5 89.5
6022.5 95.375
6023.5 85.5
6024.5 113.5
6025.5 120.375
6026.5 150.25
6027.5 198.25
6028.5 251.25
6029.5 334.5
6030.5 472.875
6031.5 697.5
6032.5 983.75
6033.5 1141.38
6034.5 1187
6035.5 1128.88
6036.5 940.5
6037.5 765.875
6038.5 685.875
6039.5 618.5
6040.5 444.375
6041.5 325.125
6042.5 212.875
6043.5 145.25
6044.5 116.125
6045.5 85.375
6046.5 99
6047.5 96.875
6048.5 116
6049.5 118.5
6050.5 96.875
6051.5 87.25
6052.5 108.125
6053.5 113.5
6054.5 100.125
6055.5 98.125
6056.5 115.875
6057.5 91.5
6058.5 92.375
6059.5 91.875
6060.5 77.125
6061.5 77.25
6062.5 75.75
6063.5 91.125
6064.5 73.75
6065.5 60.5
6066.5 101.25
6067.5 109.5
6068.5 78.375
6069.5 91.875
6070.5 81.125
6071.5 90.375
6072.5 105.125
6073.5 68.75
6074.5 77
6075.5 89.25
6076.5 89.25
6077.5 88.875
6078.5 82.625
6079.5 83.125
6080.5 90.375
6081.5 91
6082.5 81.25
6083.5 75.75
6084.5 78
6085.5 81.5
6086.5 76.5
6087.5 73.5
6088.5 75.5
6089.5 93.125
6090.5 91.375
6091.5 93.625
6092.5 84.375
6093.5 101.75
6094.5 90.875
6095.5 85.75
6096.5 149.375
6097.5 165.5
6098.5 215.875
6099.5 267.875
6100.5 397.375
6101.5 510
6102.5 633.75
6103.5 744
6104.5 767.375
6105.5 664.375
6106.5 401.25
6107.5 228.25
6108.5 167
6109.5 112.375
6110.5 117.75
6111.5 104.5
6112.5 107.5
6113.5 85.875
6114.5 81.625
6115.5 74.375
6116.5 79.25
6117.5 76.5
6118.5 74.625
6119.5 97.75
6120.5 97.5
6121.5 126.25
6122.5 144.375
6123.5 125.25
6124.5 143.25
6125.5 132.75
6126.5 125.25
6127.5 125
6128.5 87.5
6129.5 80.5
6130.5 61.125
6131.5 74.5
6132.5 78.5
6133.5 67
6134.5 68.25
6135.5 73
6136.5 82.375
6137.5 70.625
6138.5 76.5
6139.5 71
6140.5 97.75
6141.5 83.625
6142.5 79.25
6143.5 91.25
6144.5 85.25
6145.5 83.5
6146.5 138.875
6147.5 140.375
6148.5 203.375
6149.5 244.875
6150.5 285.625
6151.5 330.5
6152.5 311.125
6153.5 256.75
6154.5 176.375
6155.5 112.375
6156.5 89.375
6157.5 84.875
6158.5 76.875
6159.5 62.875
6160.5 61.5
6161.5 76.625
6162.5 66.5
6163.5 57.375
6164.5 64.5
6165.5 66.5
6166.5 71
6167.5 68.25
6168.5 68
6169.5 86.125
6170.5 54.375
6171.5 67.125
6172.5 56
6173.5 68.625
6174.5 64
6175.5 50.875
6176.5 55.75
6177.5 60.125
6178.5 66.625
6179.5 64.5
6180.5 66.75
6181.5 74.25
6182.5 89.625
6183.5 60.625
6184.5 71.875
6185.5 58.75
6186.5 70.625
6187.5 78.25
6188.5 66
6189.5 61.5
6190.5 81.625
6191.5 85.75
6192.5 71.875
6193.5 108.625
6194.5 83
6195.5 57.125
6196.5 89.75
6197.5 61.125
6198.5 76.375
6199.5 67.875
6200.5 80.125
6201.5 39.375
6202.5 65.625
6203.5 63.875
6204.5 59.25
6205.5 69
6206.5 81
6207.5 60
6208.5 56.25
6209.5 60.625
6210.5 59.875
6211.5 61.5
6212.5 72.625
6213.5 63.625
6214.5 71.625
6215.5 61
6216.5 80.875
6217.5 100.75
6218.5 108.125
6219.5 114.125
6220.5 159.625
6221.5 160.5
6222.5 173.625
6223.5 224.375
6224.5 239.25
6225.5 251
6226.5 180.5
6227.5 138.75
6228.5 123.5
6229.5 83.625
6230.5 88
6231.5 71.375
6232.5 79.5
6233.5 104.875
6234.5 74.375
6235.5 66.75
6236.5 78.25
6237.5 81.375
6238.5 71.125
6239.5 46.125
6240.5 67.75
6241.5 68.625
6242.5 89.75
6243.5 85.125
6244.5 111.875
6245.5 104.375
6246.5 125.25
6247.5 93.25
6248.5 101
6249.5 95.75
6250.5 71.25
6251.5 99.5
6252.5 96.5
6253.5 103.875
6254.5 123.875
6255.5 173.25
6256.5 214.375
6257.5 267.125
6258.5 359.875
6259.5 463.125
6260.5 459.25
6261.5 495.875
6262.5 394.75
6263.5 270.5
6264.5 180.125
6265.5 132.75
6266.5 107.875
6267.5 74.75
6268.5 72.125
6269.5 84.625
6270.5 59.625
6271.5 57.625
6272.5 48.875
6273.5 75.5
6274.5 72.25
6275.5 64.25
6276.5 82.25
6277.5 70.875
6278.5 76.625
6279.5 72
6280.5 65
6281.5 64.75
6282.5 66.875
6283.5 70.375
6284.5 72.125
6285.5 69.375
6286.5 71.875
6287.5 83.25
6288.5 57.5
6289.5 65.5
6290.5 64.25
6291.5 71.75
6292.5 75.75
6293.5 72
6294.5 75.75
6295.5 63.375
6296.5 70
6297.5 57.5
6298.5 49.5
6299.5 71.875
6300.5 65
6301.5 66.625
6302.5 73.375
6303.5 75.375
6304.5 79.125
6305.5 69.375
6306.5 65.125
6307.5 76.5
6308.5 68.75
6309.5 83.125
6310.5 70.25
6311.5 50.375
6312.5 64.625
6313.5 82.5
6314.5 74.375
6315.5 73
6316.5 59.75
6317.5 58.25
6318.5 69.125
6319.5 76.875
6320.5 81
6321.5 92.375
6322.5 109
6323.5 130.875
6324.5 131
6325.5 189.125
6326.5 210
6327.5 231.5
6328.5 225.875
6329.5 215.75
6330.5 169.625
6331.5 102.5
6332.5 62.625
6333.5 70.5
6334.5 66.375
6335.5 57.75
6336.5 69.625
6337.5 70.625
6338.5 63.5
6339.5 59.625
6340.5 58.875
6341.5 57.5
6342.5 50.875
6343.5 53.75
6344.5 72.625
6345.5 64.125
6346.5 69.5
6347.5 64.25
6348.5 59.5
6349.5 58.625
6350.5 85.5
6351.5 66.25
6352.5 76.375
6353.5 62.75
6354.5 63.25
6355.5 65
6356.5 72.5
6357.5 83.375
6358.5 97
6359.5 58.875
6360.5 57.25
6361.5 72.75
6362.5 54.125
6363.5 62.5
6364.5 51.5
6365.5 79.125
6366.5 50.25
6367.5 59.25
6368.5 45.625
6369.5 63.5
6370.5 55.875
6371.5 63.625
6372.5 51.25
6373.5 50.875
6374.5 57
6375.5 63.5
6376.5 55.625
6377.5 71.875
6378.5 55.625
6379.5 62
6380.5 63
6381.5 48.375
6382.5 70
6383.5 41.75
6384.5 57.75
6385.5 50.625
6386.5 61.25
6387.5 75.875
6388.5 52.75
6389.5 81.75
6390.5 84
6391.5 91.875
6392.5 128.625
6393.5 124.125
6394.5 188.75
6395.5 224.75
6396.5 229.5
6397.5 236.375
6398.5 175.75
6399.5 130.875
6400.5 83.875
6401.5 74.875
6402.5 71.125
6403.5 64.5
6404.5 60.375
6405.5 84.375
6406.5 72.375
6407.5 59.25
6408.5 55.125
6409.5 73.125
6410.5 50
6411.5 63.875
6412.5 59
6413.5 49.5
6414.5 59.375
6415.5 77
6416.5 84.625
6417.5 73.5
6418.5 95.75
6419.5 86.75
6420.5 109.25
6421.5 125
6422.5 149.125
6423.5 164.625
6424.5 133.375
6425.5 101.75
6426.5 114.375
6427.5 96.75
6428.5 74
6429.5 81.875
6430.5 82.875
6431.5 66.375
6432.5 75.375
6433.5 76.75
6434.5 57.875
6435.5 65.875
6436.5 58.375
6437.5 62.625
6438.5 68.75
6439.5 70.875
6440.5 63.75
6441.5 50.375
6442.5 77.625
6443.5 62.75
6444.5 63.5
6445.5 73.5
6446.5 60.875
6447.5 57.375
6448.5 74.5
6449.5 75.125
6450.5 64.375
6451.5 51.75
6452.5 80.75
6453.5 67
6454.5 60.75
6455.5 49.125
6456.5 53.625
6457.5 65.625
6458.5 77.5
6459.5 58.5
6460.5 63.5
6461.5 58.5
6462.5 57.75
6463.5 74.25
6464.5 64.75
6465.5 67
6466.5 76.125
6467.5 81.5
6468.5 65.125
6469.5 79.25
6470.5 67.75
6471.5 67.75
6472.5 65.375
6473.5 92.625
6474.5 107.625
6475.5 114.625
6476.5 106.625
6477.5 138.75
6478.5 194.625
6479.5 181
6480.5 167.625
6481.5 139.625
6482.5 115.625
6483.5 85.5
6484.5 96.75
6485.5 83.5
6486.5 81.75
6487.5 53.75
6488.5 65.625
6489.5 64
6490.5 80
6491.5 57.5
6492.5 58
6493.5 56.75
6494.5 72.125
6495.5 62.75
6496.5 71.5
6497.5 56.875
6498.5 64.625
6499.5 74.125
6500.5 65.875
6501.5 56.125
6502.5 65
6503.5 62.875
6504.5 81.625
6505.5 58.75
6506.5 75.875
6507.5 64
6508.5 67.625
6509.5 66.875
6510.5 60
6511.5 72
6512.5 64.875
6513.5 78.375
6514.5 50
6515.5 68.5
6516.5 73.5
6517.5 84
6518.5 63
6519.5 65.875
6520.5 65.875
6521.5 73.375
6522.5 74.125
6523.5 67.375
6524.5 53.5
6525.5 70.25
6526.5 75.75
6527.5 65.25
6528.5 41.25
6529.5 58.125
6530.5 67.875
6531.5 59.75
6532.5 50.75
6533.5 45.375
6534.5 60.75
6535.5 90.625
6536.5 69.25
6537.5 81
6538.5 71.75
6539.5 93.125
6540.5 132.75
6541.5 137.5
6542.5 164.125
6543.5 222.75
6544.5 298
6545.5 256.125
6546.5 329.25
6547.5 287.75
6548.5 217.25
6549.5 194.5
6550.5 103.125
6551.5 85.875
6552.5 80.125
6553.5 77.5
6554.5 83.75
6555.5 64
6556.5 75
6557.5 48.625
6558.5 61
6559.5 72.875
6560.5 78.625
6561.5 76.25
6562.5 93.875
6563.5 107.375
6564.5 106.375
6565.5 114.5
6566.5 117.5
6567.5 101.625
6568.5 96.875
6569.5 93.25
6570.5 79
6571.5 65.5
6572.5 60.125
6573.5 69.375
6574.5 59.25
6575.5 86
6576.5 62
6577.5 76.5
6578.5 69.125
6579.5 64.375
6580.5 67.75
6581.5 60.125
6582.5 69.25
6583.5 62.75
6584.5 47.5
6585.5 47.75
6586.5 44.875
6587.5 58.125
6588.5 60.875
6589.5 56.5
6590.5 54.375
6591.5 55.125
6592.5 64.375
6593.5 57.125
6594.5 53.625
6595.5 58.25
6596.5 47.875
6597.5 70.5
6598.5 77.25
6599.5 74
6600.5 77.5
6601.5 58.25
6602.5 59.875
6603.5 66.875
6604.5 64.625
6605.5 62.375
6606.5 56.25
6607.5 60
6608.5 43.5
6609.5 68.875
6610.5 60.125
6611.5 74.5
6612.5 58.25
6613.5 54.25
6614.5 69.375
6615.5 55.5
6616.5 61.25
6617.5 47.375
6618.5 62.25
6619.5 73.25
6620.5 47.25
6621.5 46.625
6622.5 75
6623.5 60.125
6624.5 50.125
6625.5 69.125
6626.5 54
6627.5 71.875
6628.5 64.125
6629.5 52.25
6630.5 64.75
6631.5 81.625
6632.5 70
6633.5 57.375
6634.5 66.375
6635.5 56.25
6636.5 79.75
6637.5 53
6638.5 72.75
6639.5 50.75
6640.5 68
6641.5 60.5
6642.5 41.75
6643.5 46.75
6644.5 53.375
6645.5 65.25
6646.5 56.625
6647.5 52.5
6648.5 79.5
6649.5 91
6650.5 86.375
6651.5 68.25
6652.5 54.125
6653.5 46.125
6654.5 64.5
6655.5 59.375
6656.5 53.75
6657.5 52.875
6658.5 45.625
6659.5 35.5
6660.5 43.875
6661.5 61.875
6662.5 47.25
6663.5 49.625
6664.5 57.25
6665.5 60
6666.5 56.5
6667.5 50.5
6668.5 71.375
6669.5 56.5
6670.5 52.25
6671.5 77.75
6672.5 49
6673.5 42.625
6674.5 46.625
6675.5 51.125
6676.5 50.5
6677.5 55.625
6678.5 51.875
6679.5 50.625
6680.5 38.125
6681.5 32.375
6682.5 47.625
6683.5 27.5
6684.5 53.75
6685.5 35.875
6686.5 52.125
6687.5 31
6688.5 58
6689.5 31.5
6690.5 53.5
6691.5 66
6692.5 84
6693.5 67.625
6694.5 88
6695.5 114.25
6696.5 89.625
6697.5 80.875
6698.5 79.625
6699.5 78.375
6700.5 49.25
6701.5 68
6702.5 54.125
6703.5 57.625
6704.5 37
6705.5 62
6706.5 51.875
6707.5 48.625
6708.5 60.5
6709.5 38.875
6710.5 53.375
6711.5 45.625
6712.5 59.125
6713.5 49.25
6714.5 32.875
6715.5 41.5
6716.5 41
6717.5 59.875
6718.5 43.375
6719.5 64.125
6720.5 55.125
6721.5 50.5
6722.5 79.25
6723.5 63.125
6724.5 59.375
6725.5 60.375
6726.5 65.125
6727.5 84
6728.5 94.75
6729.5 111.125
6730.5 99.75
6731.5 135
6732.5 120.875
6733.5 96.75
6734.5 95.875
6735.5 75.375
6736.5 67.25
6737.5 74.375
6738.5 71.25
6739.5 76.75
6740.5 47.125
6741.5 55.625
6742.5 56.75
6743.5 45
6744.5 54.75
6745.5 53.875
6746.5 34.875
6747.5 54.875
6748.5 63.25
6749.5 60.25
6750.5 69.375
6751.5 62.5
6752.5 57.25
6753.5 64.375
6754.5 43.625
6755.5 52.125
6756.5 49.5
6757.5 46.375
6758.5 56.125
6759.5 60.375
6760.5 61.875
6761.5 73.5
6762.5 66
6763.5 108.625
6764.5 111.125
6765.5 183.75
6766.5 241.5
6767.5 383.75
6768.5 468.75
6769.5 546.25
6770.5 760.625
6771.5 866.375
6772.5 848.25
6773.5 751.75
6774.5 535.625
6775.5 307.375
6776.5 182.25
6777.5 104
6778.5 83.375
6779.5 83
6780.5 59.875
6781.5 66.375
6782.5 61.25
6783.5 45.5
6784.5 43
6785.5 50.875
6786.5 48.5
6787.5 44.75
6788.5 39.875
6789.5 50.5
6790.5 37.75
6791.5 41.5
6792.5 36.125
6793.5 56.375
6794.5 54
6795.5 55.5
6796.5 64.5
6797.5 93.375
6798.5 91.25
6799.5 93.125
6800.5 104.25
6801.5 115
6802.5 79.125
6803.5 62.875
6804.5 54.125
6805.5 60.125
6806.5 50.5
6807.5 54.375
6808.5 52.125
6809.5 59.75
6810.5 72.625
6811.5 43.75
6812.5 53
6813.5 61.75
6814.5 63.125
6815.5 72.375
6816.5 59.75
6817.5 37.625
6818.5 39.375
6819.5 50.375
6820.5 34.875
6821.5 42.375
6822.5 47.875
6823.5 46.75
6824.5 39.125
6825.5 38.625
6826.5 43.125
6827.5 27.25
6828.5 44.5
6829.5 32
6830.5 35.75
6831.5 38.625
6832.5 45.125
6833.5 41
6834.5 41
6835.5 36.125
6836.5 33.125
6837.5 43.625
6838.5 42.25
6839.5 42.75
6840.5 51.75
6841.5 34
6842.5 22.5
6843.5 36.625
6844.5 42.75
6845.5 56
6846.5 39.75
6847.5 58.125
6848.5 33.875
6849.5 39.875
6850.5 30.875
6851.5 29.25
6852.5 48.25
6853.5 32.25
6854.5 36.375
6855.5 45.125
6856.5 35.5
6857.5 19.875
6858.5 55.625
6859.5 43.25
6860.5 36.5
6861.5 29.125
6862.5 28.75
6863.5 36.625
6864.5 37.75
6865.5 35.125
6866.5 40.25
6867.5 41.5
6868.5 38.375
6869.5 49.5
6870.5 17.25
6871.5 38.375
6872.5 38
6873.5 46.125
6874.5 39.5
6875.5 36.875
6876.5 39.125
6877.5 51.5
6878.5 37.5
6879.5 29.625
6880.5 35.625
6881.5 50.125
6882.5 37.625
6883.5 33.375
6884.5 33.375
6885.5 26.25
6886.5 32.375
6887.5 49.625
6888.5 47.875
6889.5 27.75
6890.5 29.25
6891.5 47.125
6892.5 40.25
6893.5 38.375
6894.5 44.375
6895.5 50.625
6896.5 50.75
6897.5 56.25
6898.5 81.125
6899.5 112.625
6900.5 120
6901.5 183.125
6902.5 197.125
6903.5 291.875
6904.5 350.25
6905.5 479.125
6906.5 612.5
6907.5 601
6908.5 571
6909.5 434
6910.5 334.375
6911.5 185.75
6912.5 131.375
6913.5 109.75
6914.5 64.875
6915.5 44.75
6916.5 70.125
6917.5 45.125
6918.5 60.375
6919.5 43.125
6920.5 49.375
6921.5 50.625
6922.5 46.75
6923.5 36
6924.5 50
6925.5 41
6926.5 43.125
6927.5 65.375
6928.5 57.5
6929.5 73.75
6930.5 79.875
6931.5 108.5
6932.5 115.5
6933.5 146.875
6934.5 135.625
6935.5 145.125
6936.5 123
6937.5 103.375
6938.5 75.5
6939.5 68.875
6940.5 60.875
6941.5 40.75
6942.5 73
6943.5 83.25
6944.5 59.25
6945.5 44.875
6946.5 55.5
6947.5 51.375
6948.5 52.625
6949.5 31
6950.5 58.75
6951.5 45.875
6952.5 47.5
6953.5 34.875
6954.5 38.625
6955.5 54.5
6956.5 37.25
6957.5 45.75
6958.5 36.125
6959.5 36.5
6960.5 38.25
6961.5 44.625
6962.5 26.75
6963.5 40.625
6964.5 48.5
6965.5 34
6966.5 45.75
6967.5 46.75
6968.5 34.125
6969.5 53.5
6970.5 35.625
6971.5 29.375
6972.5 64.375
6973.5 33.875
6974.5 32.25
6975.5 38.75
6976.5 37.25
6977.5 44.375
6978.5 53.875
6979.5 43.375
6980.5 65
6981.5 27.25
6982.5 41.25
6983.5 33.125
6984.5 45.625
6985.5 33.375
6986.5 45.5
6987.5 33.5
6988.5 37.375
6989.5 41.375
6990.5 43.25
6991.5 44.625
6992.5 46.375
6993.5 38.375
6994.5 36.625
6995.5 40.25
6996.5 46.5
6997.5 45.875
6998.5 50.375
6999.5 30.25
7000.5 44.25
7001.5 45.5
7002.5 43.75
7003.5 40.75
7004.5 29.625
7005.5 38.625
7006.5 30.375
7007.5 37.875
7008.5 48.875
7009.5 47
7010.5 45.875
7011.5 39.25
7012.5 44.75
7013.5 47.375
7014.5 47.375
7015.5 34.25
7016.5 44.875
7017.5 44.25
7018.5 47.375
7019.5 35.125
7020.5 59
7021.5 35.25
7022.5 57.5
7023.5 48.625
7024.5 41.25
7025.5 35.875
7026.5 40.5
7027.5 41.5
7028.5 48.625
7029.5 46.625
7030.5 45.5
7031.5 50.875
7032.5 44.5
7033.5 52.5
7034.5 47.625
7035.5 50.75
7036.5 33
7037.5 49.125
7038.5 52
7039.5 44.5
7040.5 44
7041.5 35.125
7042.5 44.875
7043.5 34.625
7044.5 41.875
7045.5 47.75
7046.5 49.5
7047.5 47.75
7048.5 51.625
7049.5 38.25
7050.5 38.375
7051.5 36.125
7052.5 47.5
7053.5 34.5
7054.5 49.375
7055.5 54.375
7056.5 51.375
7057.5 38.125
7058.5 41.625
7059.5 53.75
7060.5 48.25
7061.5 46.75
7062.5 44.625
7063.5 33.625
7064.5 36.5
7065.5 43.625
7066.5 52.5
7067.5 45.5
7068.5 44.25
7069.5 49.25
7070.5 39.125
7071.5 48.75
7072.5 50.75
7073.5 42.625
7074.5 45.625
7075.5 60.75
7076.5 39
7077.5 48.25
7078.5 44.125
7079.5 29.5
7080.5 38.875
7081.5 46.75
7082.5 43.75
7083.5 44.25
7084.5 39.125
7085.5 52.375
7086.5 50
7087.5 42.5
7088.5 39.5
7089.5 36.625
7090.5 46.25
7091.5 49.25
7092.5 36
7093.5 27.375
7094.5 55.375
7095.5 47.5
7096.5 46.75
7097.5 45.5
7098.5 60.25
7099.5 39.625
7100.5 30.25
7101.5 52.75
7102.5 39.375
7103.5 43.25
7104.5 53.375
7105.5 42.375
7106.5 46.75
7107.5 42.5
7108.5 46.125
7109.5 40.625
7110.5 37.375
7111.5 53.625
7112.5 44.125
7113.5 52.625
7114.5 47.375
7115.5 54.625
7116.5 47.25
7117.5 52.625
7118.5 64.625
7119.5 57.375
7120.5 53.625
7121.5 65.625
7122.5 69.5
7123.5 42.125
7124.5 59.75
7125.5 44.375
7126.5 40.375
7127.5 40.75
7128.5 46.375
7129.5 48.375
7130.5 32.375
7131.5 52.25
7132.5 40.625
7133.5 41.5
7134.5 59.25
7135.5 36
7136.5 49.25
7137.5 51
7138.5 37.375
7139.5 48
7140.5 46.625
7141.5 43.5
7142.5 47.625
7143.5 49.5
7144.5 57.5
7145.5 44
7146.5 53.625
7147.5 51.25
7148.5 38.5
7149.5 46.75
7150.5 39.5
7151.5 44.625
7152.5 52.5
7153.5 45.75
7154.5 59.125
7155.5 50.875
7156.5 41
7157.5 54.625
7158.5 34.25
7159.5 47.5
7160.5 49.375
7161.5 45.5
7162.5 36
7163.5 46
7164.5 33.5
7165.5 46.5
7166.5 38.875
7167.5 36.25
7168.5 38.125
7169.5 23.5
7170.5 49.375
7171.5 51.75
7172.5 41.25
7173.5 30
7174.5 38.125
7175.5 45.75
7176.5 56.625
7177.5 37.875
7178.5 34.625
7179.5 48.625
7180.5 41.5
7181.5 34.75
7182.5 40.75
7183.5 42.75
7184.5 44.875
7185.5 50.875
7186.5 36.75
7187.5 55.375
7188.5 49
7189.5 40.75
7190.5 48.75
7191.5 58.5
7192.5 38.5
7193.5 58.25
7194.5 32.75
7195.5 37.375
7196.5 38.5
7197.5 39.5
7198.5 31.5
7199.5 45.625
7200.5 45.75
7201.5 58.5
7202.5 51.5
7203.5 54.375
7204.5 57.625
7205.5 78.75
7206.5 47.875
7207.5 74.25
7208.5 71
7209.5 70
7210.5 55
7211.5 66.25
7212.5 46.5
7213.5 37.125
7214.5 45.625
7215.5 34.375
7216.5 45.75
7217.5 52.625
7218.5 42.75
7219.5 37.875
7220.5 29.875
7221.5 61.75
7222.5 44.75
7223.5 43.625
7224.5 31.125
7225.5 28
7226.5 42.625
7227.5 30.625
7228.5 47.625
7229.5 32.875
7230.5 37.5
7231.5 35.5
7232.5 32
7233.5 33.625
7234.5 37
7235.5 33.875
7236.5 49.875
7237.5 32.625
7238.5 35.875
7239.5 42.875
7240.5 47.875
7241.5 40.5
7242.5 37.125
7243.5 24.75
7244.5 38.625
7245.5 38.75
7246.5 43.5
7247.5 42.625
7248.5 28.5
7249.5 33.375
7250.5 39.375
7251.5 44.25
7252.5 40
7253.5 36.5
7254.5 50.375
7255.5 34.25
7256.5 42.375
7257.5 31.375
7258.5 47.125
7259.5 41.75
7260.5 45.375
7261.5 42.625
7262.5 50.25
7263.5 31.375
7264.5 31.375
7265.5 38.625
7266.5 40.75
7267.5 28.125
7268.5 28.625
7269.5 32.375
7270.5 43.625
7271.5 39.625
7272.5 35.75
7273.5 29.625
7274.5 33.75
7275.5 32.75
7276.5 38.375
7277.5 19.5
7278.5 34.875
7279.5 31.625
7280.5 47.625
7281.5 17.75
7282.5 27.25
7283.5 24.5
7284.5 25.875
7285.5 28.625
7286.5 21.5
7287.5 37.5
7288.5 21.625
7289.5 33.625
7290.5 28.625
7291.5 29.5
7292.5 33.75
7293.5 31.5
7294.5 31.5
7295.5 30
7296.5 32.75
7297.5 16.875
7298.5 29.75
7299.5 29.25
7300.5 25.375
7301.5 20.75
7302.5 37.375
7303.5 51.625
7304.5 59.625
7305.5 90.625
7306.5 96.75
7307.5 162.75
7308.5 165.875
7309.5 179.375
7310.5 225.125
7311.5 229.75
7312.5 230.125
7313.5 163.625
7314.5 126.125
7315.5 89.25
7316.5 55.875
7317.5 58
7318.5 45.75
7319.5 49.125
7320.5 20.75
7321.5 29.875
7322.5 34.125
7323.5 11.75
7324.5 30.625
7325.5 19.5
7326.5 15
7327.5 15.25
7328.5 21.375
7329.5 30.625
7330.5 27.875
7331.5 24.625
7332.5 19.875
7333.5 25.875
7334.5 32.75
7335.5 28.875
7336.5 20.625
7337.5 23.75
7338.5 28.75
7339.5 26.75
7340.5 31
7341.5 34
7342.5 25.625
7343.5 27.875
7344.5 20.5
7345.5 23.625
7346.5 24.5
7347.5 35.125
7348.5 20.25
7349.5 33
7350.5 28
7351.5 34.375
7352.5 42.875
7353.5 37.25
7354.5 29.375
7355.5 33.5
7356.5 28.5
7357.5 36.125
7358.5 16.125
7359.5 17.125
7360.5 28.375
7361.5 30.375
7362.5 14.375
7363.5 21
7364.5 14.75
7365.5 19.5
7366.5 20.625
7367.5 24.625
7368.5 18.25
7369.5 11.25
7370.5 24.875
7371.5 24.625
7372.5 20.75
7373.5 24.625
7374.5 27.75
7375.5 19.25
7376.5 14.875
7377.5 15.5
7378.5 22.875
7379.5 15.75
7380.5 14.625
7381.5 21
7382.5 21.75
7383.5 26.625
7384.5 16.5
7385.5 27.5
7386.5 20.625
7387.5 18.375
7388.5 21.875
7389.5 14.5
7390.5 30
7391.5 24.375
7392.5 18.75
7393.5 20.75
7394.5 9.5
7395.5 16.75
7396.5 15.625
7397.5 29.875
7398.5 19.375
7399.5 20.5
7400.5 19.875
7401.5 16.25
7402.5 22.75
7403.5 23.875
7404.5 18.875
7405.5 33.625
7406.5 19.625
7407.5 42.75
7408.5 49.375
7409.5 68.5
7410.5 92.75
7411.5 154.75
7412.5 214.75
7413.5 324.25
7414.5 461.5
7415.5 625.75
7416.5 801.125
7417.5 961.375
7418.5 1058.62
7419.5 1042
7420.5 784.25
7421.5 462.25
7422.5 261.375
7423.5 161.75
7424.5 80.625
7425.5 65.75
7426.5 39.625
7427.5 45.625
7428.5 45.875
7429.5 28.75
7430.5 23.875
7431.5 18.25
7432.5 17.625
7433.5 27.875
7434.5 20.875
7435.5 30.75
7436.5 18
7437.5 18.5
7438.5 4.75
7439.5 22
7440.5 12.625
7441.5 17.875
7442.5 11.75
7443.5 10.25
7444.5 21.375
7445.5 18.75
7446.5 11.75
7447.5 18.5
7448.5 26.875
7449.5 20.25
7450.5 33.75
7451.5 31.875
7452.5 39.375
7453.5 48.25
7454.5 53.125
7455.5 55
7456.5 51.25
7457.5 20.5
7458.5 16.625
7459.5 18.875
7460.5 10.5
7461.5 12.75
7462.5 8.375
7463.5 16.875
7464.5 12.875
7465.5 16.625
7466.5 13.375
7467.5 10.625
7468.5 17.75
7469.5 11.875
7470.5 12.5
7471.5 4.5
7472.5 6.5
7473.5 21
7474.5 14.75
7475.5 14.75
7476.5 10.75
7477.5 8.5
7478.5 7.875
7479.5 2.5
7480.5 11.875
7481.5 18.75
7482.5 15.625
7483.5 16.625
7484.5 15.875
7485.5 14.625
7486.5 14.75
7487.5 10.5
7488.5 12.625
7489.5 11.875
7490.5 7.75
7491.5 16.625
7492.5 7.5
7493.5 19.5
7494.5 9.75
7495.5 5.375
7496.5 22
7497.5 14.75
7498.5 14.75
7499.5 20.875
7500.5 13.875
7501.5 15.625
7502.5 6.875
7503.5 8.375
7504.5 17
7505.5 12.75
7506.5 7.75
7507.5 10.5
7508.5 17.875
7509.5 7.625
7510.5 15.875
7511.5 18
7512.5 8.5
7513.5 1.5
7514.5 9.625
7515.5 9.875
7516.5 16.75
7517.5 9.75
7518.5 13.625
7519.5 13.625
7520.5 8.75
7521.5 12.625
7522.5 7.75
7523.5 6.625
7524.5 16.875
7525.5 9.875
7526.5 18
7527.5 8.375
7528.5 8.5
7529.5 8.875
7530.5 22.75
7531.5 7.625
7532.5 17.875
7533.5 17.625
7534.5 19
7535.5 11.875
7536.5 13.75
7537.5 10.625
7538.5 9.625
7539.5 13.625
7540.5 13
7541.5 13.875
7542.5 11.5
7543.5 11.625
7544.5 3.125
7545.5 12.5
7546.5 19.625
7547.5 14
7548.5 15
7549.5 9.75
7550.5 17.625
7551.5 15.875
7552.5 18.875
7553.5 19
7554.5 9.875
7555.5 19.875
7556.5 12.625
7557.5 10.375
7558.5 16.625
7559.5 7.625
7560.5 20.875
7561.5 13.875
7562.5 22.875
7563.5 7.625
7564.5 17.5
7565.5 12.875
7566.5 9.5
7567.5 19.625
7568.5 18.75
7569.5 14
7570.5 16
7571.5 17.625
7572.5 20.5
7573.5 11.875
7574.5 18.75
7575.5 12.875
7576.5 13.5
7577.5 16.625
7578.5 16.75
7579.5 17.75
7580.5 5.625
7581.5 5.5
7582.5 12.875
7583.5 17.75
7584.5 14.875
7585.5 11.75
7586.5 20
7587.5 13.625
7588.5 13.875
7589.5 15.875
7590.5 15.5
7591.5 17
7592.5 6.75
7593.5 13.875
7594.5 15.75
7595.5 15.875
7596.5 13.875
7597.5 12.875
7598.5 16
7599.5 9.75
7600.5 11
7601.5 7.75
7602.5 8.625
7603.5 9.75
7604.5 7.75
7605.5 8.625
7606.5 4.5
7607.5 12.5
7608.5 11.875
7609.5 18.75
7610.5 8
7611.5 15
7612.5 7.5
7613.5 15
7614.5 8.625
7615.5 4.875
7616.5 14.875
7617.5 18
7618.5 14.75
7619.5 11
7620.5 4.25
7621.5 10
7622.5 14.75
7623.5 14
7624.5 14.75
7625.5 13.875
7626.5 14.625
7627.5 10.5
7628.5 12.75
7629.5 9.625
7630.5 14.625
7631.5 16.75
7632.5 8.75
7633.5 18.875
7634.5 15.75
7635.5 13.875
7636.5 11.75
7637.5 16
7638.5 15
7639.5 7.5
7640.5 13.875
7641.5 11.875
7642.5 15.875
7643.5 14.875
7644.5 14.75
7645.5 13.75
7646.5 12.75
7647.5 14.875
7648.5 13.875
7649.5 3.625
7650.5 11.75
7651.5 15.875
7652.5 13
7653.5 9.875
7654.5 10
7655.5 11
7656.5 7.75
7657.5 10.75
7658.5 13.875
7659.5 12.75
7660.5 19
7661.5 4.75
7662.5 4.75
7663.5 10.875
7664.5 12.75
7665.5 10
7666.5 13.75
7667.5 6.875
7668.5 10.875
7669.5 12.75
7670.5 5.75
7671.5 -0.625
7672.5 7.5
7673.5 13
7674.5 9.75
7675.5 4.375
7676.5 14
7677.5 14
7678.5 3.5
7679.5 12.75
7680.5 12
7681.5 3.625
7682.5 16.875
7683.5 10.875
7684.5 1.75
7685.5 4.5
7686.5 12.75
7687.5 10.875
7688.5 12
7689.5 3.625
7690.5 15.75
7691.5 9.625
7692.5 12
7693.5 7.875
7694.5 12.75
7695.5 5.875
7696.5 5.75
7697.5 9
7698.5 11.75
7699.5 5.875
7700.5 12.875
7701.5 10.875
7702.5 1.625
7703.5 16
7704.5 10
7705.5 8
7706.5 7.875
7707.5 2.5
7708.5 9.75
7709.5 1.75
7710.5 8.75
7711.5 11.875
7712.5 9
7713.5 5.875
7714.5 1.875
7715.5 12
7716.5 8.75
7717.5 14.875
7718.5 5.75
7719.5 12
7720.5 5.75
7721.5 5.75
7722.5 6.875
7723.5 7.75
7724.5 10.625
7725.5 7.75
7726.5 4.5
7727.5 3.75
7728.5 5
7729.5 9.875
7730.5 5.875
7731.5 5.875
7732.5 5.875
7733.5 7
7734.5 5
7735.5 6
7736.5 2.875
7737.5 8
7738.5 7
7739.5 5
7740.5 11.875
7741.5 0.75
7742.5 7
7743.5 0.75
7744.5 6
7745.5 6
7746.5 5
7747.5 6
7748.5 5.75
7749.5 7
7750.5 3.75
7751.5 2.75
7752.5 1.75
7753.5 6
7754.5 4.875
7755.5 7.875
7756.5 5.875
7757.5 5.75
7758.5 0.625
7759.5 4.75
7760.5 3.875
7761.5 6.75
7762.5 5.875
7763.5 -0.25
7764.5 0.75
7765.5 0.5
7766.5 3.375
7767.5 0.875
7768.5 12
7769.5 13.875
7770.5 7.25
7771.5 14.125
7772.5 20.5
7773.5 18.875
7774.5 15.125
7775.5 3.5
7776.5 9.375
7777.5 6.875
7778.5 10
7779.5 8
7780.5 6
7781.5 6.75
7782.5 -1.625
7783.5 -0.125
7784.5 11
7785.5 5.75
7786.5 11.875
7787.5 4
7788.5 8
7789.5 0.75
7790.5 7
7791.5 4.75
7792.5 11
7793.5 7.875
7794.5 4.875
7795.5 3.875
7796.5 3
7797.5 11
7798.5 7
7799.5 9.875
7800.5 8
7801.5 2.75
7802.5 4
7803.5 7
7804.5 8
7805.5 9
7806.5 3.875
7807.5 3.875
7808.5 11
7809.5 8.75
7810.5 3.875
7811.5 9.625
7812.5 17.75
7813.5 33
7814.5 37.625
7815.5 62.875
7816.5 112
7817.5 138.75
7818.5 172
7819.5 226.75
7820.5 272.375
7821.5 339.625
7822.5 362.375
7823.5 315.625
7824.5 280
7825.5 192.25
7826.5 89.625
7827.5 53.625
7828.5 39.75
7829.5 36.875
7830.5 18.25
7831.5 23.625
7832.5 11.5
7833.5 14.75
7834.5 5.125
7835.5 6.75
7836.5 -3
7837.5 1.625
7838.5 1.375
7839.5 6
7840.5 0.75
7841.5 1.75
7842.5 4.875
7843.5 -2.375
7844.5 -0.125
7845.5 2
7846.5 1
7847.5 1
7848.5 1
7849.5 1
7850.5 2
7851.5 1
7852.5 -2.25
7853.5 3
7854.5 2
7855.5 -0.125
7856.5 1.875
7857.5 0
7858.5 -0.125
7859.5 1
7860.5 1
7861.5 -1.125
7862.5 0.875
7863.5 -1.25
7864.5 0.875
7865.5 5
7866.5 0.75
7867.5 1
7868.5 4
7869.5 0.875
7870.5 1
7871.5 -0.125
7872.5 1.875
7873.5 0
7874.5 2
7875.5 0.875
7876.5 -1.125
7877.5 2
7878.5 0.875
7879.5 1.875
7880.5 2
7881.5 1
7882.5 1
7883.5 1
7884.5 2
7885.5 0.875
7886.5 1
7887.5 -0.125
7888.5 4
7889.5 3.875
7890.5 2
7891.5 -0.125
7892.5 0.875
7893.5 0.875
7894.5 1
7895.5 2.875
7896.5 1
7897.5 0
7898.5 0.875
7899.5 1
7900.5 1
7901.5 0.875
7902.5 -0.125
7903.5 -0.125
7904.5 -0.125
7905.5 4
7906.5 -1.125
7907.5 -1.125
7908.5 -1.25
7909.5 -0.125
7910.5 -0.25
7911.5 1
7912.5 0
7913.5 -0.125
7914.5 4
7915.5 0.875
7916.5 5
7917.5 3.875
7918.5 1
7919.5 2
7920.5 2
7921.5 4
7922.5 0
7923.5 1.875
7924.5 3
7925.5 3
7926.5 1
7927.5 2
7928.5 1.875
7929.5 3
7930.5 2.875
7931.5 0.75
7932.5 7
7933.5 1
7934.5 -1.125
7935.5 0
7936.5 3
7937.5 -1.125
7938.5 2
7939.5 -0.125
7940.5 -1.125
7941.5 0
7942.5 1
7943.5 0.875
7944.5 1
7945.5 -0.125
7946.5 -1.25
7947.5 -0.125
7948.5 2
7949.5 0
7950.5 1
7951.5 1
7952.5 1
7953.5 -0.125
7954.5 0.875
7955.5 1
7956.5 3
7957.5 0
7958.5 0.875
7959.5 2
7960.5 -1.25
7961.5 -0.125
7962.5 4.875
7963.5 2.875
7964.5 3.875
7965.5 -0.25
7966.5 2
7967.5 1
7968.5 1
7969.5 -1.125
7970.5 1
7971.5 1
7972.5 1
7973.5 0.875
7974.5 2
7975.5 5
7976.5 5
7977.5 5
7978.5 0
7979.5 -0.125
7980.5 3
7981.5 6
7982.5 0.875
7983.5 0.75
7984.5 2
7985.5 0
7986.5 2
7987.5 -1.125
7988.5 2
7989.5 2
7990.5 1.75
7991.5 1.75
7992.5 1.875
7993.5 1.875
7994.5 2
7995.5 -1.125
7996.5 1
7997.5 -0.125
7998.5 1.875
7999.5 -1.25
8000.5 -1.125
8001.5 2.875
8002.5 3
8003.5 3
8004.5 -1.25
8005.5 -1.125
8006.5 0.875
8007.5 4
8008.5 2
8009.5 -2.25
8010.5 0.75
8011.5 0
8012.5 1.875
8013.5 0
8014.5 1
8015.5 0.875
8016.5 -1.125
8017.5 0.875
8018.5 2
8019.5 -0.125
8020.5 1
8021.5 -2.375
8022.5 -2.25
8023.5 1
8024.5 0.875
8025.5 2
8026.5 0
8027.5 -0.125
8028.5 -0.125
8029.5 -1.25
8030.5 0
8031.5 -2.25
8032.5 2.875
8033.5 1
8034.5 -0.125
8035.5 -1.125
8036.5 2
8037.5 1.875
8038.5 1
8039.5 5
8040.5 2
8041.5 2
8042.5 1
8043.5 1.875
8044.5 0.875
8045.5 -1.125
8046.5 1
8047.5 1
8048.5 3
8049.5 1.875
8050.5 0
8051.5 2
8052.5 3
8053.5 -1.125
8054.5 -0.125
8055.5 -0.125
8056.5 -2.25
8057.5 2
8058.5 3
8059.5 1.875
8060.5 0.875
8061.5 2
8062.5 -1.125
8063.5 3
8064.5 2
8065.5 3
8066.5 2
8067.5 0.875
8068.5 1
8069.5 1.875
8070.5 1
8071.5 1
8072.5 -0.125
8073.5 -1.125
8074.5 0
8075.5 1
8076.5 -0.125
8077.5 -0.125
8078.5 0.875
8079.5 1.875
8080.5 3
8081.5 0.75
8082.5 1
8083.5 -1.125
8084.5 -2.375
8085.5 2.875
8086.5 3
8087.5 1
8088.5 3
8089.5 2
8090.5 2
8091.5 0
8092.5 0
8093.5 2
8094.5 1
8095.5 1
8096.5 1.875
8097.5 2
8098.5 1
8099.5 1
8100.5 2
8101.5 3
8102.5 -1.125
8103.5 0
8104.5 0
8105.5 2
8106.5 1
8107.5 1.875
8108.5 2
8109.5 1
8110.5 0
8111.5 0
8112.5 1
8113.5 -0.125
8114.5 3
8115.5 0
8116.5 1
8117.5 0
8118.5 -1.125
8119.5 0
8120.5 3
8121.5 1
8122.5 4
8123.5 -0.125
8124.5 2
8125.5 0
8126.5 -0.125
8127.5 2
8128.5 0.75
8129.5 2
8130.5 0
8131.5 1
8132.5 2
8133.5 0
8134.5 -0.125
8135.5 0
8136.5 1
8137.5 1
8138.5 0
8139.5 1.875
8140.5 0
8141.5 2
8142.5 0
8143.5 -1.125
8144.5 2
8145.5 3
8146.5 1
8147.5 -1.125
8148.5 1
8149.5 0.875
8150.5 1
8151.5 1
8152.5 0
8153.5 3
8154.5 0
8155.5 1
8156.5 0
8157.5 3
8158.5 1
8159.5 2
8160.5 0
8161.5 3
8162.5 0.875
8163.5 0
8164.5 4
8165.5 0.875
8166.5 -0.125
8167.5 1
8168.5 -0.125
8169.5 1
8170.5 1
8171.5 0
8172.5 -1.125
8173.5 1
8174.5 2
8175.5 1
8176.5 -0.25
8177.5 0
8178.5 -1.125
8179.5 0
8180.5 1
8181.5 0
8182.5 0
8183.5 2
8184.5 0
8185.5 1
8186.5 1
8187.5 1
8188.5 0
8189.5 1
8190.5 -2.25
8191.5 -1.25
8192.5 2
8193.5 2
8194.5 2
8195.5 0
8196.5 1
8197.5 1
8198.5 3
8199.5 3
8200.5 2
8201.5 -0.125
8202.5 1
8203.5 4
8204.5 -0.125
8205.5 0
8206.5 1
8207.5 1
8208.5 2
8209.5 -0.125
8210.5 0
8211.5 0
8212.5 0
8213.5 1
8214.5 0
8215.5 1
8216.5 0
8217.5 0
8218.5 2
8219.5 1
8220.5 -2.25
8221.5 0
8222.5 0
8223.5 1
8224.5 0.875
8225.5 0
8226.5 -2.25
8227.5 2
8228.5 3
8229.5 0
8230.5 1.875
8231.5 0
8232.5 0.875
8233.5 1
8234.5 0
8235.5 1
8236.5 0
8237.5 0
8238.5 0
8239.5 2
8240.5 3
8241.5 1
8242.5 0.875
8243.5 0.875
8244.5 1
8245.5 0.875
8246.5 1
8247.5 2
8248.5 2
8249.5 0
8250.5 1
8251.5 0
8252.5 2
8253.5 1
8254.5 2
8255.5 1
8256.5 0
8257.5 -1.125
8258.5 0
8259.5 -0.125
8260.5 0
8261.5 1
8262.5 1
8263.5 0
8264.5 -3.375
8265.5 0
8266.5 1
8267.5 3
8268.5 1
8269.5 1
8270.5 -1.125
8271.5 -0.125
8272.5 1
8273.5 2
8274.5 1
8275.5 1
8276.5 -1.125
8277.5 4
8278.5 0
8279.5 3
8280.5 1
8281.5 -1.125
8282.5 -1.125
8283.5 1
8284.5 -1.125
8285.5 0
8286.5 1
8287.5 -1.125
8288.5 1
8289.5 0.875
8290.5 3
8291.5 4
8292.5 1
8293.5 1
8294.5 3
8295.5 0.875
8296.5 0
8297.5 1
8298.5 2
8299.5 0.875
8300.5 0
8301.5 -0.125
8302.5 -1.125
8303.5 -1.125
8304.5 1
8305.5 2
8306.5 2
8307.5 1
8308.5 -1.125
8309.5 1
8310.5 -1.25
8311.5 -0.125
8312.5 4
8313.5 0.875
8314.5 -1.125
8315.5 0
8316.5 -0.125
8317.5 -0.125
8318.5 -2.25
8319.5 1
8320.5 1
8321.5 1
8322.5 3
8323.5 -0.125
8324.5 2
8325.5 1
8326.5 2
8327.5 1
8328.5 2
8329.5 0
8330.5 -1.125
8331.5 2.875
8332.5 1
8333.5 3
8334.5 -0.125
8335.5 -1.125
8336.5 0
8337.5 -1.125
8338.5 1
8339.5 -1.125
8340.5 1.875
8341.5 0.875
8342.5 0
8343.5 -0.125
8344.5 0.875
8345.5 1
8346.5 2
8347.5 0
8348.5 2
8349.5 -1.25
8350.5 0
8351.5 1
8352.5 0
8353.5 1
8354.5 0
8355.5 -1.125
8356.5 1
8357.5 0
8358.5 0
8359.5 2
8360.5 -0.125
8361.5 0
8362.5 -1.25
8363.5 1
8364.5 0
8365.5 3
8366.5 2
8367.5 1
8368.5 2
8369.5 1
8370.5 -1.125
8371.5 -1.125
8372.5 0
8373.5 -1.125
8374.5 1
8375.5 0
8376.5 2
8377.5 1
8378.5 2
8379.5 0
8380.5 0
8381.5 0
8382.5 0
8383.5 0
8384.5 -1.125
8385.5 -0.125
8386.5 0
8387.5 0
8388.5 -1.125
8389.5 1
8390.5 0
8391.5 1
8392.5 1
8393.5 1
8394.5 1
8395.5 0
8396.5 0
8397.5 0
8398.5 0
8399.5 1
8400.5 0
8401.5 1
8402.5 -0.25
8403.5 0
8404.5 0
8405.5 -1.125
8406.5 1
8407.5 1
8408.5 0
8409.5 0
8410.5 1
8411.5 0
8412.5 3
8413.5 -1.125
8414.5 1
8415.5 2
8416.5 0.875
8417.5 2
8418.5 1
8419.5 -0.25
8420.5 1
8421.5 2
8422.5 3
8423.5 -0.125
8424.5 0
8425.5 2
8426.5 1
8427.5 1
8428.5 0
8429.5 -0.125
8430.5 -1.125
8431.5 2
8432.5 1
8433.5 2
8434.5 0
8435.5 1
8436.5 0
8437.5 -0.125
8438.5 2
8439.5 1
8440.5 0
8441.5 2
8442.5 0
8443.5 0
8444.5 1
8445.5 -0.125
8446.5 -1.125
8447.5 1
8448.5 0
8449.5 0
8450.5 2
8451.5 0
8452.5 -2.375
8453.5 -1.125
8454.5 2
8455.5 0
8456.5 -1.125
8457.5 0
8458.5 1.875
8459.5 1
8460.5 1
8461.5 3
8462.5 1
8463.5 2
8464.5 0.875
8465.5 2
8466.5 0
8467.5 1
8468.5 0.75
8469.5 4
8470.5 -0.125
8471.5 1
8472.5 -0.125
8473.5 -1.375
8474.5 0
8475.5 4
8476.5 -3.375
8477.5 0
8478.5 -0.125
8479.5 0
8480.5 1
8481.5 0
8482.5 3
8483.5 2
8484.5 1
8485.5 2
8486.5 2
8487.5 3
8488.5 1
8489.5 1
8490.5 1
8491.5 0
8492.5 0
8493.5 -1.125
8494.5 3
8495.5 0.875
8496.5 2
8497.5 0
8498.5 0
8499.5 0
8500.5 0
8501.5 -3.375
8502.5 2
8503.5 1
8504.5 1
8505.5 1
8506.5 1
8507.5 1
8508.5 0
8509.5 1
8510.5 1
8511.5 0
8512.5 0
8513.5 -0.125
8514.5 1
8515.5 0
8516.5 1
8517.5 -0.125
8518.5 -1.125
8519.5 1
8520.5 1
8521.5 -2.375
8522.5 2
8523.5 1
8524.5 1
8525.5 1
8526.5 0
8527.5 1
8528.5 0
8529.5 0
8530.5 -1.125
8531.5 1
8532.5 0
8533.5 0.875
8534.5 3.875
8535.5 -1.125
8536.5 3
8537.5 1
8538.5 0
8539.5 1
8540.5 0
8541.5 0
8542.5 0
8543.5 -1.125
8544.5 -1.25
8545.5 1
8546.5 0
8547.5 1
8548.5 0
8549.5 0
8550.5 0
8551.5 -0.125
8552.5 0
8553.5 0
8554.5 1
8555.5 0
8556.5 1
8557.5 0
8558.5 0
8559.5 0
8560.5 0
8561.5 -0.125
8562.5 -1.125
8563.5 0
8564.5 1
8565.5 1
8566.5 -0.125
8567.5 0
8568.5 1
8569.5 2
8570.5 3
8571.5 4
8572.5 2
8573.5 8
8574.5 0
8575.5 1
8576.5 2
8577.5 1
8578.5 0.875
8579.5 0
8580.5 1
8581.5 -1.25
8582.5 1
8583.5 -1.125
8584.5 1
8585.5 1.875
8586.5 0
8587.5 -1.125
8588.5 -1.125
8589.5 0
8590.5 0
8591.5 -1.125
8592.5 1
8593.5 0
8594.5 1
8595.5 2
8596.5 -1.25
8597.5 1
8598.5 -1.125
8599.5 0
8600.5 1
8601.5 1
8602.5 -1.125
8603.5 -0.125
8604.5 0
8605.5 2
8606.5 0
8607.5 0
8608.5 0
8609.5 0
8610.5 -2.25
8611.5 2
8612.5 -1.125
8613.5 0
8614.5 1
8615.5 0
8616.5 1
8617.5 1
8618.5 1
8619.5 1
8620.5 0
8621.5 -1.125
8622.5 0
8623.5 0
8624.5 1
8625.5 -1.25
8626.5 1
8627.5 1
8628.5 1
8629.5 0.875
8630.5 0
8631.5 0
8632.5 0
8633.5 1
8634.5 -1.125
8635.5 0
8636.5 0
8637.5 1
8638.5 -1.125
8639.5 2
8640.5 0
8641.5 -0.125
8642.5 0
8643.5 1
8644.5 0
8645.5 0
8646.5 -0.125
8647.5 -1.125
8648.5 1
8649.5 2
8650.5 0
8651.5 0
8652.5 -2.25
8653.5 1
8654.5 0
8655.5 1
8656.5 3
8657.5 1
8658.5 0
8659.5 -1.125
8660.5 -0.125
8661.5 2
8662.5 1
8663.5 0
8664.5 2
8665.5 2
8666.5 1
8667.5 2
8668.5 2
8669.5 0
8670.5 0
8671.5 0
8672.5 1
8673.5 2
8674.5 0
8675.5 0
8676.5 2
8677.5 0
8678.5 1
8679.5 1
8680.5 0.875
8681.5 0
8682.5 -0.125
8683.5 0
8684.5 0
8685.5 1
8686.5 -2.25
8687.5 1
8688.5 1
8689.5 2
8690.5 1
8691.5 1
8692.5 1
8693.5 0
8694.5 0
8695.5 0
8696.5 1
8697.5 -1.125
8698.5 0
8699.5 -0.125
8700.5 -0.125
8701.5 0
8702.5 0
8703.5 0.875
8704.5 2
8705.5 0
8706.5 0
8707.5 0
8708.5 1
8709.5 0
8710.5 0
8711.5 -0.125
8712.5 1
8713.5 2
8714.5 3
8715.5 2
8716.5 1
8717.5 -0.125
8718.5 0
8719.5 1
8720.5 -1.125
8721.5 0
8722.5 0
8723.5 0
8724.5 2
8725.5 0
8726.5 1
8727.5 0
8728.5 1
8729.5 2
8730.5 0
8731.5 2
8732.5 0
8733.5 0
8734.5 0
8735.5 0
8736.5 -1.125
8737.5 0
8738.5 1
8739.5 0
8740.5 0
8741.5 0
8742.5 0
8743.5 0
8744.5 -1.125
8745.5 0
8746.5 -1.125
8747.5 0
8748.5 1
8749.5 -0.125
8750.5 -1.125
8751.5 -0.125
8752.5 0
8753.5 1
8754.5 1
8755.5 0
8756.5 -1.125
8757.5 0
8758.5 0
8759.5 0
8760.5 1
8761.5 0
8762.5 1
8763.5 -1.125
8764.5 1
8765.5 0
8766.5 0
8767.5 0.875
8768.5 0
8769.5 -1.125
8770.5 0
8771.5 0
8772.5 1
8773.5 -2.25
8774.5 -0.125
8775.5 0
8776.5 0
8777.5 0
8778.5 0
8779.5 2
8780.5 0
8781.5 1
8782.5 1
8783.5 1
8784.5 0
8785.5 1
8786.5 -1.125
8787.5 0
8788.5 0
8789.5 0
8790.5 0
8791.5 0
8792.5 1
8793.5 0
8794.5 -1.125
8795.5 4
8796.5 0
8797.5 0
8798.5 0
8799.5 0
8800.5 -1.125
8801.5 0
8802.5 -1.125
8803.5 1
8804.5 2
8805.5 0
8806.5 0
8807.5 1
8808.5 -1.125
8809.5 1
8810.5 -1.125
8811.5 1
8812.5 1
8813.5 0
8814.5 0
8815.5 1
8816.5 1
8817.5 0
8818.5 0
8819.5 2
8820.5 0
8821.5 0
8822.5 0
8823.5 1
8824.5 0
8825.5 0
8826.5 0
8827.5 1
8828.5 2
8829.5 -1.125
8830.5 1
8831.5 1
8832.5 2
8833.5 0
8834.5 -1.125
8835.5 0
8836.5 -1.125
8837.5 0
8838.5 0
8839.5 3
8840.5 1
8841.5 -1.125
8842.5 1
8843.5 -2.25
8844.5 -1.125
8845.5 3
8846.5 3
8847.5 0
8848.5 2
8849.5 2
8850.5 2
8851.5 0
8852.5 1
8853.5 1
8854.5 0
8855.5 1
8856.5 0
8857.5 0
8858.5 1
8859.5 0
8860.5 -1.125
8861.5 0
8862.5 1
8863.5 1
8864.5 -1.125
8865.5 0
8866.5 0
8867.5 0
8868.5 0
8869.5 2
8870.5 0
8871.5 0
8872.5 -1.125
8873.5 0
8874.5 0
8875.5 0
8876.5 1
8877.5 0
8878.5 1
8879.5 0
8880.5 1
8881.5 0
8882.5 0
8883.5 -0.125
8884.5 1
8885.5 0
8886.5 0
8887.5 0
8888.5 0
8889.5 0
8890.5 0
8891.5 -1.125
8892.5 0
8893.5 0
8894.5 1
8895.5 0
8896.5 1
8897.5 1
8898.5 0
8899.5 1
8900.5 0
8901.5 1
8902.5 0
8903.5 1
8904.5 -0.125
8905.5 0
8906.5 1
8907.5 2
8908.5 0
8909.5 0
8910.5 0
8911.5 0
8912.5 0
8913.5 0
8914.5 0
8915.5 1
8916.5 2
8917.5 0
8918.5 -0.125
8919.5 0
8920.5 -0.125
8921.5 0
8922.5 1
8923.5 0
8924.5 -0.125
8925.5 0
8926.5 1
8927.5 0
8928.5 3
8929.5 -0.125
8930.5 0
8931.5 1
8932.5 0
8933.5 0
8934.5 0
8935.5 0
8936.5 0
8937.5 0
8938.5 1
8939.5 0
8940.5 -0.125
8941.5 0
8942.5 0
8943.5 -1.125
8944.5 0
8945.5 0
8946.5 0
8947.5 0
8948.5 1
8949.5 0
8950.5 0
8951.5 0
8952.5 0
8953.5 0
8954.5 1
8955.5 1
8956.5 -1.125
8957.5 0
8958.5 2
8959.5 -1.125
8960.5 0
8961.5 0
8962.5 -0.125
8963.5 -2.25
8964.5 1
8965.5 1
8966.5 -0.125
8967.5 0
8968.5 0
8969.5 0
8970.5 0.875
8971.5 0
8972.5 1
8973.5 1
8974.5 1
8975.5 0
8976.5 1
8977.5 -0.125
8978.5 1
8979.5 -0.125
8980.5 0
8981.5 0
8982.5 1
8983.5 2
8984.5 0
8985.5 -1.125
8986.5 0
8987.5 2
8988.5 0
8989.5 -1.125
8990.5 0
8991.5 0
8992.5 -1.125
8993.5 -1.125
8994.5 0
8995.5 1
8996.5 3
8997.5 0
8998.5 -1.25
8999.5 1
9000.5 2
9001.5 -1.25
9002.5 0
9003.5 0
9004.5 0
9005.5 -0.125
9006.5 2
9007.5 1
9008.5 0
9009.5 0
9010.5 0
9011.5 0
9012.5 0
9013.5 1
9014.5 0
9015.5 1
9016.5 1
9017.5 0
9018.5 0
9019.5 -0.125
9020.5 0
9021.5 0
9022.5 0
9023.5 0
9024.5 1
9025.5 1
9026.5 -0.125
9027.5 0
9028.5 0
9029.5 1
9030.5 0
9031.5 0
9032.5 0
9033.5 0
9034.5 0
9035.5 0
9036.5 0
9037.5 1
9038.5 1
9039.5 1
9040.5 2
9041.5 2
9042.5 0
9043.5 0
9044.5 1
9045.5 0
9046.5 -1.125
9047.5 0
9048.5 0
9049.5 0
9050.5 0
9051.5 0
9052.5 0
9053.5 0
9054.5 0
9055.5 0
9056.5 0
9057.5 1
9058.5 0
9059.5 1
9060.5 2
9061.5 0
9062.5 1
9063.5 0
9064.5 1
9065.5 1
9066.5 0
9067.5 0
9068.5 0
9069.5 0
9070.5 1
9071.5 0
9072.5 0
9073.5 0
9074.5 -0.125
9075.5 1
9076.5 -0.125
9077.5 2
9078.5 1
9079.5 0
9080.5 0
9081.5 1
9082.5 1
9083.5 -1.125
9084.5 0
9085.5 0
9086.5 -1.125
9087.5 1
9088.5 0
9089.5 0
9090.5 1
9091.5 -1.125
9092.5 2
9093.5 0
9094.5 0
9095.5 1
9096.5 1
9097.5 0
9098.5 -1.125
9099.5 0
9100.5 1
9101.5 -0.125
9102.5 0
9103.5 -1.125
9104.5 0
9105.5 2
9106.5 0
9107.5 -0.125
9108.5 1
9109.5 0
9110.5 0
9111.5 0
9112.5 -1.125
9113.5 0
9114.5 1
9115.5 0
9116.5 2
9117.5 0
9118.5 1
9119.5 1
9120.5 0
9121.5 1
9122.5 3
9123.5 0
9124.5 1
9125.5 0.875
9126.5 1
9127.5 1
9128.5 1
9129.5 0
9130.5 0
9131.5 0
9132.5 0
9133.5 -1.125
9134.5 -1.125
9135.5 0
9136.5 0
9137.5 1
9138.5 2
9139.5 0
9140.5 0
9141.5 1
9142.5 -1.125
9143.5 0
9144.5 -1.125
9145.5 0
9146.5 0
9147.5 1
9148.5 0
9149.5 1
9150.5 0
9151.5 0
9152.5 0
9153.5 -0.125
9154.5 1
9155.5 0
9156.5 1
9157.5 1
9158.5 -1.125
9159.5 -0.125
9160.5 0
9161.5 2
9162.5 0
9163.5 1
9164.5 -1.125
9165.5 1
9166.5 0
9167.5 0
9168.5 -1.125
9169.5 0
9170.5 2
9171.5 0
9172.5 0
9173.5 0
9174.5 1
9175.5 0
9176.5 0
9177.5 0
9178.5 -1.125
9179.5 1
9180.5 0
9181.5 0
9182.5 0
9183.5 -0.125
9184.5 2
9185.5 0
9186.5 1
9187.5 0
9188.5 0
9189.5 0
9190.5 1
9191.5 0
9192.5 -1.125
9193.5 1
9194.5 0
9195.5 0
9196.5 -0.125
9197.5 0
9198.5 0
9199.5 1
9200.5 2
9201.5 -1.125
9202.5 0
9203.5 0
9204.5 0
9205.5 0
9206.5 0
9207.5 -1.125
9208.5 0
9209.5 0
9210.5 0
9211.5 0
9212.5 0
9213.5 0
9214.5 0
9215.5 0
9216.5 -1.125
9217.5 0
9218.5 0
9219.5 0.875
9220.5 0
9221.5 0
9222.5 -2.25
9223.5 -1.125
9224.5 -0.125
9225.5 0
9226.5 0
9227.5 -1.125
9228.5 0
9229.5 -1.125
9230.5 0
9231.5 0
9232.5 0
9233.5 0
9234.5 0
9235.5 0
9236.5 0
9237.5 -1.125
9238.5 0
9239.5 -1.125
9240.5 0
9241.5 0
9242.5 -1.125
9243.5 1
9244.5 0
9245.5 1
9246.5 0
9247.5 1
9248.5 2
9249.5 1
9250.5 1
9251.5 0
9252.5 0
9253.5 0
9254.5 0
9255.5 1
9256.5 0
9257.5 0
9258.5 0
9259.5 -1.125
9260.5 0
9261.5 0
9262.5 1
9263.5 0
9264.5 1
9265.5 0
9266.5 0
9267.5 0
9268.5 -0.125
9269.5 0
9270.5 2
9271.5 0
9272.5 -1.125
9273.5 0
9274.5 0
9275.5 0
9276.5 0
9277.5 0
9278.5 2
9279.5 0
9280.5 1
9281.5 0
9282.5 0
9283.5 1
9284.5 0
9285.5 1
9286.5 0
9287.5 1
9288.5 0
9289.5 0
9290.5 -1.125
9291.5 1
9292.5 1
9293.5 0
9294.5 0
9295.5 0
9296.5 -1.125
9297.5 0
9298.5 0
9299.5 3
9300.5 0
9301.5 2
9302.5 0
9303.5 2
9304.5 0
9305.5 1
9306.5 0
9307.5 1
9308.5 0
9309.5 0
9310.5 1
9311.5 -1.125
9312.5 0
9313.5 0
9314.5 1
9315.5 0
9316.5 0
9317.5 0
9318.5 0
9319.5 0
9320.5 -1.125
9321.5 1
9322.5 1
9323.5 -0.125
9324.5 1
9325.5 1
9326.5 0
9327.5 0
9328.5 0
9329.5 0
9330.5 0
9331.5 0
9332.5 0
9333.5 0
9334.5 1
9335.5 1
9336.5 1
9337.5 0
9338.5 -0.125
9339.5 1
9340.5 0
9341.5 -1.125
9342.5 -1.125
9343.5 0
9344.5 0
9345.5 0
9346.5 0
9347.5 -1.125
9348.5 1
9349.5 -1.125
9350.5 0
9351.5 0
9352.5 -1.125
9353.5 0
9354.5 1
9355.5 0
9356.5 0.875
9357.5 0
9358.5 1
9359.5 1
9360.5 1
9361.5 1
9362.5 0
9363.5 0
9364.5 0
9365.5 1
9366.5 0
9367.5 1
9368.5 0
9369.5 0
9370.5 0
9371.5 -1.125
9372.5 -1.125
9373.5 0
9374.5 0
9375.5 0
9376.5 -1.125
9377.5 0
9378.5 0
9379.5 1
9380.5 0
9381.5 0
9382.5 -1.125
9383.5 0
9384.5 0
9385.5 1
9386.5 1
9387.5 0
9388.5 0
9389.5 1
9390.5 0
9391.5 0
9392.5 1
9393.5 0
9394.5 1
9395.5 1
9396.5 0
9397.5 0
9398.5 0
9399.5 0
9400.5 0
9401.5 -0.125
9402.5 0
9403.5 0
9404.5 2
9405.5 0
9406.5 2
9407.5 0.875
9408.5 0
9409.5 1
9410.5 0
9411.5 0
9412.5 0
9413.5 0
9414.5 1
9415.5 1
9416.5 1
9417.5 0
9418.5 0
9419.5 0
9420.5 0
9421.5 0
9422.5 0
9423.5 -1.125
9424.5 0
9425.5 0
9426.5 0
9427.5 0
9428.5 1
9429.5 0
9430.5 0
9431.5 0
9432.5 1
9433.5 -1.125
9434.5 0
9435.5 0
9436.5 0
9437.5 0
9438.5 -1.125
9439.5 1
9440.5 1
9441.5 0
9442.5 0
9443.5 0
9444.5 0
9445.5 0
9446.5 1
9447.5 0
9448.5 0
9449.5 0
9450.5 0
9451.5 0
9452.5 0
9453.5 0
9454.5 0
9455.5 -0.125
9456.5 1
9457.5 0
9458.5 -1.125
9459.5 0
9460.5 1
9461.5 1
9462.5 1
9463.5 -1.125
9464.5 0
9465.5 0
9466.5 0
9467.5 1
9468.5 0
9469.5 0
9470.5 0
9471.5 0
9472.5 -1.125
9473.5 0
9474.5 0
9475.5 1
9476.5 0
9477.5 1
9478.5 -1.125
9479.5 0
9480.5 0
9481.5 0
9482.5 0
9483.5 2
9484.5 1
9485.5 1
9486.5 0
9487.5 1
9488.5 0
9489.5 0
9490.5 0
9491.5 -1.125
9492.5 0
9493.5 0
9494.5 0
9495.5 0
9496.5 0
9497.5 0
9498.5 0
9499.5 0
9500.5 0
9501.5 0
9502.5 0
9503.5 0
9504.5 0
9505.5 0
9506.5 0
9507.5 0
9508.5 1
9509.5 0
9510.5 -1.125
9511.5 0
9512.5 0
9513.5 0
9514.5 -1.125
9515.5 1
9516.5 0
9517.5 0
9518.5 0
9519.5 0
9520.5 0
9521.5 -1.125
9522.5 0
9523.5 0
9524.5 -1.125
9525.5 1
9526.5 -3.375
9527.5 0
9528.5 0
9529.5 -1.125
9530.5 0
9531.5 0
9532.5 0
9533.5 0
9534.5 0
9535.5 -1.125
9536.5 0
9537.5 0
9538.5 1
9539.5 0
9540.5 0
9541.5 1
9542.5 0
9543.5 0
9544.5 -1.125
9545.5 0
9546.5 0
9547.5 1
9548.5 0
9549.5 0
9550.5 0
9551.5 0
9552.5 0
9553.5 0
9554.5 1
9555.5 0
9556.5 0
9557.5 0
9558.5 0
9559.5 0
9560.5 1
9561.5 0
9562.5 -1.125
9563.5 1
9564.5 0
9565.5 0
9566.5 0
9567.5 0
9568.5 1
9569.5 -1.125
9570.5 -1.125
9571.5 1
9572.5 0
9573.5 0
9574.5 0
9575.5 0
9576.5 0
9577.5 0
9578.5 1
9579.5 0
9580.5 0
9581.5 0
9582.5 0
9583.5 0
9584.5 0
9585.5 0
9586.5 0
9587.5 0
9588.5 1
9589.5 0
9590.5 -1.125
9591.5 0
9592.5 0
9593.5 -1.125
9594.5 0
9595.5 0
9596.5 1
9597.5 0
9598.5 0
9599.5 0
9600.5 0
9601.5 0
9602.5 1
9603.5 0
9604.5 0
9605.5 0
9606.5 0
9607.5 0
9608.5 1
9609.5 2
9610.5 0
9611.5 -2.25
9612.5 0
9613.5 0
9614.5 0
9615.5 0
9616.5 -1.125
9617.5 0
9618.5 -1.125
9619.5 0
9620.5 0
9621.5 0
9622.5 0
9623.5 -1.125
9624.5 0
9625.5 0
9626.5 -1.125
9627.5 -1.125
9628.5 0
9629.5 0
9630.5 0
9631.5 0
9632.5 0
9633.5 -1.125
9634.5 0
9635.5 1
9636.5 0
9637.5 0
9638.5 1
9639.5 0
9640.5 0
9641.5 0
9642.5 0
9643.5 0
9644.5 0
9645.5 1
9646.5 0
9647.5 0
9648.5 1
9649.5 0
9650.5 0
9651.5 0
9652.5 0
9653.5 0
9654.5 0
9655.5 0
9656.5 1
9657.5 0
9658.5 0
9659.5 0
9660.5 0
9661.5 0
9662.5 0
9663.5 -1.125
9664.5 0
9665.5 0
9666.5 0
9667.5 0
9668.5 0
9669.5 1
9670.5 0
9671.5 0
9672.5 0
9673.5 0
9674.5 0
9675.5 0
9676.5 0
9677.5 0
9678.5 0
9679.5 -1.125
9680.5 1
9681.5 0
9682.5 -1.125
9683.5 0
9684.5 0
9685.5 0
9686.5 1
9687.5 0
9688.5 0
9689.5 0
9690.5 0
9691.5 0
9692.5 0
9693.5 0
9694.5 0
9695.5 1
9696.5 1
9697.5 1
9698.5 0
9699.5 0
9700.5 0
9701.5 0
9702.5 1
9703.5 0
9704.5 0
9705.5 0
9706.5 0
9707.5 1
9708.5 0
9709.5 0
9710.5 1
9711.5 -0.125
9712.5 0
9713.5 1
9714.5 0
9715.5 -1.125
9716.5 0
9717.5 1
9718.5 0
9719.5 0
9720.5 0
9721.5 0
9722.5 0
9723.5 0
9724.5 1
9725.5 0
9726.5 0
9727.5 0
9728.5 0
9729.5 0
9730.5 0
9731.5 -1.125
9732.5 0
9733.5 0
9734.5 0
9735.5 0
9736.5 0
9737.5 0
9738.5 0
9739.5 0
9740.5 0
9741.5 0
9742.5 0
9743.5 0
9744.5 0
9745.5 0
9746.5 0
9747.5 0
9748.5 0
9749.5 0
9750.5 0
9751.5 0
9752.5 0
9753.5 0
9754.5 0
9755.5 0
9756.5 0
9757.5 0
9758.5 1
9759.5 0
9760.5 0
9761.5 0
9762.5 -1.125
9763.5 0
9764.5 0
9765.5 0
9766.5 1
9767.5 1
9768.5 -1.125
9769.5 0
9770.5 0
9771.5 0
9772.5 0
9773.5 0
9774.5 0
9775.5 0
9776.5 0
9777.5 0
9778.5 -1.125
9779.5 -1.125
9780.5 1
9781.5 0
9782.5 0
9783.5 0
9784.5 0
9785.5 0
9786.5 0
9787.5 0
9788.5 0
9789.5 -0.125
9790.5 0
9791.5 0
9792.5 -1.125
9793.5 0
9794.5 0
9795.5 0
9796.5 0
9797.5 0
9798.5 0
9799.5 0
9800.5 0
9801.5 0
9802.5 0
9803.5 0
9804.5 1
9805.5 0
9806.5 0
9807.5 0
9808.5 0
9809.5 0
9810.5 0
9811.5 0
9812.5 0
9813.5 0
9814.5 0
9815.5 0
9816.5 0
9817.5 1
9818.5 0
9819.5 0
9820.5 0
9821.5 0
9822.5 0
9823.5 0
9824.5 0
9825.5 0
9826.5 0
9827.5 0
9828.5 0
9829.5 0
9830.5 -1.125
9831.5 -1.125
9832.5 0
9833.5 0
9834.5 1
9835.5 0
9836.5 0
9837.5 0
9838.5 0
9839.5 1
9840.5 0
9841.5 0
9842.5 0
9843.5 0
9844.5 0
9845.5 0
9846.5 0
9847.5 0
9848.5 0
9849.5 0
9850.5 0
9851.5 0
9852.5 0
9853.5 0
9854.5 0
9855.5 1
9856.5 1
9857.5 0
9858.5 1
9859.5 0
9860.5 1
9861.5 0
9862.5 0
9863.5 0
9864.5 0
9865.5 0
9866.5 0
9867.5 0
9868.5 0
9869.5 0
9870.5 0
9871.5 0
9872.5 0
9873.5 0
9874.5 0
9875.5 0
9876.5 0
9877.5 -1.125
9878.5 1
9879.5 0
9880.5 0
9881.5 0
9882.5 0
9883.5 0
9884.5 0
9885.5 1
9886.5 0
9887.5 0
9888.5 0
9889.5 1
9890.5 0
9891.5 0
9892.5 0
9893.5 0
9894.5 -2.25
9895.5 0
9896.5 0
9897.5 0
9898.5 -1.125
9899.5 1
9900.5 -1.125
9901.5 0
9902.5 0
9903.5 0
9904.5 0
9905.5 0
9906.5 0
9907.5 0
9908.5 0
9909.5 0
9910.5 0
9911.5 0
9912.5 1
9913.5 0
9914.5 0
9915.5 1
9916.5 0
9917.5 0
9918.5 0
9919.5 0
9920.5 0
9921.5 1
9922.5 0
9923.5 0
9924.5 0
9925.5 0
9926.5 0
9927.5 0
9928.5 0
9929.5 0
9930.5 0
9931.5 0
9932.5 0
9933.5 0
9934.5 1
9935.5 1
9936.5 0
9937.5 0
9938.5 0
9939.5 0
9940.5 0
9941.5 0
9942.5 0
9943.5 0
9944.5 0
9945.5 1
9946.5 0
9947.5 0
9948.5 0
9949.5 0
9950.5 0
9951.5 0
9952.5 0
9953.5 0
9954.5 0
9955.5 0
9956.5 0
9957.5 0
9958.5 0
9959.5 0
9960.5 0
9961.5 0
9962.5 0
9963.5 0
9964.5 0
9965.5 -1.125
9966.5 0
9967.5 0
9968.5 1
9969.5 0
9970.5 0
9971.5 1
9972.5 0
9973.5 0
9974.5 1
9975.5 0
9976.5 0
9977.5 0
9978.5 0
9979.5 0
9980.5 0
9981.5 0
9982.5 0
9983.5 0
9984.5 0
9985.5 0
9986.5 0
9987.5 0
9988.5 0
9989.5 0
9990.5 -1.125
9991.5 0
9992.5 0
9993.5 0
9994.5 0
9995.5 0
9996.5 0
9997.5 0
9998.5 0
9999.5 0
10000.5 0
10001.5 -1.125
10002.5 1
10003.5 0
10004.5 0
10005.5 0
10006.5 0
10007.5 0
10008.5 0
10009.5 0
10010.5 0
10011.5 0
10012.5 0
10013.5 0
10014.5 0
10015.5 0
10016.5 0
10017.5 1
10018.5 1
10019.5 0
10020.5 1
10021.5 0
10022.5 0
10023.5 0
10024.5 0
10025.5 0
10026.5 0
10027.5 0
10028.5 0
10029.5 0
10030.5 0
10031.5 0
10032.5 0
10033.5 0
10034.5 0
10035.5 0
10036.5 0
10037.5 0
10038.5 0
10039.5 0
10040.5 0
10041.5 0
10042.5 0
10043.5 0
10044.5 0
10045.5 0
10046.5 0
10047.5 0
10048.5 0
10049.5 0
10050.5 0
10051.5 0
10052.5 1
10053.5 0
10054.5 0
10055.5 -1.125
10056.5 0
10057.5 0
10058.5 0
10059.5 0
10060.5 0
10061.5 0
10062.5 0
10063.5 1
10064.5 0
10065.5 0
10066.5 0
10067.5 0
10068.5 0
10069.5 0
10070.5 0
10071.5 0
10072.5 0
10073.5 0
10074.5 0
10075.5 0
10076.5 0
10077.5 0
10078.5 0
10079.5 0
10080.5 0
10081.5 0
10082.5 0
10083.5 0
10084.5 0
10085.5 0
10086.5 0
10087.5 0
10088.5 0
10089.5 0
10090.5 0
10091.5 0
10092.5 0
10093.5 1
10094.5 0
10095.5 0
10096.5 0
10097.5 0
10098.5 0
10099.5 0
10100.5 0
10101.5 0
10102.5 0
10103.5 0
10104.5 0
10105.5 0
10106.5 0
10107.5 0
10108.5 -1.125
10109.5 0
10110.5 0
10111.5 0
10112.5 0
10113.5 0
10114.5 0
10115.5 0
10116.5 0
10117.5 0
10118.5 -1.125
10119.5 0
10120.5 0
10121.5 0
10122.5 0
10123.5 0
10124.5 0
10125.5 0
10126.5 0
10127.5 0
10128.5 0
10129.5 0
10130.5 0
10131.5 -1.125
10132.5 0
10133.5 0
10134.5 0
10135.5 0
10136.5 0
10137.5 0
10138.5 0
10139.5 0
10140.5 0
10141.5 0
10142.5 0
10143.5 0
10144.5 0
10145.5 0
10146.5 1
10147.5 0
10148.5 0
10149.5 -1.125
10150.5 0
10151.5 0
10152.5 0
10153.5 0
10154.5 0
10155.5 0
10156.5 0
10157.5 0
10158.5 0
10159.5 0
10160.5 0
10161.5 0
10162.5 0
10163.5 0
10164.5 0
10165.5 0
10166.5 0
10167.5 0
10168.5 0
10169.5 0
10170.5 0
10171.5 0
10172.5 0
10173.5 0
10174.5 -1.125
10175.5 0
10176.5 0
10177.5 0
10178.5 0
10179.5 0
10180.5 0
10181.5 0
10182.5 0
10183.5 0
10184.5 0
10185.5 0
10186.5 0
10187.5 0
10188.5 0
10189.5 1
10190.5 0
10191.5 0
10192.5 1
10193.5 0
10194.5 1
10195.5 0
10196.5 0
10197.5 0
10198.5 0
10199.5 0
10200.5 0
10201.5 0
10202.5 0
10203.5 0
10204.5 0
10205.5 0
10206.5 1
10207.5 0
10208.5 0
10209.5 0
10210.5 0
10211.5 0
10212.5 0
10213.5 0
10214.5 0
10215.5 0
10216.5 0
10217.5 0
10218.5 0
10219.5 0
10220.5 0
10221.5 0
10222.5 0
10223.5 0
10224.5 1
10225.5 0
10226.5 0
10227.5 1
10228.5 0
10229.5 0
10230.5 0
10231.5 0
10232.5 0
10233.5 0
10234.5 0
10235.5 0
10236.5 1
10237.5 0
10238.5 0
10239.5 0
10240.5 0
10241.5 0
10242.5 0
10243.5 0
10244.5 0
10245.5 0
10246.5 0
10247.5 0
10248.5 0
10249.5 0
10250.5 0
10251.5 0
10252.5 0
10253.5 1
10254.5 0
10255.5 0
10256.5 0
10257.5 0
10258.5 0
10259.5 1
10260.5 0
10261.5 0
10262.5 0
10263.5 0
10264.5 0
10265.5 0
10266.5 0
10267.5 0
10268.5 0
10269.5 0
10270.5 0
10271.5 0
10272.5 0
10273.5 0
10274.5 0
10275.5 0
10276.5 0
10277.5 0
10278.5 0
10279.5 0
10280.5 0
10281.5 0
10282.5 0
10283.5 0
10284.5 0
10285.5 0
10286.5 0
10287.5 0
10288.5 0
10289.5 0
10290.5 0
10291.5 0
10292.5 0
10293.5 0
10294.5 0
10295.5 0
10296.5 0
10297.5 0
10298.5 0
10299.5 0
10300.5 0
10301.5 1
10302.5 0
10303.5 0
10304.5 0
10305.5 0
10306.5 0
10307.5 0
10308.5 0
10309.5 1
10310.5 0
10311.5 0
10312.5 0
10313.5 0
10314.5 0
10315.5 0
10316.5 0
10317.5 0
10318.5 0
10319.5 0
10320.5 0
10321.5 0
10322.5 0
10323.5 0
10324.5 0
10325.5 0
10326.5 0
10327.5 0
10328.5 0
10329.5 0
10330.5 0
10331.5 0
10332.5 0
10333.5 0
10334.5 0
10335.5 0
10336.5 0
10337.5 0
10338.5 0
10339.5 -1.125
10340.5 0
10341.5 0
10342.5 0
10343.5 0
10344.5 0
10345.5 0
10346.5 0
10347.5 0
10348.5 0
10349.5 0
10350.5 0
10351.5 0
10352.5 0
10353.5 0
10354.5 0
10355.5 0
10356.5 0
10357.5 0
10358.5 0
10359.5 0
10360.5 0
10361.5 0
10362.5 0
10363.5 0
10364.5 0
10365.5 0
10366.5 0
10367.5 0
10368.5 0
10369.5 0
10370.5 0
10371.5 0
10372.5 -1.125
10373.5 0
10374.5 0
10375.5 0
10376.5 0
10377.5 0
10378.5 0
10379.5 0
10380.5 0
10381.5 0
10382.5 0
10383.5 0
10384.5 0
10385.5 -1.125
10386.5 0
10387.5 0
10388.5 0
10389.5 1
10390.5 0
10391.5 0
10392.5 1
10393.5 0
10394.5 0
10395.5 0
10396.5 0
10397.5 0
10398.5 0
10399.5 0
10400.5 0
10401.5 0
10402.5 0
10403.5 0
10404.5 0
10405.5 0
10406.5 0
10407.5 0
10408.5 0
10409.5 0
10410.5 0
10411.5 0
10412.5 0
10413.5 1
10414.5 0
10415.5 0
10416.5 1
10417.5 0
10418.5 0
10419.5 0
10420.5 0
10421.5 0
10422.5 0
10423.5 0
10424.5 0
10425.5 0
10426.5 0
10427.5 0
10428.5 0
10429.5 0
10430.5 0
10431.5 0
10432.5 0
10433.5 0
10434.5 0
10435.5 0
10436.5 0
10437.5 0
10438.5 0
10439.5 0
10440.5 0
10441.5 0
10442.5 0
10443.5 0
10444.5 0
10445.5 0
10446.5 0
10447.5 0
10448.5 0
10449.5 0
10450.5 0
10451.5 0
10452.5 0
10453.5 0
10454.5 0
10455.5 0
10456.5 0
10457.5 0
10458.5 0
10459.5 0
10460.5 0
10461.5 0
10462.5 0
10463.5 0
10464.5 0
10465.5 0
10466.5 0
10467.5 0
10468.5 0
10469.5 0
10470.5 0
10471.5 0
10472.5 0
10473.5 0
10474.5 0
10475.5 0
10476.5 0
10477.5 0
10478.5 0
10479.5 0
10480.5 0
10481.5 0
10482.5 0
10483.5 0
10484.5 0
10485.5 0
10486.5 0
10487.5 0
10488.5 0
10489.5 0
10490.5 0
10491.5 0
10492.5 0
10493.5 0
10494.5 0
10495.5 0
10496.5 0
10497.5 0
10498.5 0
10499.5 0
10500.5 0
10501.5 0
10502.5 0
10503.5 0
10504.5 0
10505.5 0
10506.5 0
10507.5 0
10508.5 0
10509.5 0
10510.5 0
10511.5 0
10512.5 0
10513.5 0
10514.5 0
10515.5 0
10516.5 0
10517.5 0
10518.5 0
10519.5 0
10520.5 0
10521.5 0
10522.5 0
10523.5 0
10524.5 0
10525.5 0
10526.5 0
10527.5 0
10528.5 0
10529.5 0
10530.5 0
10531.5 0
10532.5 0
10533.5 0
10534.5 0
10535.5 0
10536.5 0
10537.5 0
10538.5 0
10539.5 0
10540.5 0
10541.5 0
10542.5 0
10543.5 0
10544.5 0
10545.5 0
10546.5 0
10547.5 0
10548.5 0
10549.5 0
10550.5 0
10551.5 0
10552.5 0
10553.5 0
10554.5 1
10555.5 0
10556.5 0
10557.5 0
10558.5 0
10559.5 0
10560.5 0
10561.5 0
10562.5 0
10563.5 0
10564.5 0
10565.5 0
10566.5 0
10567.5 0
10568.5 0
10569.5 1
10570.5 0
10571.5 0
10572.5 0
10573.5 0
10574.5 0
10575.5 0
10576.5 0
10577.5 0
10578.5 0
10579.5 0
10580.5 0
10581.5 0
10582.5 0
10583.5 0
10584.5 0
10585.5 0
10586.5 -1.125
10587.5 0
10588.5 0
10589.5 0
10590.5 0
10591.5 0
10592.5 0
10593.5 0
10594.5 0
10595.5 0
10596.5 0
10597.5 0
10598.5 0
10599.5 0
10600.5 0
10601.5 0
10602.5 0
10603.5 0
10604.5 0
10605.5 0
10606.5 0
10607.5 0
10608.5 0
10609.5 0
10610.5 0
10611.5 0
10612.5 0
10613.5 0
10614.5 0
10615.5 0
10616.5 0
10617.5 0
10618.5 0
10619.5 0
10620.5 0
10621.5 0
10622.5 0
10623.5 0
10624.5 0
10625.5 1
10626.5 0
10627.5 0
10628.5 0
10629.5 0
10630.5 0
10631.5 0
10632.5 0
10633.5 0
10634.5 0
10635.5 0
10636.5 0
10637.5 0
10638.5 0
10639.5 0
10640.5 0
10641.5 0
10642.5 0
10643.5 1
10644.5 0
10645.5 0
10646.5 0
10647.5 0
10648.5 0
10649.5 0
10650.5 0
10651.5 0
10652.5 0
10653.5 0
10654.5 0
10655.5 0
10656.5 0
10657.5 0
10658.5 0
10659.5 0
10660.5 0
10661.5 0
10662.5 0
10663.5 0
10664.5 0
10665.5 0
10666.5 0
10667.5 0
10668.5 0
10669.5 0
10670.5 0
10671.5 0
10672.5 0
10673.5 0
10674.5 0
10675.5 0
10676.5 0
10677.5 0
10678.5 0
10679.5 0
10680.5 0
10681.5 0
10682.5 0
10683.5 0
10684.5 0
10685.5 0
10686.5 0
10687.5 0
10688.5 0
10689.5 0
10690.5 0
10691.5 0
10692.5 0
10693.5 0
10694.5 0
10695.5 0
10696.5 0
10697.5 0
10698.5 0
10699.5 0
10700.5 0
10701.5 0
10702.5 0
10703.5 0
10704.5 0
10705.5 0
10706.5 0
10707.5 0
10708.5 0
10709.5 0
10710.5 0
10711.5 0
10712.5 0
10713.5 0
10714.5 0
10715.5 0
10716.5 0
10717.5 0
10718.5 0
10719.5 0
10720.5 0
10721.5 0
10722.5 0
10723.5 0
10724.5 0
10725.5 0
10726.5 0
10727.5 0
10728.5 0
10729.5 1
10730.5 0
10731.5 0
10732.5 0
10733.5 0
10734.5 0
10735.5 0
10736.5 0
10737.5 0
10738.5 0
10739.5 0
10740.5 0
10741.5 0
10742.5 0
10743.5 0
10744.5 0
10745.5 0
10746.5 0
10747.5 0
10748.5 0
10749.5 0
10750.5 0
10751.5 0
10752.5 0
10753.5 0
10754.5 0
10755.5 0
10756.5 0
10757.5 0
10758.5 0
10759.5 0
10760.5 0
10761.5 0
10762.5 0
10763.5 0
10764.5 1
10765.5 0
10766.5 0
10767.5 0
10768.5 0
10769.5 0
10770.5 0
10771.5 0
10772.5 0
10773.5 0
10774.5 0
10775.5 0
10776.5 0
10777.5 0
10778.5 0
10779.5 0
10780.5 0
10781.5 0
10782.5 0
10783.5 0
10784.5 0
10785.5 0
10786.5 0
10787.5 0
10788.5 0
10789.5 0
10790.5 0
10791.5 0
10792.5 0
10793.5 0
10794.5 0
10795.5 0
10796.5 0
10797.5 0
10798.5 0
10799.5 0
10800.5 0
10801.5 0
10802.5 0
10803.5 0
10804.5 0
10805.5 0
10806.5 0
10807.5 -1.125
10808.5 0
10809.5 0
10810.5 0
10811.5 0
10812.5 1
10813.5 0
10814.5 0
10815.5 0
10816.5 0
10817.5 0
10818.5 0
10819.5 0
10820.5 0
10821.5 0
10822.5 0
10823.5 0
10824.5 0
10825.5 0
10826.5 0
10827.5 0
10828.5 0
10829.5 0
10830.5 0
10831.5 0
10832.5 0
10833.5 0
10834.5 0
10835.5 0
10836.5 0
10837.5 0
10838.5 0
10839.5 0
10840.5 0
10841.5 0
10842.5 0
10843.5 0
10844.5 0
10845.5 0
10846.5 0
10847.5 0
10848.5 0
10849.5 0
10850.5 0
10851.5 0
10852.5 0
10853.5 1
10854.5 0
10855.5 0
10856.5 0
10857.5 0
10858.5 0
10859.5 0
10860.5 0
10861.5 0
10862.5 0
10863.5 0
10864.5 0
10865.5 0
10866.5 0
10867.5 0
10868.5 0
10869.5 0
10870.5 0
10871.5 0
10872.5 0
10873.5 0
10874.5 0
10875.5 0
10876.5 0
10877.5 0
10878.5 0
10879.5 0
10880.5 0
10881.5 0
10882.5 0
10883.5 0
10884.5 0
10885.5 0
10886.5 0
10887.5 0
10888.5 0
10889.5 0
10890.5 0
10891.5 0
10892.5 0
10893.5 0
10894.5 0
10895.5 0
10896.5 0
10897.5 0
10898.5 0
10899.5 0
10900.5 0
10901.5 0
10902.5 0
10903.5 0
10904.5 0
10905.5 0
10906.5 0
10907.5 0
10908.5 0
10909.5 0
10910.5 0
10911.5 0
10912.5 0
10913.5 0
10914.5 0
10915.5 0
10916.5 0
10917.5 0
10918.5 0
10919.5 0
10920.5 0
10921.5 0
10922.5 0
10923.5 0
10924.5 0
10925.5 0
10926.5 0
10927.5 0
10928.5 0
10929.5 0
10930.5 0
10931.5 0
10932.5 0
10933.5 0
10934.5 0
10935.5 0
10936.5 0
10937.5 -1.125
10938.5 0
10939.5 0
10940.5 0
10941.5 0
10942.5 0
10943.5 0
10944.5 0
10945.5 0
10946.5 0
10947.5 0
10948.5 0
10949.5 0
10950.5 0
10951.5 0
10952.5 0
10953.5 0
10954.5 0
10955.5 0
10956.5 0
10957.5 0
10958.5 0
10959.5 0
10960.5 0
10961.5 0
10962.5 0
10963.5 0
10964.5 0
10965.5 0
10966.5 0
10967.5 0
10968.5 0
10969.5 0
10970.5 0
10971.5 1
10972.5 0
10973.5 0
10974.5 0
10975.5 0
10976.5 0
10977.5 0
10978.5 0
10979.5 0
10980.5 0
10981.5 0
10982.5 0
10983.5 0
10984.5 0
10985.5 0
10986.5 0
10987.5 0
10988.5 0
10989.5 0
10990.5 0
10991.5 0
10992.5 0
10993.5 0
10994.5 0
10995.5 0
10996.5 0
10997.5 0
10998.5 0
10999.5 0
11000.5 0
11001.5 0
11002.5 0
11003.5 0
11004.5 0
11005.5 0
11006.5 0
11007.5 0
11008.5 0
11009.5 0
11010.5 0
11011.5 0
11012.5 0
11013.5 0
11014.5 0
11015.5 0
11016.5 0
11017.5 0
11018.5 0
11019.5 0
11020.5 0
11021.5 0
11022.5 0
11023.5 0
11024.5 0
11025.5 0
11026.5 0
11027.5 0
11028.5 0
11029.5 0
11030.5 1
11031.5 0
11032.5 0
11033.5 0
11034.5 0
11035.5 0
11036.5 0
11037.5 0
11038.5 0
11039.5 0
11040.5 0
11041.5 0
11042.5 0
11043.5 0
11044.5 0
11045.5 0
11046.5 0
11047.5 0
11048.5 0
11049.5 0
11050.5 0
11051.5 0
11052.5 0
11053.5 0
11054.5 0
11055.5 0
11056.5 0
11057.5 0
11058.5 0
11059.5 0
11060.5 0
11061.5 0
11062.5 0
11063.5 0
11064.5 0
11065.5 0
11066.5 0
11067.5 1
11068.5 0
11069.5 0
11070.5 0
11071.5 0
11072.5 0
11073.5 0
11074.5 0
11075.5 0
11076.5 0
11077.5 0
11078.5 0
11079.5 0
11080.5 0
11081.5 0
11082.5 0
11083.5 1
11084.5 0
11085.5 0
11086.5 0
11087.5 0
11088.5 0
11089.5 0
11090.5 0
11091.5 0
11092.5 0
11093.5 0
11094.5 0
11095.5 0
11096.5 0
11097.5 0
11098.5 0
11099.5 2
11100.5 0
11101.5 1
11102.5 0
11103.5 0
11104.5 0
11105.5 0
11106.5 0
11107.5 1
11108.5 0
11109.5 0
11110.5 0
11111.5 0
11112.5 0
11113.5 0
11114.5 0
11115.5 0
11116.5 0
11117.5 0
11118.5 0
11119.5 0
11120.5 0
11121.5 0
11122.5 0
11123.5 0
11124.5 0
11125.5 0
11126.5 0
11127.5 0
11128.5 0
11129.5 0
11130.5 0
11131.5 0
11132.5 0
11133.5 0
11134.5 0
11135.5 0
11136.5 0
11137.5 0
11138.5 0
11139.5 0
11140.5 0
11141.5 0
11142.5 0
11143.5 0
11144.5 0
11145.5 0
11146.5 0
11147.5 0
11148.5 0
11149.5 0
11150.5 0
11151.5 0
11152.5 0
11153.5 0
11154.5 0
11155.5 0
11156.5 0
11157.5 0
11158.5 0
11159.5 0
11160.5 0
11161.5 0
11162.5 0
11163.5 0
11164.5 0
11165.5 0
11166.5 0
11167.5 1
11168.5 0
11169.5 0
11170.5 0
11171.5 0
11172.5 0
11173.5 0
11174.5 0
11175.5 0
11176.5 0
11177.5 0
11178.5 0
11179.5 0
11180.5 0
11181.5 0
11182.5 0
11183.5 0
11184.5 0
11185.5 0
11186.5 0
11187.5 0
11188.5 0
11189.5 0
11190.5 0
11191.5 0
11192.5 0
11193.5 0
11194.5 0
11195.5 0
11196.5 0
11197.5 0
11198.5 0
11199.5 0
11200.5 0
11201.5 0
11202.5 0
11203.5 0
11204.5 0
11205.5 0
11206.5 0
11207.5 0
11208.5 0
11209.5 0
11210.5 0
11211.5 0
11212.5 0
11213.5 0
11214.5 0
11215.5 0
11216.5 0
11217.5 0
11218.5 0
11219.5 0
11220.5 0
11221.5 0
11222.5 0
11223.5 0
11224.5 0
11225.5 0
11226.5 0
11227.5 0
11228.5 0
11229.5 0
11230.5 0
11231.5 0
11232.5 1
11233.5 0
11234.5 0
11235.5 0
11236.5 0
11237.5 0
11238.5 0
11239.5 0
11240.5 0
11241.5 0
11242.5 0
11243.5 0
11244.5 -1.125
11245.5 0
11246.5 0
11247.5 0
11248.5 0
11249.5 0
11250.5 -1.125
11251.5 0
11252.5 0
11253.5 0
11254.5 0
11255.5 -1.125
11256.5 1
11257.5 0
11258.5 0
11259.5 0
11260.5 0
11261.5 0
11262.5 0
11263.5 0
11264.5 0
11265.5 0
11266.5 0
11267.5 0
11268.5 0
11269.5 0
11270.5 0
11271.5 0
11272.5 0
11273.5 0
11274.5 0
11275.5 0
11276.5 0
11277.5 0
11278.5 0
11279.5 0
11280.5 0
11281.5 0
11282.5 0
11283.5 0
11284.5 0
11285.5 0
11286.5 0
11287.5 0
11288.5 0
11289.5 0
11290.5 0
11291.5 0
11292.5 0
11293.5 0
11294.5 0
11295.5 0
11296.5 0
11297.5 0
11298.5 0
11299.5 0
11300.5 0
11301.5 0
11302.5 0
11303.5 0
11304.5 0
11305.5 0
11306.5 0
11307.5 0
11308.5 0
11309.5 0
11310.5 0
11311.5 0
11312.5 0
11313.5 0
11314.5 0
11315.5 0
11316.5 0
11317.5 1
11318.5 0
11319.5 0
11320.5 0
11321.5 0
11322.5 0
11323.5 0
11324.5 0
11325.5 0
11326.5 0
11327.5 0
11328.5 0
11329.5 0
11330.5 0
11331.5 1
11332.5 0
11333.5 0
11334.5 0
11335.5 0
11336.5 0
11337.5 0
11338.5 0
11339.5 0
11340.5 0
11341.5 0
11342.5 0
11343.5 0
11344.5 0
11345.5 0
11346.5 0
11347.5 0
11348.5 0
11349.5 0
11350.5 0
11351.5 0
11352.5 0
11353.5 0
11354.5 0
11355.5 0
11356.5 0
11357.5 0
11358.5 0
11359.5 0
11360.5 0
11361.5 0
11362.5 0
11363.5 0
11364.5 1
11365.5 0
11366.5 0
11367.5 0
11368.5 0
11369.5 0
11370.5 0
11371.5 0
11372.5 0
11373.5 0
11374.5 0
11375.5 0
11376.5 0
11377.5 0
11378.5 0
11379.5 0
11380.5 0
11381.5 0
11382.5 0
11383.5 0
11384.5 0
11385.5 0
11386.5 0
11387.5 0
11388.5 0
11389.5 0
11390.5 0
11391.5 0
11392.5 0
11393.5 0
11394.5 0
11395.5 0
11396.5 0
11397.5 0
11398.5 0
11399.5 0
11400.5 0
11401.5 0
11402.5 0
11403.5 0
11404.5 0
11405.5 0
11406.5 0
11407.5 0
11408.5 0
11409.5 0
11410.5 -1.125
11411.5 0
11412.5 0
11413.5 0
11414.5 0
11415.5 0
11416.5 0
11417.5 0
11418.5 1
11419.5 0
11420.5 0
11421.5 0
11422.5 0
11423.5 0
11424.5 0
11425.5 0
11426.5 0
11427.5 0
11428.5 0
11429.5 0
11430.5 0
11431.5 0
11432.5 0
11433.5 0
11434.5 0
11435.5 0
11436.5 0
11437.5 0
11438.5 0
11439.5 0
11440.5 0
11441.5 0
11442.5 0
11443.5 0
11444.5 0
11445.5 0
11446.5 0
11447.5 -1.125
11448.5 0
11449.5 0
11450.5 0
11451.5 0
11452.5 0
11453.5 0
11454.5 0
11455.5 0
11456.5 0
11457.5 0
11458.5 0
11459.5 0
11460.5 0
11461.5 0
11462.5 0
11463.5 0
11464.5 0
11465.5 0
11466.5 0
11467.5 0
11468.5 0
11469.5 0
11470.5 0
11471.5 0
11472.5 0
11473.5 0
11474.5 0
11475.5 0
11476.5 0
11477.5 0
11478.5 0
11479.5 0
11480.5 0
11481.5 0
11482.5 0
11483.5 0
11484.5 0
11485.5 0
11486.5 0
11487.5 0
11488.5 0
11489.5 0
11490.5 0
11491.5 0
11492.5 0
11493.5 0
11494.5 0
11495.5 0
11496.5 0
11497.5 0
11498.5 0
11499.5 0
11500.5 0
11501.5 0
11502.5 0
11503.5 0
11504.5 0
11505.5 0
11506.5 0
11507.5 0
11508.5 0
11509.5 0
11510.5 0
11511.5 0
11512.5 0
11513.5 0
11514.5 0
11515.5 0
11516.5 0
11517.5 0
11518.5 0
11519.5 0
11520.5 0
11521.5 0
11522.5 0
11523.5 0
11524.5 0
11525.5 0
11526.5 0
11527.5 0
11528.5 0
11529.5 0
11530.5 0
11531.5 0
11532.5 0
11533.5 0
11534.5 0
11535.5 0
11536.5 0
11537.5 0
11538.5 0
11539.5 0
11540.5 0
11541.5 0
11542.5 0
11543.5 0
11544.5 0
11545.5 0
11546.5 0
11547.5 0
11548.5 0
11549.5 0
11550.5 0
11551.5 0
11552.5 0
11553.5 0
11554.5 0
11555.5 0
11556.5 0
11557.5 0
11558.5 0
11559.5 0
11560.5 0
11561.5 0
11562.5 0
11563.5 0
11564.5 0
11565.5 0
11566.5 0
11567.5 0
11568.5 1
11569.5 0
11570.5 0
11571.5 0
11572.5 0
11573.5 0
11574.5 0
11575.5 1
11576.5 0
11577.5 0
11578.5 0
11579.5 0
11580.5 0
11581.5 0
11582.5 0
11583.5 0
11584.5 0
11585.5 0
11586.5 0
11587.5 0
11588.5 0
11589.5 0
11590.5 0
11591.5 0
11592.5 0
11593.5 0
11594.5 0
11595.5 0
11596.5 0
11597.5 0
11598.5 0
11599.5 0
11600.5 0
11601.5 0
11602.5 0
11603.5 0
11604.5 0
11605.5 0
11606.5 0
11607.5 0
11608.5 0
11609.5 0
11610.5 1
11611.5 0
11612.5 0
11613.5 0
11614.5 0
11615.5 0
11616.5 0
11617.5 0
11618.5 0
11619.5 1
11620.5 0
11621.5 0
11622.5 0
11623.5 0
11624.5 0
11625.5 0
11626.5 0
11627.5 0
11628.5 0
11629.5 0
11630.5 0
11631.5 0
11632.5 0
11633.5 0
11634.5 0
11635.5 0
11636.5 0
11637.5 0
11638.5 -1.125
11639.5 0
11640.5 0
11641.5 0
11642.5 0
11643.5 0
11644.5 0
11645.5 0
11646.5 0
11647.5 0
11648.5 0
11649.5 0
11650.5 0
11651.5 0
11652.5 0
11653.5 1
11654.5 0
11655.5 0
11656.5 0
11657.5 0
11658.5 0
11659.5 0
11660.5 -1.125
11661.5 0
11662.5 0
11663.5 0
11664.5 0
11665.5 0
11666.5 0
11667.5 0
11668.5 0
11669.5 0
11670.5 0
11671.5 0
11672.5 0
11673.5 0
11674.5 0
11675.5 0
11676.5 0
11677.5 0
11678.5 0
11679.5 0
11680.5 0
11681.5 0
11682.5 0
11683.5 0
11684.5 0
11685.5 0
11686.5 0
11687.5 0
11688.5 0
11689.5 1
11690.5 0
11691.5 0
11692.5 0
11693.5 0
11694.5 0
11695.5 0
11696.5 0
11697.5 0
11698.5 0
11699.5 0
11700.5 0
11701.5 0
11702.5 0
11703.5 0
11704.5 0
11705.5 0
11706.5 0
11707.5 0
11708.5 0
11709.5 0
11710.5 0
11711.5 0
11712.5 0
11713.5 0
11714.5 0
11715.5 0
11716.5 0
11717.5 0
11718.5 0
11719.5 0
11720.5 0
11721.5 0
11722.5 0
11723.5 0
11724.5 0
11725.5 0
11726.5 0
11727.5 0
11728.5 0
11729.5 0
11730.5 0
11731.5 0
11732.5 0
11733.5 0
11734.5 0
11735.5 0
11736.5 0
11737.5 0
11738.5 0
11739.5 0
11740.5 0
11741.5 0
11742.5 0
11743.5 0
11744.5 0
11745.5 0
11746.5 0
11747.5 0
11748.5 0
11749.5 0
11750.5 0
11751.5 0
11752.5 0
11753.5 0
11754.5 0
11755.5 0
11756.5 0
11757.5 0
11758.5 0
11759.5 0
11760.5 0
11761.5 0
11762.5 0
11763.5 0
11764.5 0
11765.5 0
11766.5 1
11767.5 0
11768.5 0
11769.5 0
11770.5 0
11771.5 0
11772.5 0
11773.5 0
11774.5 0
11775.5 0
11776.5 0
11777.5 0
11778.5 0
11779.5 0
11780.5 0
11781.5 0
11782.5 0
11783.5 0
11784.5 0
11785.5 1
11786.5 0
11787.5 0
11788.5 0
11789.5 0
11790.5 0
11791.5 0
11792.5 0
11793.5 0
11794.5 0
11795.5 0
11796.5 0
11797.5 0
11798.5 0
11799.5 0
11800.5 0
11801.5 0
11802.5 0
11803.5 0
11804.5 0
11805.5 0
11806.5 0
11807.5 0
11808.5 0
11809.5 0
11810.5 0
11811.5 0
11812.5 0
11813.5 0
11814.5 0
11815.5 0
11816.5 0
11817.5 0
11818.5 0
11819.5 0
11820.5 0
11821.5 0
11822.5 0
11823.5 0
11824.5 0
11825.5 0
11826.5 0
11827.5 0
11828.5 0
11829.5 0
11830.5 0
11831.5 0
11832.5 0
11833.5 0
11834.5 0
11835.5 0
11836.5 0
11837.5 0
11838.5 0
11839.5 0
11840.5 0
11841.5 0
11842.5 0
11843.5 1
11844.5 0
11845.5 0
11846.5 1
11847.5 0
11848.5 0
11849.5 0
11850.5 0
11851.5 0
11852.5 0
11853.5 0
11854.5 0
11855.5 0
11856.5 0
11857.5 0
11858.5 0
11859.5 0
11860.5 0
11861.5 0
11862.5 0
11863.5 0
11864.5 0
11865.5 0
11866.5 0
11867.5 0
11868.5 0
11869.5 0
11870.5 0
11871.5 0
11872.5 0
11873.5 0
11874.5 0
11875.5 0
11876.5 0
11877.5 0
11878.5 0
11879.5 0
11880.5 0
11881.5 0
11882.5 0
11883.5 0
11884.5 0
11885.5 0
11886.5 0
11887.5 0
11888.5 0
11889.5 0
11890.5 0
11891.5 0
11892.5 0
11893.5 0
11894.5 0
11895.5 0
11896.5 0
11897.5 0
11898.5 0
11899.5 0
11900.5 0
11901.5 0
11902.5 0
11903.5 0
11904.5 0
11905.5 0
11906.5 0
11907.5 0
11908.5 0
11909.5 0
11910.5 0
11911.5 0
11912.5 0
11913.5 0
11914.5 0
11915.5 0
11916.5 0
11917.5 0
11918.5 0
11919.5 0
11920.5 0
11921.5 0
11922.5 0
11923.5 0
11924.5 0
11925.5 0
11926.5 0
11927.5 0
11928.5 0
11929.5 0
11930.5 0
11931.5 0
11932.5 0
11933.5 0
11934.5 0
11935.5 0
11936.5 0
11937.5 0
11938.5 0
11939.5 0
11940.5 0
11941.5 0
11942.5 0
11943.5 0
11944.5 0
11945.5 0
11946.5 0
11947.5 0
11948.5 -1.125
11949.5 0
11950.5 0
11951.5 0
11952.5 0
11953.5 0
11954.5 0
11955.5 0
11956.5 0
11957.5 0
11958.5 0
11959.5 0
11960.5 0
11961.5 0
11962.5 0
11963.5 0
11964.5 0
11965.5 0
11966.5 0
11967.5 0
11968.5 0
11969.5 0
11970.5 0
11971.5 0
11972.5 0
11973.5 0
11974.5 0
11975.5 0
11976.5 0
11977.5 0
11978.5 0
11979.5 0
11980.5 0
11981.5 0
11982.5 0
11983.5 1
11984.5 0
11985.5 0
11986.5 0
11987.5 0
11988.5 0
11989.5 0
11990.5 0
11991.5 0
11992.5 0
11993.5 0
11994.5 0
11995.5 0
11996.5 0
11997.5 0
11998.5 0
11999.5 0
