# EGG_ProjY_E2200.5(4.5)_B2172.5(2.5)_B2207.5(1.5)
# X axis : Energy (keV) [Y axis]
# Y axis : Counts/1 keV
# N Bins : 12000
# X Min : 0
# X Max : 12000
# X value at the center of the bins
0.5 0
1.5 0
2.5 0
3.5 0
4.5 0
5.5 102.875
6.5 51.625
7.5 61.875
8.5 95.75
9.5 73.25
10.5 17.375
11.5 29.875
12.5 38.75
13.5 66.25
14.5 131.125
15.5 153.125
16.5 130.125
17.5 168.75
18.5 173.125
19.5 288.625
20.5 390.875
21.5 391.75
22.5 382.875
23.5 505.375
24.5 709.75
25.5 794.25
26.5 784.625
27.5 871.875
28.5 839.5
29.5 1006.88
30.5 854.25
31.5 1257.38
32.5 1389.88
33.5 1256.88
34.5 1533.25
35.5 1295.75
36.5 1595
37.5 1550.12
38.5 1655.12
39.5 1719.88
40.5 1548.88
41.5 1834.5
42.5 1979.62
43.5 2111.38
44.5 1689.62
45.5 1697.12
46.5 1649.75
47.5 1591.5
48.5 1613.38
49.5 1658.75
50.5 1655.5
51.5 1429.25
52.5 1759.62
53.5 1799.88
54.5 1855.88
55.5 1705.12
56.5 1973.38
57.5 2224.62
58.5 2750.5
59.5 2844.88
60.5 2393.62
61.5 2027.25
62.5 1748.12
63.5 1915
64.5 1953
65.5 1959.75
66.5 2159.62
67.5 2085.25
68.5 2151.12
69.5 1929
70.5 2150.12
71.5 1896.62
72.5 2030.75
73.5 2124.62
74.5 3258.25
75.5 3770.12
76.5 4168.25
77.5 4920.5
78.5 3223.75
79.5 2387.62
80.5 2197.25
81.5 1955.75
82.5 1729
83.5 1876.12
84.5 2001.5
85.5 2227.25
86.5 2756.62
87.5 3031.5
88.5 2345
89.5 1956.12
90.5 2328
91.5 2070.88
92.5 1980.5
93.5 1794.75
94.5 1847.88
95.5 1830.12
96.5 2093.12
97.5 1984.12
98.5 2087
99.5 2049.75
100.5 2054.25
101.5 2191
102.5 2146.88
103.5 2050.25
104.5 1897.38
105.5 2014.62
106.5 1948.38
107.5 2103.5
108.5 2060.88
109.5 2154.38
110.5 1941.62
111.5 2014
112.5 2011.25
113.5 2303.62
114.5 2208.75
115.5 2416.12
116.5 2207.62
117.5 2110
118.5 2313.5
119.5 2127.38
120.5 2144.5
121.5 2096
122.5 2228.38
123.5 2154.62
124.5 2014.12
125.5 2092
126.5 2146.88
127.5 2189.12
128.5 1920.38
129.5 2394
130.5 2355.88
131.5 2397.88
132.5 2425
133.5 2407
134.5 2398.62
135.5 2450.5
136.5 2484.12
137.5 2440.5
138.5 2369
139.5 2467.75
140.5 2488
141.5 2561.25
142.5 2341.62
143.5 2187.12
144.5 2465.38
145.5 2608.75
146.5 2366.25
147.5 2498.75
148.5 2579.25
149.5 2598
150.5 2313.38
151.5 2617.5
152.5 2511
153.5 2519.75
154.5 2535.75
155.5 2453
156.5 2368.62
157.5 2598.25
158.5 2548.5
159.5 2597.12
160.5 2569.38
161.5 2499.38
162.5 2640
163.5 2529
164.5 2331.12
165.5 2684.62
166.5 2799.62
167.5 2632.38
168.5 2524.75
169.5 2192.12
170.5 2712.75
171.5 2558.12
172.5 2526.25
173.5 2346
174.5 2502.88
175.5 2722.88
176.5 2790
177.5 2486.38
178.5 2569.75
179.5 2675.62
180.5 2759
181.5 2414.75
182.5 2027.12
183.5 2369.5
184.5 2538.12
185.5 2490.5
186.5 2474.25
187.5 2542.25
188.5 2646.38
189.5 2540.38
190.5 2603
191.5 2638.62
192.5 2509.5
193.5 2481.75
194.5 2688.38
195.5 2441.5
196.5 2496.25
197.5 2271.75
198.5 2753.25
199.5 2918
200.5 2535.88
201.5 2562.62
202.5 2522.25
203.5 2472.75
204.5 2593.12
205.5 2701
206.5 2675.12
207.5 2455.62
208.5 2699.12
209.5 2643.5
210.5 2805
211.5 2909.75
212.5 2971.75
213.5 3373.88
214.5 2790.5
215.5 3053.5
216.5 3011.88
217.5 3044.12
218.5 2801.75
219.5 2832.12
220.5 2683.5
221.5 2914
222.5 2709.25
223.5 2921.5
224.5 2787.62
225.5 3068.25
226.5 2946.5
227.5 3097.25
228.5 3015.75
229.5 3131.25
230.5 3217.88
231.5 3515.38
232.5 3381
233.5 3255.12
234.5 3161.25
235.5 3112.38
236.5 3016.38
237.5 3115.75
238.5 2629.25
239.5 2806.38
240.5 2854.5
241.5 2955.75
242.5 2719.38
243.5 2711.38
244.5 2805.38
245.5 3076.75
246.5 2988.25
247.5 2871.38
248.5 2920.25
249.5 2828
250.5 2965.5
251.5 2622.12
252.5 2583.5
253.5 2510.75
254.5 2484.5
255.5 2576.88
256.5 2445.88
257.5 2332.5
258.5 2558.25
259.5 2103.38
260.5 2155
261.5 2329.25
262.5 2144.75
263.5 2248.5
264.5 2327.38
265.5 2531
266.5 2267
267.5 2533.62
268.5 2528.62
269.5 2555.38
270.5 2584.88
271.5 2384.5
272.5 2393.25
273.5 2480.5
274.5 2359.88
275.5 2301.25
276.5 2480.75
277.5 2363.5
278.5 2291.88
279.5 2442.25
280.5 2366.88
281.5 2378.12
282.5 2256.25
283.5 2159
284.5 2206.75
285.5 2240.75
286.5 2224.88
287.5 2278.5
288.5 2225.88
289.5 2360.25
290.5 2207
291.5 2322.12
292.5 2256.5
293.5 2504
294.5 2301.62
295.5 2540.25
296.5 2312
297.5 2332
298.5 2252
299.5 2363.25
300.5 2108.25
301.5 2151.5
302.5 2219.62
303.5 2082.38
304.5 2321.38
305.5 2389.5
306.5 2211.62
307.5 2002.12
308.5 2057.38
309.5 1958.75
310.5 1849.38
311.5 1871
312.5 2299.75
313.5 2289
314.5 2544.12
315.5 2726.88
316.5 2796.62
317.5 2564.38
318.5 2475
319.5 2612.75
320.5 2251.12
321.5 2359.88
322.5 2315.75
323.5 2286.38
324.5 2345.88
325.5 2286.25
326.5 2291.75
327.5 2265.5
328.5 2223.88
329.5 2376.75
330.5 2346.88
331.5 2125
332.5 1967.75
333.5 1975.25
334.5 1675.12
335.5 1839.5
336.5 1904.75
337.5 1798
338.5 2037.25
339.5 1884.88
340.5 1870.25
341.5 1952.62
342.5 1763.75
343.5 1469.25
344.5 1585.88
345.5 1313.12
346.5 1241.88
347.5 1437.5
348.5 1487.38
349.5 1594.88
350.5 1808.62
351.5 1830.25
352.5 1688.75
353.5 1999.88
354.5 2183.5
355.5 1790.25
356.5 1672.62
357.5 1697.38
358.5 1716.12
359.5 1701.25
360.5 1543.12
361.5 1714
362.5 1912.38
363.5 1818
364.5 1749.38
365.5 1701.12
366.5 1712.12
367.5 1653
368.5 1639.75
369.5 1680.62
370.5 1781.75
371.5 1582.88
372.5 1834.12
373.5 1629.25
374.5 1682.5
375.5 1702
376.5 1724.5
377.5 1732.62
378.5 1700.12
379.5 1904.25
380.5 1583.62
381.5 1827.88
382.5 1657.12
383.5 1696.75
384.5 1813.38
385.5 1728.25
386.5 1803.5
387.5 1693.88
388.5 1637
389.5 1717.25
390.5 1623.88
391.5 1536.88
392.5 1591
393.5 1644.5
394.5 1556.25
395.5 1543.25
396.5 1663.12
397.5 1702.62
398.5 1611
399.5 1672.38
400.5 1592.38
401.5 1449.62
402.5 1610.88
403.5 1583.38
404.5 1175
405.5 1440.12
406.5 1568.88
407.5 1536.12
408.5 1578.38
409.5 1441.38
410.5 1435.88
411.5 1529.12
412.5 1719
413.5 1852.62
414.5 1913.25
415.5 1933.38
416.5 1968.62
417.5 1881.38
418.5 1854
419.5 1943.62
420.5 1910.5
421.5 1871.12
422.5 1775.12
423.5 1631.88
424.5 1558.38
425.5 1674.62
426.5 1443.88
427.5 1557.88
428.5 1327.5
429.5 1457.88
430.5 1392.75
431.5 1423.25
432.5 1397.62
433.5 1527.12
434.5 1445.12
435.5 1608.88
436.5 1483.25
437.5 1359.12
438.5 1407.12
439.5 1447.75
440.5 1470.38
441.5 1399.5
442.5 1179.38
443.5 1268
444.5 1188.62
445.5 1167.62
446.5 1106.25
447.5 1250.62
448.5 1161.62
449.5 1273
450.5 1621.88
451.5 1537.25
452.5 1566.5
453.5 1542.25
454.5 1641.38
455.5 1730.25
456.5 1660.88
457.5 1495.25
458.5 1518.5
459.5 1513
460.5 1381.5
461.5 1577.62
462.5 1460.75
463.5 1373.75
464.5 1615.5
465.5 1478.5
466.5 1565.38
467.5 1574.38
468.5 1314
469.5 1445.38
470.5 1472.25
471.5 1416
472.5 1521.75
473.5 1730.25
474.5 1803.25
475.5 1761.75
476.5 1641.25
477.5 1556.5
478.5 1656.75
479.5 1553.38
480.5 1620.62
481.5 1568.38
482.5 1604.88
483.5 1422.38
484.5 1403.75
485.5 1318.62
486.5 1483.5
487.5 1557
488.5 1594
489.5 1308.88
490.5 1461.25
491.5 1575.88
492.5 1473.75
493.5 1312.12
494.5 1362.88
495.5 1409.12
496.5 1274.25
497.5 1410.25
498.5 1317.5
499.5 1386.25
500.5 1406.25
501.5 1274.25
502.5 1467.88
503.5 1391.62
504.5 1540.62
505.5 1653.62
506.5 1838.88
507.5 3081.12
508.5 4851
509.5 8669.75
510.5 12718.6
511.5 12334.8
512.5 8053.12
513.5 3995.88
514.5 1887.25
515.5 1362.75
516.5 1493.25
517.5 1592.38
518.5 1432.12
519.5 1662
520.5 1576.62
521.5 1566.12
522.5 1511
523.5 1451.5
524.5 1450.88
525.5 1310.75
526.5 1391.62
527.5 1335.12
528.5 1389.88
529.5 1324.5
530.5 1138.75
531.5 1328.88
532.5 1221.38
533.5 1264.12
534.5 1159.5
535.5 1052.75
536.5 1173.88
537.5 1080.75
538.5 1150
539.5 1108
540.5 1230.38
541.5 1043.62
542.5 1194
543.5 1215.12
544.5 1176.25
545.5 1041.62
546.5 1034
547.5 841
548.5 890.125
549.5 763.375
550.5 961.875
551.5 1130.5
552.5 1047.12
553.5 1125.88
554.5 1063.88
555.5 1099
556.5 1191
557.5 1267
558.5 1173.5
559.5 1141
560.5 1249.75
561.5 1150.38
562.5 1207.75
563.5 1168.25
564.5 1267
565.5 1248.75
566.5 1097.25
567.5 1104.12
568.5 1215.12
569.5 1061
570.5 1205.25
571.5 1106.62
572.5 1057
573.5 1029.75
574.5 1102.38
575.5 1185
576.5 1112.62
577.5 1095.5
578.5 1113.88
579.5 963.875
580.5 1140.38
581.5 1014.5
582.5 1422.88
583.5 1681.25
584.5 1290.5
585.5 1153.75
586.5 1191.75
587.5 1091.62
588.5 1125.62
589.5 1075.12
590.5 1108.75
591.5 980.25
592.5 1076
593.5 1119.25
594.5 1102.75
595.5 1123.5
596.5 1051.12
597.5 1067
598.5 1008.25
599.5 1089.75
600.5 1084.38
601.5 1138.5
602.5 1010.5
603.5 1096.88
604.5 1143
605.5 1076
606.5 1126.12
607.5 1133.25
608.5 1167.62
609.5 1119.75
610.5 1065.12
611.5 1116.38
612.5 1198.88
613.5 1047.38
614.5 1077.88
615.5 1062.12
616.5 1113.88
617.5 1074.12
618.5 1007.62
619.5 1084.88
620.5 998
621.5 1069.12
622.5 1009.5
623.5 1186.25
624.5 1091.12
625.5 1114.5
626.5 1077.75
627.5 1048.75
628.5 1191
629.5 1009.38
630.5 1018.38
631.5 1079.12
632.5 1082.38
633.5 1076.38
634.5 1149
635.5 976
636.5 1120
637.5 1016.88
638.5 998.75
639.5 998
640.5 1029.38
641.5 1154
642.5 1186.62
643.5 1256.62
644.5 1227
645.5 1331.38
646.5 1328.62
647.5 1208.5
648.5 1250.88
649.5 1158.38
650.5 1191.12
651.5 1356.75
652.5 2506
653.5 3644.25
654.5 2850.5
655.5 1365.25
656.5 1073.62
657.5 1112.5
658.5 1102.25
659.5 1056.88
660.5 1117.75
661.5 1121.88
662.5 1032.12
663.5 1099.5
664.5 1244.5
665.5 1314
666.5 1111.62
667.5 1117.5
668.5 1191
669.5 977.375
670.5 992.125
671.5 1021
672.5 880.875
673.5 1005.38
674.5 910.625
675.5 944.125
676.5 1142.38
677.5 1120.62
678.5 1149.12
679.5 945.25
680.5 1026.75
681.5 1075.38
682.5 974.875
683.5 1059.5
684.5 1054.75
685.5 971.75
686.5 946.625
687.5 1004.75
688.5 1088.25
689.5 1119.5
690.5 1012.75
691.5 1010.88
692.5 1089.5
693.5 1078.62
694.5 1068.25
695.5 1023.12
696.5 1140.25
697.5 1090.38
698.5 1114.38
699.5 1016.62
700.5 1087.62
701.5 943.25
702.5 1074.75
703.5 1172
704.5 996.5
705.5 1106
706.5 900.375
707.5 1028.12
708.5 1208.88
709.5 913.75
710.5 1040.62
711.5 1094
712.5 1087.12
713.5 1027.88
714.5 1111.38
715.5 1093.12
716.5 1134.5
717.5 1087.88
718.5 944.125
719.5 1094.62
720.5 1050.62
721.5 974
722.5 1092
723.5 1099.75
724.5 1001.88
725.5 1097.75
726.5 1114.12
727.5 1217
728.5 1107.25
729.5 1117.5
730.5 1177
731.5 1058.62
732.5 1073.88
733.5 1129.12
734.5 1044.88
735.5 910.25
736.5 1045.62
737.5 858.75
738.5 1037.62
739.5 1121
740.5 1039
741.5 1096.75
742.5 1188.12
743.5 1321.12
744.5 1218.5
745.5 1266.5
746.5 1176.88
747.5 1285.12
748.5 1195.25
749.5 1190.5
750.5 1150.38
751.5 1160.25
752.5 1058.25
753.5 1131.38
754.5 1083.62
755.5 1043.62
756.5 1160.88
757.5 1034
758.5 990
759.5 1129
760.5 1060
761.5 1139.75
762.5 1216.88
763.5 1051
764.5 1032.25
765.5 1059.38
766.5 933.75
767.5 1067.5
768.5 885
769.5 967.5
770.5 1069.75
771.5 878.5
772.5 814.625
773.5 816.25
774.5 968.375
775.5 837.625
776.5 900.25
777.5 963.875
778.5 986.125
779.5 987.25
780.5 1094.88
781.5 1137.5
782.5 944.375
783.5 1005.25
784.5 1120.5
785.5 1117.25
786.5 1078.12
787.5 1024.38
788.5 1115.12
789.5 1051.12
790.5 1057.25
791.5 941.125
792.5 1043
793.5 997.875
794.5 1007.25
795.5 999.375
796.5 1136.62
797.5 1161.88
798.5 1153.12
799.5 1116.88
800.5 1120.75
801.5 1153.38
802.5 1226.5
803.5 1090
804.5 1057.88
805.5 1122.62
806.5 1185.62
807.5 1128.75
808.5 1073.88
809.5 1119.25
810.5 1057.62
811.5 1070.5
812.5 1063.12
813.5 1097.88
814.5 986.625
815.5 1059.88
816.5 1033.25
817.5 1092
818.5 1063.25
819.5 1070.62
820.5 1065.75
821.5 1052.38
822.5 1048.5
823.5 1019.25
824.5 1084.12
825.5 1121.5
826.5 1122.75
827.5 1072.62
828.5 1011
829.5 1232.75
830.5 1026.75
831.5 1051.88
832.5 1081
833.5 1194.5
834.5 1113.75
835.5 1186.25
836.5 1286.25
837.5 1353.88
838.5 1284.25
839.5 1209.5
840.5 1193.12
841.5 1168.75
842.5 1144.5
843.5 1269.5
844.5 1218.88
845.5 1159
846.5 1237.12
847.5 1297.25
848.5 1127.5
849.5 1337.5
850.5 1244.88
851.5 1378.5
852.5 1318.38
853.5 1318.5
854.5 1242.12
855.5 1122.62
856.5 1224.88
857.5 1192.38
858.5 1336.5
859.5 1173.88
860.5 1249.25
861.5 995.375
862.5 1234.12
863.5 1131.5
864.5 1072
865.5 1225.38
866.5 1196.88
867.5 1242.12
868.5 1334.38
869.5 1059.75
870.5 1248.75
871.5 1116.75
872.5 1183.38
873.5 1172
874.5 1308.38
875.5 1230.62
876.5 1275.5
877.5 1318.5
878.5 1156.88
879.5 1319.62
880.5 1271
881.5 1238.75
882.5 1270.62
883.5 1167.38
884.5 1279.12
885.5 1179.5
886.5 1335.62
887.5 1283.88
888.5 1225.88
889.5 1285
890.5 1367
891.5 1288.25
892.5 1235
893.5 1288.25
894.5 1439.12
895.5 1267.75
896.5 1281
897.5 1273
898.5 1319.25
899.5 1286.25
900.5 1235.25
901.5 1254
902.5 1413
903.5 1401.38
904.5 1359.38
905.5 1450.12
906.5 1433.38
907.5 1452.75
908.5 1448
909.5 1383.38
910.5 1483.25
911.5 1373.62
912.5 1536.25
913.5 1439.12
914.5 1423.62
915.5 1577.62
916.5 1497.62
917.5 1477.62
918.5 1568.88
919.5 1569.38
920.5 1652.62
921.5 1558.38
922.5 1462.38
923.5 1635.25
924.5 1573.75
925.5 1591.38
926.5 1787.88
927.5 1541
928.5 1523
929.5 1558
930.5 1710.62
931.5 1739.75
932.5 1725.88
933.5 1720.12
934.5 1664.25
935.5 1778.75
936.5 1764.88
937.5 1811.25
938.5 1719
939.5 1824.12
940.5 1919.25
941.5 1760.88
942.5 1766.38
943.5 1771.62
944.5 1776.12
945.5 1546.25
946.5 1669.5
947.5 1574.25
948.5 1538
949.5 1353.75
950.5 1502.88
951.5 1507.75
952.5 1270.25
953.5 1291.25
954.5 1263.25
955.5 1238.5
956.5 1314.12
957.5 1238.62
958.5 1182.38
959.5 1259.5
960.5 1208.75
961.5 1256.38
962.5 1159.5
963.5 1350.62
964.5 1383.12
965.5 1566.5
966.5 1925.75
967.5 1777.12
968.5 1355.25
969.5 1189.75
970.5 1052.25
971.5 1092.12
972.5 1050.5
973.5 1065.12
974.5 1068.75
975.5 1120.12
976.5 1109.25
977.5 1198.75
978.5 1213.75
979.5 1213.38
980.5 1014.38
981.5 1161.12
982.5 1207.5
983.5 1026.38
984.5 990.125
985.5 1075.62
986.5 1155.75
987.5 1074.12
988.5 1136.25
989.5 1066.25
990.5 996.75
991.5 1042.12
992.5 1068
993.5 1059.88
994.5 1027
995.5 1057.75
996.5 1034.5
997.5 1125
998.5 869.625
999.5 1094.75
1000.5 1110.25
1001.5 1082.88
1002.5 1003.25
1003.5 1166.75
1004.5 967
1005.5 997.25
1006.5 927.375
1007.5 944
1008.5 1001.62
1009.5 890
1010.5 964.875
1011.5 978.25
1012.5 962.875
1013.5 969.25
1014.5 951
1015.5 937.625
1016.5 844.25
1017.5 894.375
1018.5 1007.88
1019.5 957.875
1020.5 886.875
1021.5 865.375
1022.5 969.375
1023.5 1116.88
1024.5 1022.88
1025.5 937.75
1026.5 1030.88
1027.5 822.625
1028.5 862.5
1029.5 958.375
1030.5 806.875
1031.5 727
1032.5 822.5
1033.5 880.875
1034.5 852.5
1035.5 843.25
1036.5 793
1037.5 743.125
1038.5 826.5
1039.5 835.25
1040.5 775.75
1041.5 761.25
1042.5 866.125
1043.5 806.625
1044.5 763.25
1045.5 789.125
1046.5 780.125
1047.5 641.375
1048.5 778.375
1049.5 623.5
1050.5 670.25
1051.5 578.375
1052.5 732.875
1053.5 746
1054.5 659.25
1055.5 818
1056.5 826.5
1057.5 758.125
1058.5 745.125
1059.5 754.875
1060.5 692.375
1061.5 712.625
1062.5 654.25
1063.5 662.75
1064.5 636
1065.5 670.125
1066.5 684.125
1067.5 668.5
1068.5 777.5
1069.5 603.625
1070.5 661.875
1071.5 700.5
1072.5 744.5
1073.5 631.875
1074.5 485.125
1075.5 625.5
1076.5 613.25
1077.5 574.25
1078.5 648.375
1079.5 664.375
1080.5 653.625
1081.5 609.75
1082.5 607.875
1083.5 557
1084.5 590
1085.5 710
1086.5 644.5
1087.5 624.75
1088.5 629.125
1089.5 623.625
1090.5 696.875
1091.5 541.375
1092.5 552.125
1093.5 550.125
1094.5 628.5
1095.5 614.625
1096.5 648.875
1097.5 637.625
1098.5 710.625
1099.5 560.375
1100.5 599
1101.5 647.75
1102.5 686.75
1103.5 666.375
1104.5 584.375
1105.5 609
1106.5 647.5
1107.5 679.5
1108.5 657
1109.5 638.75
1110.5 606.25
1111.5 658.25
1112.5 694
1113.5 686.875
1114.5 648.875
1115.5 678.375
1116.5 606.125
1117.5 556.375
1118.5 589.25
1119.5 766.75
1120.5 695.375
1121.5 576
1122.5 613.375
1123.5 683.25
1124.5 697.375
1125.5 301.5
1126.5 388.75
1127.5 509.875
1128.5 761.25
1129.5 613.375
1130.5 616.5
1131.5 570.25
1132.5 658.375
1133.5 664.75
1134.5 635.125
1135.5 725.75
1136.5 716.75
1137.5 765.125
1138.5 751.75
1139.5 663.375
1140.5 699
1141.5 715.875
1142.5 715.625
1143.5 601
1144.5 647.125
1145.5 626.5
1146.5 632.75
1147.5 749.125
1148.5 698.625
1149.5 615
1150.5 804.25
1151.5 872.25
1152.5 1118.5
1153.5 3249.25
1154.5 12946.6
1155.5 45527.2
1156.5 99591.9
1157.5 101312
1158.5 42437.2
1159.5 9177.38
1160.5 1923
1161.5 757.875
1162.5 537.875
1163.5 471
1164.5 528.75
1165.5 422.75
1166.5 479.875
1167.5 438.875
1168.5 360.125
1169.5 434.875
1170.5 368.5
1171.5 382
1172.5 319.625
1173.5 358.875
1174.5 409.25
1175.5 436.125
1176.5 411.375
1177.5 383.125
1178.5 333.625
1179.5 357.625
1180.5 347
1181.5 395.125
1182.5 530.875
1183.5 398.5
1184.5 461.625
1185.5 356.875
1186.5 401.125
1187.5 492.5
1188.5 417.625
1189.5 400.75
1190.5 440
1191.5 448.625
1192.5 343.125
1193.5 389.625
1194.5 449.875
1195.5 415.25
1196.5 384.375
1197.5 403.75
1198.5 384.625
1199.5 398.375
1200.5 356
1201.5 287.75
1202.5 346
1203.5 353
1204.5 473.75
1205.5 549.875
1206.5 830.125
1207.5 934.5
1208.5 560.75
1209.5 462.375
1210.5 396.25
1211.5 411.875
1212.5 345.875
1213.5 492.875
1214.5 603.625
1215.5 522
1216.5 459.75
1217.5 373.375
1218.5 439.25
1219.5 382.125
1220.5 309.75
1221.5 385.875
1222.5 326.375
1223.5 516
1224.5 591.375
1225.5 1237.75
1226.5 2037.5
1227.5 2071.38
1228.5 1045.5
1229.5 575.5
1230.5 447.125
1231.5 436.5
1232.5 411.875
1233.5 384.875
1234.5 364.75
1235.5 492.5
1236.5 363.25
1237.5 377.5
1238.5 317.5
1239.5 398.25
1240.5 318.875
1241.5 341.375
1242.5 389.375
1243.5 338.625
1244.5 357.875
1245.5 362.25
1246.5 410.75
1247.5 360.375
1248.5 415.875
1249.5 293.375
1250.5 322.375
1251.5 292.125
1252.5 366.375
1253.5 377.625
1254.5 364.125
1255.5 348.5
1256.5 382.75
1257.5 333
1258.5 412.875
1259.5 438.25
1260.5 372.5
1261.5 442.75
1262.5 330
1263.5 411.75
1264.5 387.75
1265.5 399.375
1266.5 379.875
1267.5 366.75
1268.5 367.375
1269.5 388
1270.5 310.5
1271.5 369.875
1272.5 366.625
1273.5 323.625
1274.5 423.75
1275.5 319.5
1276.5 383.25
1277.5 358.25
1278.5 364
1279.5 348.75
1280.5 398.5
1281.5 420.25
1282.5 302.75
1283.5 357.125
1284.5 384.125
1285.5 363.375
1286.5 394.25
1287.5 332.125
1288.5 349
1289.5 363.875
1290.5 331.625
1291.5 422.5
1292.5 367
1293.5 392
1294.5 338
1295.5 387
1296.5 340.125
1297.5 414.625
1298.5 381.75
1299.5 337.375
1300.5 355
1301.5 401.75
1302.5 341.5
1303.5 410.375
1304.5 342.625
1305.5 338.5
1306.5 416.375
1307.5 404.5
1308.5 370.875
1309.5 354.875
1310.5 364.25
1311.5 382.625
1312.5 387
1313.5 370.5
1314.5 379.375
1315.5 389.25
1316.5 398.375
1317.5 362.875
1318.5 371.75
1319.5 374
1320.5 389.125
1321.5 299.625
1322.5 385.5
1323.5 363.375
1324.5 363.375
1325.5 402.25
1326.5 451.75
1327.5 395.25
1328.5 422.125
1329.5 486.5
1330.5 430.875
1331.5 407
1332.5 406
1333.5 344.875
1334.5 386.625
1335.5 407.25
1336.5 403.875
1337.5 423.625
1338.5 396.25
1339.5 392.25
1340.5 427.125
1341.5 408
1342.5 392.625
1343.5 383.5
1344.5 443
1345.5 381.875
1346.5 439.375
1347.5 449.75
1348.5 430.5
1349.5 421.25
1350.5 406.25
1351.5 373
1352.5 409.25
1353.5 476.5
1354.5 376.375
1355.5 446.125
1356.5 417.75
1357.5 347.875
1358.5 435
1359.5 490
1360.5 610.25
1361.5 608
1362.5 643.5
1363.5 512.25
1364.5 431
1365.5 346.625
1366.5 359.875
1367.5 395.75
1368.5 361.5
1369.5 409.5
1370.5 415.5
1371.5 381.25
1372.5 402.5
1373.5 456.5
1374.5 454.125
1375.5 469.125
1376.5 466.75
1377.5 442.875
1378.5 350.25
1379.5 448
1380.5 450
1381.5 489.5
1382.5 402.125
1383.5 402.5
1384.5 457.625
1385.5 490.5
1386.5 498.375
1387.5 523.25
1388.5 491.25
1389.5 421.375
1390.5 419.25
1391.5 576.875
1392.5 443.625
1393.5 472.875
1394.5 424.625
1395.5 400.125
1396.5 425.75
1397.5 399.25
1398.5 440
1399.5 448.125
1400.5 385.125
1401.5 383.5
1402.5 376.25
1403.5 399.25
1404.5 473.25
1405.5 352.875
1406.5 469.5
1407.5 453.25
1408.5 426.375
1409.5 465.5
1410.5 381
1411.5 432.75
1412.5 449.75
1413.5 470.625
1414.5 422.875
1415.5 438.375
1416.5 448
1417.5 461.375
1418.5 501.125
1419.5 456.25
1420.5 489.125
1421.5 463.875
1422.5 434.25
1423.5 437.625
1424.5 392.125
1425.5 445.5
1426.5 375.75
1427.5 384.25
1428.5 529.875
1429.5 320.5
1430.5 440.25
1431.5 394.75
1432.5 433.625
1433.5 328.75
1434.5 387.5
1435.5 350.75
1436.5 379.25
1437.5 422.625
1438.5 442.375
1439.5 423.25
1440.5 532.5
1441.5 708.125
1442.5 842
1443.5 834.125
1444.5 504.25
1445.5 391.125
1446.5 321.625
1447.5 337.25
1448.5 392.5
1449.5 388.375
1450.5 390.75
1451.5 400.625
1452.5 409.625
1453.5 401.75
1454.5 385
1455.5 374.875
1456.5 465
1457.5 425.5
1458.5 396.625
1459.5 419.125
1460.5 377.625
1461.5 394.625
1462.5 405.5
1463.5 387.625
1464.5 388.5
1465.5 406.75
1466.5 386.75
1467.5 441.875
1468.5 373.25
1469.5 439.375
1470.5 334
1471.5 335.75
1472.5 394.375
1473.5 373.5
1474.5 360.625
1475.5 363.625
1476.5 350.125
1477.5 353.5
1478.5 366.5
1479.5 341.875
1480.5 436
1481.5 411.375
1482.5 419.5
1483.5 391.375
1484.5 324.375
1485.5 278.875
1486.5 411.75
1487.5 366.875
1488.5 417.875
1489.5 414.5
1490.5 411.375
1491.5 477.375
1492.5 426.625
1493.5 409.75
1494.5 343.625
1495.5 374.625
1496.5 322.375
1497.5 278.625
1498.5 236.875
1499.5 84.375
1500.5 153.75
1501.5 307.875
1502.5 312.375
1503.5 342.5
1504.5 382.125
1505.5 382.5
1506.5 439.875
1507.5 442.125
1508.5 434.75
1509.5 407.875
1510.5 391.125
1511.5 459.5
1512.5 413
1513.5 399.75
1514.5 397.625
1515.5 434.5
1516.5 475.5
1517.5 589.125
1518.5 567.625
1519.5 448
1520.5 441.25
1521.5 409.25
1522.5 413.625
1523.5 418.125
1524.5 497.25
1525.5 406.125
1526.5 432.375
1527.5 406
1528.5 374
1529.5 361.625
1530.5 358
1531.5 389.75
1532.5 415.125
1533.5 359.75
1534.5 370
1535.5 462.75
1536.5 347.125
1537.5 437.625
1538.5 432
1539.5 373.75
1540.5 431.25
1541.5 443.75
1542.5 559.125
1543.5 593.375
1544.5 806.125
1545.5 755.25
1546.5 572.25
1547.5 526.375
1548.5 612.875
1549.5 484.25
1550.5 379.5
1551.5 275.375
1552.5 395.125
1553.5 434.625
1554.5 402.25
1555.5 403.625
1556.5 376.25
1557.5 356.5
1558.5 354.125
1559.5 388.625
1560.5 379.375
1561.5 358.5
1562.5 417.375
1563.5 398.125
1564.5 386.875
1565.5 338
1566.5 322.625
1567.5 356.25
1568.5 427
1569.5 328
1570.5 356.25
1571.5 403.875
1572.5 464.75
1573.5 385.75
1574.5 408.125
1575.5 428.625
1576.5 381.625
1577.5 344.5
1578.5 434.25
1579.5 436
1580.5 371.375
1581.5 409.625
1582.5 426.25
1583.5 410.625
1584.5 404.25
1585.5 348.875
1586.5 411.75
1587.5 423.25
1588.5 398.625
1589.5 435.75
1590.5 468.75
1591.5 334.25
1592.5 468.125
1593.5 473.875
1594.5 384.75
1595.5 428.625
1596.5 429
1597.5 433.625
1598.5 379.75
1599.5 430.625
1600.5 403.25
1601.5 396.25
1602.5 430.75
1603.5 487.5
1604.5 461
1605.5 365.375
1606.5 452.25
1607.5 352.625
1608.5 332.875
1609.5 402
1610.5 430.75
1611.5 355.5
1612.5 412.125
1613.5 432.5
1614.5 452.625
1615.5 426.75
1616.5 389.5
1617.5 410.875
1618.5 404.5
1619.5 617.625
1620.5 667.375
1621.5 706.25
1622.5 634
1623.5 500
1624.5 454.625
1625.5 456
1626.5 438
1627.5 485.375
1628.5 495.875
1629.5 442
1630.5 441.375
1631.5 463.375
1632.5 564.375
1633.5 643.75
1634.5 589.875
1635.5 468
1636.5 461
1637.5 504.75
1638.5 431.625
1639.5 431.75
1640.5 412.5
1641.5 483.25
1642.5 433.875
1643.5 516.25
1644.5 687.875
1645.5 1544.25
1646.5 4152
1647.5 8590.62
1648.5 10311.5
1649.5 6198.12
1650.5 2130
1651.5 760.5
1652.5 481.75
1653.5 311.25
1654.5 275.75
1655.5 319.875
1656.5 379.25
1657.5 250.875
1658.5 282.875
1659.5 349.375
1660.5 379.375
1661.5 360.5
1662.5 333.125
1663.5 332.75
1664.5 388.375
1665.5 383.75
1666.5 387.75
1667.5 433.25
1668.5 517.5
1669.5 491.125
1670.5 408.75
1671.5 351.625
1672.5 349.375
1673.5 371.375
1674.5 349.25
1675.5 281.375
1676.5 262.75
1677.5 303.75
1678.5 354.375
1679.5 361.75
1680.5 362.375
1681.5 318.875
1682.5 367.5
1683.5 316
1684.5 344
1685.5 280.625
1686.5 343.75
1687.5 323.375
1688.5 309.25
1689.5 382.5
1690.5 316
1691.5 329.125
1692.5 344.5
1693.5 320.875
1694.5 297.875
1695.5 355
1696.5 324.875
1697.5 367.125
1698.5 267.25
1699.5 283.125
1700.5 271.875
1701.5 303.125
1702.5 306.625
1703.5 333.375
1704.5 304.625
1705.5 260.125
1706.5 321.625
1707.5 301.125
1708.5 287
1709.5 324.125
1710.5 311.75
1711.5 263.25
1712.5 254.75
1713.5 358.875
1714.5 294.375
1715.5 271.875
1716.5 348.875
1717.5 335.375
1718.5 308.75
1719.5 318
1720.5 316
1721.5 362.75
1722.5 389.875
1723.5 297
1724.5 319.25
1725.5 372.25
1726.5 408.625
1727.5 409.25
1728.5 459.5
1729.5 354.75
1730.5 297.5
1731.5 281.875
1732.5 281.875
1733.5 221.5
1734.5 247.875
1735.5 340
1736.5 371.125
1737.5 312.25
1738.5 252.25
1739.5 263.125
1740.5 244.125
1741.5 301.125
1742.5 327.5
1743.5 353.75
1744.5 240.375
1745.5 243
1746.5 261.875
1747.5 219.5
1748.5 279
1749.5 282.75
1750.5 281.5
1751.5 211.125
1752.5 287.5
1753.5 309.5
1754.5 274.875
1755.5 328.75
1756.5 244.375
1757.5 294.875
1758.5 259.125
1759.5 238.625
1760.5 361.625
1761.5 209.75
1762.5 288.25
1763.5 265.5
1764.5 260.5
1765.5 311.5
1766.5 284.75
1767.5 240.125
1768.5 333.625
1769.5 583.75
1770.5 1280.88
1771.5 2645.12
1772.5 3208.12
1773.5 1954.88
1774.5 723.25
1775.5 358.125
1776.5 317.375
1777.5 296.875
1778.5 278.625
1779.5 254.5
1780.5 286.25
1781.5 179.375
1782.5 301.375
1783.5 191.125
1784.5 255.125
1785.5 250
1786.5 257.625
1787.5 254.5
1788.5 238.75
1789.5 280.375
1790.5 297.875
1791.5 211.625
1792.5 296.875
1793.5 243.5
1794.5 221.875
1795.5 228.625
1796.5 202.125
1797.5 190.125
1798.5 181.375
1799.5 290.875
1800.5 178.25
1801.5 199.75
1802.5 217.625
1803.5 241.625
1804.5 191.5
1805.5 190.875
1806.5 288.375
1807.5 228.25
1808.5 143.375
1809.5 226.375
1810.5 224.5
1811.5 223.125
1812.5 173.25
1813.5 233.25
1814.5 274.375
1815.5 229.75
1816.5 205.25
1817.5 253.625
1818.5 263
1819.5 252.75
1820.5 245.875
1821.5 209.875
1822.5 268.25
1823.5 266.125
1824.5 235.125
1825.5 258.125
1826.5 258.25
1827.5 221.75
1828.5 242.875
1829.5 225.5
1830.5 238.5
1831.5 202
1832.5 217.5
1833.5 265.375
1834.5 185.375
1835.5 256.625
1836.5 292
1837.5 263.5
1838.5 266.625
1839.5 305
1840.5 236.375
1841.5 227.125
1842.5 225.375
1843.5 224.125
1844.5 294.625
1845.5 205.25
1846.5 175.625
1847.5 205.125
1848.5 257
1849.5 216.5
1850.5 242
1851.5 190.625
1852.5 287.375
1853.5 189.75
1854.5 155.375
1855.5 246.625
1856.5 212.25
1857.5 204.5
1858.5 315.875
1859.5 305
1860.5 320.375
1861.5 287.75
1862.5 350
1863.5 456.25
1864.5 371.625
1865.5 300.375
1866.5 288.375
1867.5 398.25
1868.5 570.5
1869.5 1777.88
1870.5 4838.62
1871.5 11241.2
1872.5 15851.8
1873.5 11995.2
1874.5 4811.62
1875.5 1396
1876.5 509.625
1877.5 316
1878.5 262.875
1879.5 182.75
1880.5 220.5
1881.5 204.5
1882.5 189.625
1883.5 221.75
1884.5 204.5
1885.5 209.75
1886.5 189.875
1887.5 203.375
1888.5 222.5
1889.5 175.75
1890.5 167.125
1891.5 214.5
1892.5 171.375
1893.5 233.5
1894.5 156.75
1895.5 162.125
1896.5 208.25
1897.5 190.375
1898.5 199.125
1899.5 204.375
1900.5 207.25
1901.5 176.875
1902.5 166.25
1903.5 176
1904.5 212.375
1905.5 196.875
1906.5 197.25
1907.5 194.125
1908.5 205.375
1909.5 208.875
1910.5 209.25
1911.5 237
1912.5 183.625
1913.5 230.125
1914.5 269.125
1915.5 335.375
1916.5 247.375
1917.5 248.5
1918.5 257.375
1919.5 175.625
1920.5 164.5
1921.5 209.875
1922.5 176.375
1923.5 216.125
1924.5 146.125
1925.5 119
1926.5 174.625
1927.5 180.25
1928.5 243
1929.5 443.375
1930.5 640.875
1931.5 594.625
1932.5 446.625
1933.5 230.75
1934.5 222.25
1935.5 204.625
1936.5 203.125
1937.5 172.125
1938.5 238.625
1939.5 244.25
1940.5 254.375
1941.5 239.875
1942.5 248.875
1943.5 239.625
1944.5 193.25
1945.5 152
1946.5 178.125
1947.5 215.25
1948.5 220.75
1949.5 240.75
1950.5 246.5
1951.5 226.75
1952.5 190
1953.5 190.875
1954.5 192.75
1955.5 137.375
1956.5 272.375
1957.5 226.875
1958.5 288.5
1959.5 308.875
1960.5 260.375
1961.5 201.5
1962.5 162.25
1963.5 204.625
1964.5 230.5
1965.5 183.125
1966.5 160.5
1967.5 233
1968.5 190.75
1969.5 158
1970.5 303.25
1971.5 209.875
1972.5 206.875
1973.5 239.375
1974.5 274.75
1975.5 343.875
1976.5 394.125
1977.5 187.25
1978.5 280.25
1979.5 202.5
1980.5 206
1981.5 271.125
1982.5 383.875
1983.5 494.5
1984.5 523.25
1985.5 410.25
1986.5 277.375
1987.5 184.625
1988.5 240.375
1989.5 185.25
1990.5 123.5
1991.5 184.125
1992.5 217
1993.5 253.75
1994.5 185.625
1995.5 263.375
1996.5 253.5
1997.5 319.375
1998.5 283.5
1999.5 225.125
2000.5 140.375
2001.5 211.375
2002.5 188.5
2003.5 204.125
2004.5 201.375
2005.5 266.25
2006.5 241.5
2007.5 156
2008.5 77.625
2009.5 146.25
2010.5 148.125
2011.5 226.125
2012.5 217.5
2013.5 212.75
2014.5 177.75
2015.5 145.125
2016.5 219.375
2017.5 277.25
2018.5 222.375
2019.5 140.25
2020.5 192.125
2021.5 189.125
2022.5 212.25
2023.5 182.625
2024.5 211.75
2025.5 210.375
2026.5 214.25
2027.5 235.375
2028.5 214.25
2029.5 193
2030.5 218.875
2031.5 206
2032.5 167
2033.5 187.375
2034.5 235.75
2035.5 191.625
2036.5 206
2037.5 188.875
2038.5 222.125
2039.5 181.625
2040.5 211.375
2041.5 175.875
2042.5 206.75
2043.5 165.625
2044.5 179.625
2045.5 196.875
2046.5 180.875
2047.5 206.875
2048.5 184.125
2049.5 291.5
2050.5 320
2051.5 299.875
2052.5 250.75
2053.5 243
2054.5 189
2055.5 211.125
2056.5 166.125
2057.5 213.375
2058.5 169
2059.5 214.375
2060.5 133.25
2061.5 175.875
2062.5 207.25
2063.5 153.125
2064.5 205
2065.5 253.25
2066.5 225.25
2067.5 266
2068.5 267.875
2069.5 225.75
2070.5 224.25
2071.5 176.375
2072.5 178.75
2073.5 148
2074.5 162.75
2075.5 163.625
2076.5 192.625
2077.5 170.375
2078.5 144.625
2079.5 172.25
2080.5 183
2081.5 207.875
2082.5 155.75
2083.5 208
2084.5 166.5
2085.5 208.125
2086.5 260
2087.5 307.75
2088.5 245.125
2089.5 322.75
2090.5 165.75
2091.5 180.25
2092.5 161.25
2093.5 144
2094.5 124.375
2095.5 168.75
2096.5 180.375
2097.5 254.625
2098.5 553.5
2099.5 919.375
2100.5 1175.62
2101.5 914.75
2102.5 534
2103.5 271.75
2104.5 228.5
2105.5 185.75
2106.5 207.875
2107.5 186.5
2108.5 173.875
2109.5 171
2110.5 180.5
2111.5 160
2112.5 193.125
2113.5 151.75
2114.5 184.75
2115.5 231
2116.5 223.25
2117.5 219
2118.5 208.625
2119.5 234.25
2120.5 191.875
2121.5 185.125
2122.5 219.375
2123.5 212
2124.5 199.375
2125.5 239.625
2126.5 257.875
2127.5 204.75
2128.5 195.5
2129.5 227.5
2130.5 151.875
2131.5 250.875
2132.5 197.375
2133.5 212.375
2134.5 188
2135.5 214.125
2136.5 153
2137.5 161
2138.5 249.75
2139.5 194.875
2140.5 214
2141.5 187.625
2142.5 289.125
2143.5 312
2144.5 271.125
2145.5 242.625
2146.5 126.25
2147.5 241.125
2148.5 239.5
2149.5 307.375
2150.5 432
2151.5 351.5
2152.5 222.375
2153.5 167.25
2154.5 175.125
2155.5 217
2156.5 160.875
2157.5 206.625
2158.5 168.5
2159.5 182.625
2160.5 219
2161.5 149.375
2162.5 210.625
2163.5 198.125
2164.5 192.875
2165.5 203.375
2166.5 172.125
2167.5 225
2168.5 256.75
2169.5 246.875
2170.5 243.125
2171.5 201.125
2172.5 192.625
2173.5 196
2174.5 181.25
2175.5 200.5
2176.5 153
2177.5 217.625
2178.5 185.25
2179.5 166.875
2180.5 111.375
2181.5 140
2182.5 209.75
2183.5 146.625
2184.5 209.75
2185.5 167.875
2186.5 185.875
2187.5 192.75
2188.5 222
2189.5 274.75
2190.5 426.75
2191.5 373.75
2192.5 325.625
2193.5 251.875
2194.5 182.25
2195.5 236.875
2196.5 159.875
2197.5 163.5
2198.5 217.875
2199.5 196.875
2200.5 127.625
2201.5 143.875
2202.5 209.75
2203.5 149.25
2204.5 169.375
2205.5 173.25
2206.5 204.375
2207.5 180.625
2208.5 164.875
2209.5 206
2210.5 181.25
2211.5 190.5
2212.5 179
2213.5 286.125
2214.5 416.5
2215.5 478.5
2216.5 350.75
2217.5 276.125
2218.5 249.25
2219.5 194.5
2220.5 290.125
2221.5 300.375
2222.5 429.375
2223.5 430.5
2224.5 354.875
2225.5 172.5
2226.5 203.375
2227.5 211.75
2228.5 222
2229.5 235.625
2230.5 247.625
2231.5 194
2232.5 161.625
2233.5 162.125
2234.5 176
2235.5 182.375
2236.5 196.625
2237.5 209.125
2238.5 177
2239.5 218.25
2240.5 215.5
2241.5 196.375
2242.5 238.25
2243.5 195.375
2244.5 180.875
2245.5 137.375
2246.5 213.25
2247.5 298.75
2248.5 292.625
2249.5 313.375
2250.5 222.125
2251.5 209.125
2252.5 172.125
2253.5 226.25
2254.5 197.25
2255.5 196.625
2256.5 176.75
2257.5 204.875
2258.5 201.125
2259.5 178.875
2260.5 212.25
2261.5 196.25
2262.5 169.25
2263.5 237.375
2264.5 190.125
2265.5 211.75
2266.5 189.875
2267.5 158.125
2268.5 227.75
2269.5 186.25
2270.5 214
2271.5 185.375
2272.5 158.5
2273.5 217.75
2274.5 201.25
2275.5 159.75
2276.5 175.875
2277.5 202.375
2278.5 194.625
2279.5 142
2280.5 184.125
2281.5 187.625
2282.5 138.25
2283.5 154.25
2284.5 173.75
2285.5 193.625
2286.5 166.75
2287.5 171.625
2288.5 190.875
2289.5 189.375
2290.5 202.375
2291.5 159.75
2292.5 133.375
2293.5 196.375
2294.5 200.625
2295.5 184.875
2296.5 164.75
2297.5 219.25
2298.5 216.875
2299.5 168
2300.5 244.75
2301.5 246.75
2302.5 155.75
2303.5 210.75
2304.5 205.875
2305.5 133.25
2306.5 187.5
2307.5 190.25
2308.5 142.375
2309.5 152.375
2310.5 221
2311.5 189.5
2312.5 134.5
2313.5 189.875
2314.5 125.625
2315.5 190.875
2316.5 200
2317.5 191.375
2318.5 194.375
2319.5 169.5
2320.5 141.5
2321.5 233.625
2322.5 178.375
2323.5 222.875
2324.5 239
2325.5 204.25
2326.5 193.375
2327.5 184.75
2328.5 172.125
2329.5 117.5
2330.5 171.5
2331.5 174.875
2332.5 213.75
2333.5 237
2334.5 174.875
2335.5 187.625
2336.5 131
2337.5 197.625
2338.5 161.75
2339.5 180.75
2340.5 165.625
2341.5 132
2342.5 158.5
2343.5 136.625
2344.5 159.125
2345.5 232.375
2346.5 194.25
2347.5 195.25
2348.5 208.625
2349.5 184.75
2350.5 213.875
2351.5 171.875
2352.5 179.375
2353.5 196.5
2354.5 186.875
2355.5 214.625
2356.5 285
2357.5 218.875
2358.5 165
2359.5 142.375
2360.5 134.25
2361.5 150.625
2362.5 209.625
2363.5 215.625
2364.5 205
2365.5 122
2366.5 174.875
2367.5 155
2368.5 176.75
2369.5 163.75
2370.5 225.5
2371.5 224.625
2372.5 328
2373.5 558.5
2374.5 1111.62
2375.5 1633.88
2376.5 1532.12
2377.5 905.875
2378.5 427.25
2379.5 243.5
2380.5 181.5
2381.5 228.625
2382.5 223.5
2383.5 204.75
2384.5 199.75
2385.5 202.625
2386.5 163.375
2387.5 141.375
2388.5 145
2389.5 100
2390.5 131
2391.5 130.5
2392.5 142.625
2393.5 176.625
2394.5 147.25
2395.5 123.625
2396.5 153.25
2397.5 137.375
2398.5 144.5
2399.5 186.375
2400.5 157.5
2401.5 172
2402.5 173.875
2403.5 163
2404.5 169.875
2405.5 173.25
2406.5 163.375
2407.5 108.625
2408.5 116.875
2409.5 144
2410.5 179.125
2411.5 132.5
2412.5 150.125
2413.5 81.5
2414.5 170.25
2415.5 330.625
2416.5 390.125
2417.5 421.125
2418.5 343.75
2419.5 261.25
2420.5 168.25
2421.5 159.125
2422.5 116.625
2423.5 150.875
2424.5 163.125
2425.5 218.125
2426.5 146.5
2427.5 120.125
2428.5 190.75
2429.5 185
2430.5 181.375
2431.5 224.625
2432.5 246.875
2433.5 162.375
2434.5 193.25
2435.5 176.125
2436.5 159.625
2437.5 153
2438.5 132.5
2439.5 140.125
2440.5 149.375
2441.5 196.5
2442.5 140.5
2443.5 179
2444.5 148.5
2445.5 167.625
2446.5 111.25
2447.5 98.625
2448.5 188.125
2449.5 158
2450.5 112.625
2451.5 204.75
2452.5 157.25
2453.5 167.25
2454.5 164
2455.5 175.875
2456.5 165.25
2457.5 162.375
2458.5 149.125
2459.5 167.25
2460.5 155.25
2461.5 113.625
2462.5 116.875
2463.5 148.375
2464.5 162
2465.5 164.5
2466.5 212.5
2467.5 195.5
2468.5 243
2469.5 175.625
2470.5 208.375
2471.5 164.5
2472.5 167.125
2473.5 166.25
2474.5 129.25
2475.5 208.125
2476.5 164
2477.5 172.75
2478.5 139.25
2479.5 153.625
2480.5 152
2481.5 143
2482.5 153.875
2483.5 156.875
2484.5 199.125
2485.5 157.5
2486.5 163.125
2487.5 193
2488.5 130.5
2489.5 254.875
2490.5 320.5
2491.5 392.75
2492.5 299.625
2493.5 227.625
2494.5 186.625
2495.5 164.625
2496.5 156
2497.5 151.375
2498.5 144.75
2499.5 139.25
2500.5 165.75
2501.5 138.5
2502.5 174.125
2503.5 166.25
2504.5 168.75
2505.5 216.25
2506.5 384.75
2507.5 677.875
2508.5 986.125
2509.5 1149.12
2510.5 959.5
2511.5 541.625
2512.5 351
2513.5 297.375
2514.5 198.125
2515.5 182.125
2516.5 195.125
2517.5 202.875
2518.5 162.25
2519.5 208.875
2520.5 182.625
2521.5 213.5
2522.5 229.875
2523.5 201.75
2524.5 199.75
2525.5 175.375
2526.5 113.25
2527.5 140.875
2528.5 131.75
2529.5 149
2530.5 145.75
2531.5 168.25
2532.5 182.25
2533.5 171.5
2534.5 166.25
2535.5 169.375
2536.5 158.25
2537.5 153.25
2538.5 186.75
2539.5 154.625
2540.5 142.625
2541.5 119.75
2542.5 145.75
2543.5 126.75
2544.5 170
2545.5 175.75
2546.5 180.375
2547.5 235
2548.5 307.25
2549.5 285.875
2550.5 285
2551.5 240.75
2552.5 192.125
2553.5 111
2554.5 139.375
2555.5 132.25
2556.5 145
2557.5 123.625
2558.5 137.125
2559.5 141.25
2560.5 141
2561.5 138
2562.5 120.625
2563.5 150.625
2564.5 115.5
2565.5 160.75
2566.5 150.5
2567.5 184.125
2568.5 201.625
2569.5 162.375
2570.5 180.25
2571.5 120.875
2572.5 131
2573.5 132.125
2574.5 210
2575.5 286.25
2576.5 401.875
2577.5 464.625
2578.5 447
2579.5 325.5
2580.5 237.375
2581.5 148
2582.5 151.25
2583.5 159.625
2584.5 144.875
2585.5 149
2586.5 143.125
2587.5 125.375
2588.5 92.5
2589.5 140.375
2590.5 161.625
2591.5 137
2592.5 137.375
2593.5 151.625
2594.5 118.375
2595.5 159.375
2596.5 118.875
2597.5 141.5
2598.5 129.875
2599.5 150
2600.5 156
2601.5 166.125
2602.5 115.375
2603.5 68.625
2604.5 -20.375
2605.5 36.375
2606.5 48.25
2607.5 142.375
2608.5 118
2609.5 211.875
2610.5 287.5
2611.5 439.375
2612.5 467.75
2613.5 378
2614.5 204.75
2615.5 177.375
2616.5 175.5
2617.5 126.125
2618.5 197
2619.5 147
2620.5 150.125
2621.5 136.875
2622.5 126.25
2623.5 145.125
2624.5 90.875
2625.5 123.5
2626.5 121
2627.5 99.75
2628.5 115.125
2629.5 112
2630.5 130.875
2631.5 145.25
2632.5 169.75
2633.5 158
2634.5 248.125
2635.5 407
2636.5 504.875
2637.5 661.625
2638.5 471.25
2639.5 303.375
2640.5 159.625
2641.5 115.75
2642.5 136.125
2643.5 161
2644.5 153.375
2645.5 165.75
2646.5 127.625
2647.5 88.75
2648.5 121.125
2649.5 102.625
2650.5 149.625
2651.5 127.75
2652.5 129.375
2653.5 155.25
2654.5 144
2655.5 100.625
2656.5 145.125
2657.5 108.375
2658.5 159.25
2659.5 127.5
2660.5 143.875
2661.5 120.125
2662.5 86
2663.5 107.25
2664.5 135.75
2665.5 157.75
2666.5 111.375
2667.5 100.75
2668.5 182.375
2669.5 131.125
2670.5 174.375
2671.5 160.875
2672.5 165.5
2673.5 151.125
2674.5 163.875
2675.5 159.375
2676.5 177.875
2677.5 169.5
2678.5 266.25
2679.5 399.75
2680.5 587.5
2681.5 1026.25
2682.5 1046.62
2683.5 705.875
2684.5 384.5
2685.5 175.375
2686.5 181.875
2687.5 93.375
2688.5 114.375
2689.5 141.5
2690.5 140.125
2691.5 119.375
2692.5 126.625
2693.5 182.75
2694.5 125.875
2695.5 155.25
2696.5 170.875
2697.5 134.625
2698.5 159.125
2699.5 172.25
2700.5 113.5
2701.5 144.75
2702.5 126.125
2703.5 125.75
2704.5 127.75
2705.5 146.875
2706.5 103.75
2707.5 142.5
2708.5 155.5
2709.5 121.125
2710.5 140.5
2711.5 121.375
2712.5 135.875
2713.5 130.875
2714.5 123.375
2715.5 96.125
2716.5 147.125
2717.5 123.25
2718.5 86.125
2719.5 151
2720.5 165.875
2721.5 149.125
2722.5 143
2723.5 176.25
2724.5 149.25
2725.5 129.375
2726.5 139.125
2727.5 151.5
2728.5 149.5
2729.5 161.5
2730.5 185.75
2731.5 280.75
2732.5 295.125
2733.5 221.875
2734.5 236
2735.5 223.125
2736.5 175.875
2737.5 149.75
2738.5 114
2739.5 119.875
2740.5 154.875
2741.5 97.625
2742.5 129.125
2743.5 124.25
2744.5 165.875
2745.5 162
2746.5 130.75
2747.5 83.125
2748.5 86.125
2749.5 166.75
2750.5 117
2751.5 157.25
2752.5 88.375
2753.5 130.25
2754.5 106.375
2755.5 138.375
2756.5 124.25
2757.5 146.875
2758.5 180.75
2759.5 145
2760.5 121.625
2761.5 131
2762.5 96.375
2763.5 127
2764.5 178.5
2765.5 139.25
2766.5 168.125
2767.5 135
2768.5 181.625
2769.5 155.75
2770.5 104.75
2771.5 112.5
2772.5 142.25
2773.5 162.5
2774.5 134.875
2775.5 190.25
2776.5 156
2777.5 123
2778.5 73.125
2779.5 117.125
2780.5 130.375
2781.5 151.125
2782.5 145
2783.5 171.75
2784.5 126.125
2785.5 164.375
2786.5 199.375
2787.5 319.125
2788.5 426.375
2789.5 489.75
2790.5 391
2791.5 227.75
2792.5 169.125
2793.5 121.125
2794.5 124.625
2795.5 119.5
2796.5 139.375
2797.5 192.25
2798.5 141.25
2799.5 220.5
2800.5 188
2801.5 185.625
2802.5 192
2803.5 163.5
2804.5 170.875
2805.5 183.625
2806.5 132.375
2807.5 116.75
2808.5 93
2809.5 138.875
2810.5 92.75
2811.5 120.375
2812.5 150.875
2813.5 143.125
2814.5 176.75
2815.5 214
2816.5 188.875
2817.5 130.25
2818.5 136.125
2819.5 91.125
2820.5 140.375
2821.5 126.625
2822.5 98.75
2823.5 89
2824.5 104.5
2825.5 106.875
2826.5 122.375
2827.5 105.875
2828.5 111.75
2829.5 161.375
2830.5 182.375
2831.5 196.875
2832.5 180.875
2833.5 89.875
2834.5 132.5
2835.5 148.125
2836.5 119.375
2837.5 139.25
2838.5 153.125
2839.5 169.25
2840.5 131.125
2841.5 193.625
2842.5 107.25
2843.5 155.875
2844.5 155.875
2845.5 136.75
2846.5 191.125
2847.5 217.25
2848.5 174.25
2849.5 147
2850.5 84.75
2851.5 147.375
2852.5 186.625
2853.5 218.375
2854.5 244
2855.5 159.125
2856.5 147.625
2857.5 157.625
2858.5 99.375
2859.5 158.125
2860.5 89.5
2861.5 115.75
2862.5 128.125
2863.5 141.5
2864.5 119.625
2865.5 140.625
2866.5 128.625
2867.5 132.125
2868.5 158.625
2869.5 105
2870.5 133
2871.5 97.25
2872.5 144.75
2873.5 119.5
2874.5 120.875
2875.5 129.75
2876.5 106.375
2877.5 113.5
2878.5 121.125
2879.5 157
2880.5 166.625
2881.5 157.875
2882.5 152
2883.5 136.5
2884.5 143.875
2885.5 122.625
2886.5 148.875
2887.5 149.75
2888.5 202.125
2889.5 166.25
2890.5 178.625
2891.5 192.5
2892.5 169.5
2893.5 142.75
2894.5 174.625
2895.5 128.125
2896.5 145.625
2897.5 97.25
2898.5 176.125
2899.5 156.625
2900.5 97.875
2901.5 115.875
2902.5 85
2903.5 99.25
2904.5 118.875
2905.5 111.375
2906.5 113.5
2907.5 127.25
2908.5 117.875
2909.5 193
2910.5 157.75
2911.5 164.5
2912.5 167.125
2913.5 149.25
2914.5 143.375
2915.5 154.25
2916.5 141.25
2917.5 115.75
2918.5 132.25
2919.5 202.75
2920.5 162
2921.5 173.875
2922.5 196.125
2923.5 173.875
2924.5 116.875
2925.5 117.5
2926.5 132.625
2927.5 158.5
2928.5 113.625
2929.5 130.625
2930.5 132.25
2931.5 89.75
2932.5 105.75
2933.5 146.5
2934.5 165.375
2935.5 130.125
2936.5 174
2937.5 100.75
2938.5 134.875
2939.5 94.625
2940.5 98.125
2941.5 111
2942.5 131.875
2943.5 145.375
2944.5 154.25
2945.5 158.5
2946.5 169.25
2947.5 149.125
2948.5 153.375
2949.5 149.375
2950.5 153.5
2951.5 106.625
2952.5 160.5
2953.5 147.625
2954.5 136.75
2955.5 172.875
2956.5 129.875
2957.5 203.5
2958.5 168.25
2959.5 148.625
2960.5 121.25
2961.5 128.25
2962.5 182.5
2963.5 178
2964.5 211.5
2965.5 211.125
2966.5 180.5
2967.5 182.875
2968.5 164.375
2969.5 108.125
2970.5 122.125
2971.5 121.875
2972.5 135.625
2973.5 108.25
2974.5 115.125
2975.5 112.5
2976.5 112.5
2977.5 130.75
2978.5 83.375
2979.5 113.5
2980.5 126.875
2981.5 117
2982.5 127.75
2983.5 149.125
2984.5 113.5
2985.5 156.125
2986.5 159.75
2987.5 139
2988.5 53.375
2989.5 81.875
2990.5 119.5
2991.5 92.875
2992.5 122
2993.5 136.625
2994.5 130.75
2995.5 149.625
2996.5 115.625
2997.5 103.375
2998.5 152.625
2999.5 95.875
3000.5 96.25
3001.5 57.625
3002.5 95.625
3003.5 65.625
3004.5 123.375
3005.5 131
3006.5 96.75
3007.5 122.875
3008.5 160.75
3009.5 124.625
3010.5 160.875
3011.5 164.125
3012.5 140
3013.5 156.875
3014.5 132.625
3015.5 132.25
3016.5 120
3017.5 114.625
3018.5 137.625
3019.5 108.625
3020.5 149.125
3021.5 182.5
3022.5 211.25
3023.5 258.5
3024.5 315.375
3025.5 359.875
3026.5 290.625
3027.5 210.125
3028.5 165.5
3029.5 133.5
3030.5 147.625
3031.5 129.5
3032.5 125.625
3033.5 148.625
3034.5 159.25
3035.5 140.375
3036.5 130.625
3037.5 88.875
3038.5 96.625
3039.5 111.375
3040.5 103.125
3041.5 85.625
3042.5 150.625
3043.5 117
3044.5 151.125
3045.5 150.125
3046.5 139.375
3047.5 128.5
3048.5 144.125
3049.5 158.125
3050.5 209.125
3051.5 300.125
3052.5 201.875
3053.5 254.5
3054.5 150.875
3055.5 157.375
3056.5 194.25
3057.5 180.125
3058.5 170.125
3059.5 107.375
3060.5 134
3061.5 84.375
3062.5 118.625
3063.5 95.375
3064.5 79.25
3065.5 81
3066.5 50
3067.5 109.125
3068.5 108.625
3069.5 121.25
3070.5 56.875
3071.5 124.375
3072.5 162.875
3073.5 133.375
3074.5 101.625
3075.5 105.125
3076.5 111.875
3077.5 119.25
3078.5 91.875
3079.5 133.125
3080.5 78.375
3081.5 127.625
3082.5 92.625
3083.5 123.875
3084.5 176.75
3085.5 78.625
3086.5 147.875
3087.5 139.375
3088.5 109.125
3089.5 155.125
3090.5 116.5
3091.5 140.5
3092.5 111.375
3093.5 106.375
3094.5 144.25
3095.5 85.125
3096.5 127.625
3097.5 130.75
3098.5 81.5
3099.5 131
3100.5 85.625
3101.5 123.875
3102.5 100.75
3103.5 111.5
3104.5 93.75
3105.5 142.5
3106.5 136.375
3107.5 204
3108.5 161.5
3109.5 219.25
3110.5 126.625
3111.5 149.375
3112.5 132.5
3113.5 141.125
3114.5 126.375
3115.5 129.375
3116.5 96.875
3117.5 141.375
3118.5 92.75
3119.5 123
3120.5 153.125
3121.5 98.125
3122.5 137.125
3123.5 119.875
3124.5 119.125
3125.5 110.875
3126.5 116.75
3127.5 108.25
3128.5 84
3129.5 124.625
3130.5 104
3131.5 103.875
3132.5 99.25
3133.5 82.375
3134.5 113
3135.5 134.25
3136.5 159.5
3137.5 150.625
3138.5 220
3139.5 206.75
3140.5 303.875
3141.5 248.375
3142.5 176.875
3143.5 133.625
3144.5 151.875
3145.5 210.375
3146.5 260.25
3147.5 278.625
3148.5 348
3149.5 311.625
3150.5 270.75
3151.5 177.625
3152.5 111.5
3153.5 161
3154.5 138.875
3155.5 76.25
3156.5 103.5
3157.5 66.875
3158.5 93.625
3159.5 91
3160.5 44.5
3161.5 79
3162.5 87.5
3163.5 101.875
3164.5 135.5
3165.5 100.25
3166.5 117.5
3167.5 94.875
3168.5 110.375
3169.5 148.625
3170.5 107.875
3171.5 173.25
3172.5 141.25
3173.5 185.25
3174.5 258.25
3175.5 267.125
3176.5 207
3177.5 116.25
3178.5 120
3179.5 100.25
3180.5 113.375
3181.5 112.375
3182.5 120.375
3183.5 101.25
3184.5 152.625
3185.5 152.25
3186.5 188.875
3187.5 189.75
3188.5 168.375
3189.5 159.375
3190.5 151.5
3191.5 132.625
3192.5 115
3193.5 139.875
3194.5 147.625
3195.5 93.75
3196.5 154.5
3197.5 126.625
3198.5 116.5
3199.5 77.125
3200.5 42
3201.5 87.125
3202.5 124
3203.5 127.75
3204.5 185.25
3205.5 274.375
3206.5 377.125
3207.5 398.5
3208.5 356.125
3209.5 309.875
3210.5 222.125
3211.5 135.875
3212.5 177.625
3213.5 123.25
3214.5 155.875
3215.5 191.25
3216.5 196.125
3217.5 199
3218.5 162.375
3219.5 129.125
3220.5 146.875
3221.5 188.375
3222.5 146.375
3223.5 158.125
3224.5 102.125
3225.5 113
3226.5 100.5
3227.5 130.125
3228.5 115.25
3229.5 95.25
3230.5 123.125
3231.5 147.125
3232.5 153.125
3233.5 207.375
3234.5 229.625
3235.5 113.75
3236.5 110.5
3237.5 77.125
3238.5 121.5
3239.5 103.5
3240.5 119.25
3241.5 62.875
3242.5 121.5
3243.5 51.375
3244.5 104.5
3245.5 152.625
3246.5 160.5
3247.5 163
3248.5 179.75
3249.5 157.375
3250.5 123
3251.5 144.375
3252.5 119
3253.5 108.25
3254.5 91.75
3255.5 117.375
3256.5 141.875
3257.5 114.125
3258.5 103.75
3259.5 97.125
3260.5 164.875
3261.5 114.5
3262.5 120.125
3263.5 148.25
3264.5 90.75
3265.5 158.5
3266.5 114
3267.5 127.25
3268.5 92
3269.5 80.375
3270.5 104.125
3271.5 112.25
3272.5 77.75
3273.5 131.25
3274.5 121.25
3275.5 89
3276.5 116.625
3277.5 110.125
3278.5 102.75
3279.5 73.75
3280.5 74.875
3281.5 109.125
3282.5 81.5
3283.5 101.75
3284.5 173.375
3285.5 162.375
3286.5 203.25
3287.5 158.5
3288.5 143.125
3289.5 112.75
3290.5 143.75
3291.5 155.625
3292.5 100.25
3293.5 96.25
3294.5 104.125
3295.5 134.875
3296.5 123.875
3297.5 79
3298.5 133.375
3299.5 141.125
3300.5 137.625
3301.5 191.5
3302.5 128
3303.5 122
3304.5 109.125
3305.5 129.25
3306.5 70.25
3307.5 123.625
3308.5 108.25
3309.5 144.875
3310.5 152.875
3311.5 182.875
3312.5 189
3313.5 182.125
3314.5 235
3315.5 242.375
3316.5 211.875
3317.5 186.625
3318.5 150.75
3319.5 121.75
3320.5 142.875
3321.5 61.375
3322.5 114
3323.5 147.75
3324.5 146.875
3325.5 143.75
3326.5 66.5
3327.5 113.625
3328.5 158.75
3329.5 115.375
3330.5 92.125
3331.5 143.125
3332.5 155.625
3333.5 151.75
3334.5 134.375
3335.5 137.625
3336.5 120.75
3337.5 108.125
3338.5 127.75
3339.5 103.25
3340.5 83
3341.5 123.375
3342.5 106.625
3343.5 124.75
3344.5 88.875
3345.5 110.875
3346.5 126.5
3347.5 94.875
3348.5 110.375
3349.5 101.75
3350.5 104.875
3351.5 111
3352.5 111.25
3353.5 214.625
3354.5 249.125
3355.5 204
3356.5 196.625
3357.5 144.25
3358.5 160.75
3359.5 79.125
3360.5 113.5
3361.5 130.5
3362.5 127.375
3363.5 98.25
3364.5 110.375
3365.5 109.625
3366.5 172.5
3367.5 129.5
3368.5 142.625
3369.5 122.75
3370.5 119.5
3371.5 79.375
3372.5 121.5
3373.5 98
3374.5 111.125
3375.5 139.875
3376.5 73.375
3377.5 102.375
3378.5 88.625
3379.5 131.75
3380.5 192.875
3381.5 156.5
3382.5 164.375
3383.5 152.625
3384.5 146.125
3385.5 117.125
3386.5 96.25
3387.5 112.625
3388.5 58.625
3389.5 148.125
3390.5 139.75
3391.5 176.875
3392.5 161.625
3393.5 167
3394.5 150
3395.5 183.625
3396.5 156.5
3397.5 193.625
3398.5 142.75
3399.5 132.25
3400.5 106.5
3401.5 111.75
3402.5 96.375
3403.5 94.125
3404.5 91.125
3405.5 112
3406.5 95.875
3407.5 128.25
3408.5 107
3409.5 151.875
3410.5 138.125
3411.5 113.125
3412.5 111.5
3413.5 123.625
3414.5 84.625
3415.5 94.875
3416.5 104.5
3417.5 75.25
3418.5 87
3419.5 80.125
3420.5 128.125
3421.5 135.125
3422.5 130.5
3423.5 138.75
3424.5 144.25
3425.5 144.625
3426.5 173.625
3427.5 131.75
3428.5 121.125
3429.5 98
3430.5 147.375
3431.5 72.75
3432.5 106.75
3433.5 120.5
3434.5 115.125
3435.5 142.5
3436.5 82.625
3437.5 93.375
3438.5 96.125
3439.5 126.625
3440.5 105.25
3441.5 103.75
3442.5 84
3443.5 117
3444.5 112.75
3445.5 107.25
3446.5 120.5
3447.5 131.625
3448.5 135.125
3449.5 117.875
3450.5 165.125
3451.5 116.625
3452.5 97.75
3453.5 158
3454.5 91.5
3455.5 126.375
3456.5 144.875
3457.5 95.5
3458.5 118.25
3459.5 109.125
3460.5 108.375
3461.5 107.75
3462.5 106.125
3463.5 85.375
3464.5 86.375
3465.5 107.5
3466.5 122.125
3467.5 88.25
3468.5 104
3469.5 136.5
3470.5 112.75
3471.5 120
3472.5 111.375
3473.5 73.25
3474.5 119.875
3475.5 105.25
3476.5 106.875
3477.5 108.25
3478.5 89.625
3479.5 107.875
3480.5 91.875
3481.5 122.875
3482.5 118.75
3483.5 110.75
3484.5 93.875
3485.5 126
3486.5 151.5
3487.5 119.5
3488.5 94.25
3489.5 118
3490.5 180.5
3491.5 153.875
3492.5 142.125
3493.5 180.625
3494.5 148.5
3495.5 201.375
3496.5 231.625
3497.5 168.125
3498.5 211.25
3499.5 125.125
3500.5 128.5
3501.5 95
3502.5 76.5
3503.5 114.375
3504.5 89.5
3505.5 127.625
3506.5 159.25
3507.5 165.25
3508.5 155.125
3509.5 163
3510.5 117
3511.5 162.25
3512.5 192.5
3513.5 176.625
3514.5 182.125
3515.5 216.375
3516.5 179
3517.5 200.375
3518.5 181.25
3519.5 156.125
3520.5 157.875
3521.5 117.375
3522.5 140.25
3523.5 79.75
3524.5 133.5
3525.5 98.625
3526.5 100
3527.5 126.625
3528.5 117.625
3529.5 117.5
3530.5 161.625
3531.5 230.125
3532.5 203.875
3533.5 247.875
3534.5 162.375
3535.5 184.5
3536.5 164.625
3537.5 172.625
3538.5 146.75
3539.5 144.625
3540.5 129
3541.5 125.25
3542.5 132.375
3543.5 102.125
3544.5 133.375
3545.5 137.25
3546.5 124.875
3547.5 106.25
3548.5 77.125
3549.5 99.5
3550.5 66.75
3551.5 108.25
3552.5 75.875
3553.5 97.25
3554.5 104
3555.5 79.625
3556.5 92.875
3557.5 102.375
3558.5 92
3559.5 152.625
3560.5 165
3561.5 179.125
3562.5 246.625
3563.5 357.125
3564.5 293.125
3565.5 233.25
3566.5 156.375
3567.5 117
3568.5 91.75
3569.5 100.5
3570.5 110.625
3571.5 96.5
3572.5 111
3573.5 123.25
3574.5 102.125
3575.5 107.75
3576.5 110.625
3577.5 118.5
3578.5 135.125
3579.5 90.5
3580.5 82
3581.5 7.25
3582.5 76.5
3583.5 49.875
3584.5 59.75
3585.5 -19.625
3586.5 67.75
3587.5 81.5
3588.5 99.25
3589.5 100.125
3590.5 104.125
3591.5 89.875
3592.5 107.25
3593.5 127.875
3594.5 97.875
3595.5 103.875
3596.5 91.375
3597.5 95.125
3598.5 123.625
3599.5 134.25
3600.5 146.875
3601.5 148.75
3602.5 190.375
3603.5 267
3604.5 299.125
3605.5 197.375
3606.5 177.5
3607.5 90
3608.5 145.875
3609.5 112.875
3610.5 106.125
3611.5 101.5
3612.5 148.25
3613.5 114.5
3614.5 82.75
3615.5 107.875
3616.5 82.625
3617.5 119.5
3618.5 111.5
3619.5 218.375
3620.5 182.75
3621.5 202.375
3622.5 213.25
3623.5 221.25
3624.5 159.875
3625.5 137
3626.5 113.875
3627.5 129.125
3628.5 133
3629.5 108.875
3630.5 61.875
3631.5 116.625
3632.5 83.75
3633.5 106.75
3634.5 94.75
3635.5 109.375
3636.5 88.125
3637.5 116
3638.5 103.5
3639.5 84.125
3640.5 121.125
3641.5 121.625
3642.5 121.5
3643.5 75.5
3644.5 65.125
3645.5 103
3646.5 119.75
3647.5 147.25
3648.5 175.75
3649.5 112
3650.5 171.125
3651.5 97.25
3652.5 115.375
3653.5 99.875
3654.5 66.875
3655.5 126.5
3656.5 114.5
3657.5 102.875
3658.5 135
3659.5 101.375
3660.5 119.625
3661.5 89.875
3662.5 68.375
3663.5 99.375
3664.5 100.125
3665.5 104.375
3666.5 102.875
3667.5 52.625
3668.5 56.375
3669.5 78.625
3670.5 63
3671.5 72.75
3672.5 33.75
3673.5 35.375
3674.5 32.375
3675.5 110.25
3676.5 105
3677.5 64
3678.5 74
3679.5 94.125
3680.5 111.125
3681.5 80.375
3682.5 113.75
3683.5 129.625
3684.5 99.625
3685.5 93.375
3686.5 94.625
3687.5 102.25
3688.5 84.625
3689.5 69.75
3690.5 90.625
3691.5 116.375
3692.5 86.875
3693.5 161.25
3694.5 104
3695.5 137.75
3696.5 151.625
3697.5 142.875
3698.5 137
3699.5 146.625
3700.5 128.75
3701.5 110.5
3702.5 163.25
3703.5 118.75
3704.5 104.75
3705.5 108.375
3706.5 78.5
3707.5 71.5
3708.5 138.5
3709.5 105.5
3710.5 98.125
3711.5 86.125
3712.5 119.875
3713.5 123.625
3714.5 164.5
3715.5 174.375
3716.5 128.75
3717.5 118.125
3718.5 127.125
3719.5 127.5
3720.5 146.5
3721.5 108.625
3722.5 98.125
3723.5 135.875
3724.5 123.875
3725.5 134.625
3726.5 102.375
3727.5 104
3728.5 121.5
3729.5 85.125
3730.5 70.125
3731.5 65.625
3732.5 78
3733.5 59
3734.5 82.875
3735.5 84.75
3736.5 111.375
3737.5 102
3738.5 124.625
3739.5 135.875
3740.5 151.625
3741.5 136.625
3742.5 126.625
3743.5 131.875
3744.5 148.125
3745.5 173.125
3746.5 157.25
3747.5 193.125
3748.5 199.625
3749.5 179
3750.5 120.375
3751.5 111.5
3752.5 66
3753.5 99.5
3754.5 80.875
3755.5 93.25
3756.5 88.625
3757.5 89.625
3758.5 114.5
3759.5 94
3760.5 137.125
3761.5 112.625
3762.5 100.875
3763.5 139
3764.5 93.125
3765.5 130.875
3766.5 144.25
3767.5 95.5
3768.5 82.375
3769.5 113.25
3770.5 135.75
3771.5 105.75
3772.5 111.625
3773.5 85.5
3774.5 70.625
3775.5 91
3776.5 99.25
3777.5 88.375
3778.5 112.75
3779.5 120.875
3780.5 107.25
3781.5 76.875
3782.5 95.75
3783.5 82.625
3784.5 93.75
3785.5 85
3786.5 87.75
3787.5 93.625
3788.5 69
3789.5 73.375
3790.5 75.625
3791.5 100
3792.5 127.625
3793.5 122.375
3794.5 152.625
3795.5 104.375
3796.5 102.25
3797.5 143.75
3798.5 162.25
3799.5 152.75
3800.5 131
3801.5 101.75
3802.5 141.125
3803.5 92
3804.5 117.125
3805.5 129.75
3806.5 130.375
3807.5 205.75
3808.5 159.625
3809.5 122.25
3810.5 148.125
3811.5 146
3812.5 151.5
3813.5 147
3814.5 138.375
3815.5 160.25
3816.5 128.625
3817.5 130.75
3818.5 97.375
3819.5 91.125
3820.5 119.875
3821.5 106.125
3822.5 140.375
3823.5 146.5
3824.5 106
3825.5 112.75
3826.5 96.625
3827.5 117.75
3828.5 111.625
3829.5 104.375
3830.5 98.375
3831.5 103.5
3832.5 114.5
3833.5 128.375
3834.5 148
3835.5 115.375
3836.5 146.875
3837.5 118.75
3838.5 124.375
3839.5 99
3840.5 68.875
3841.5 89.625
3842.5 111
3843.5 109.875
3844.5 112.375
3845.5 104.25
3846.5 95.375
3847.5 134.75
3848.5 133.5
3849.5 163.75
3850.5 140.75
3851.5 125.625
3852.5 66.75
3853.5 80.375
3854.5 92.625
3855.5 97.875
3856.5 98.375
3857.5 119
3858.5 115.25
3859.5 134.625
3860.5 136.5
3861.5 133.625
3862.5 107.625
3863.5 108.75
3864.5 136.75
3865.5 187
3866.5 164
3867.5 154.75
3868.5 113.75
3869.5 188.25
3870.5 130.75
3871.5 158.375
3872.5 171.875
3873.5 121.125
3874.5 138.75
3875.5 134.75
3876.5 157.375
3877.5 151
3878.5 78.625
3879.5 112.125
3880.5 124
3881.5 100.75
3882.5 109.5
3883.5 87.75
3884.5 120.375
3885.5 102.625
3886.5 68.375
3887.5 103.875
3888.5 125
3889.5 88.625
3890.5 124.875
3891.5 142.375
3892.5 132.125
3893.5 133.625
3894.5 113.375
3895.5 129.25
3896.5 123.25
3897.5 104.625
3898.5 155.125
3899.5 117.5
3900.5 175.75
3901.5 201.75
3902.5 231.5
3903.5 233.5
3904.5 191
3905.5 171.375
3906.5 191.125
3907.5 145.625
3908.5 166.375
3909.5 147.5
3910.5 119
3911.5 136.875
3912.5 154.75
3913.5 146.875
3914.5 130.875
3915.5 117.5
3916.5 94.25
3917.5 86.75
3918.5 119.25
3919.5 143.625
3920.5 105.25
3921.5 165.125
3922.5 163.75
3923.5 150.875
3924.5 131.125
3925.5 95.25
3926.5 108.625
3927.5 94.375
3928.5 77.25
3929.5 92
3930.5 89.625
3931.5 89.875
3932.5 78.375
3933.5 71.125
3934.5 95.125
3935.5 77
3936.5 97.375
3937.5 70.375
3938.5 112.375
3939.5 96.875
3940.5 84.625
3941.5 86.25
3942.5 113.625
3943.5 113.25
3944.5 114.25
3945.5 150.75
3946.5 184.125
3947.5 165
3948.5 158.125
3949.5 129.625
3950.5 85.875
3951.5 131.75
3952.5 109.25
3953.5 81.875
3954.5 128.875
3955.5 145.125
3956.5 165.125
3957.5 168.125
3958.5 170.625
3959.5 147.125
3960.5 153.875
3961.5 175.625
3962.5 188.125
3963.5 123
3964.5 135.125
3965.5 105.25
3966.5 73.625
3967.5 83.625
3968.5 72.25
3969.5 79.75
3970.5 125.875
3971.5 127.625
3972.5 99
3973.5 138
3974.5 122.375
3975.5 134.5
3976.5 131.125
3977.5 97.625
3978.5 96.75
3979.5 118.25
3980.5 103.75
3981.5 89.25
3982.5 80.875
3983.5 114.625
3984.5 84.125
3985.5 65.75
3986.5 79.75
3987.5 90.625
3988.5 91.5
3989.5 63.875
3990.5 67.5
3991.5 60.625
3992.5 74.25
3993.5 87
3994.5 127.5
3995.5 117.375
3996.5 70.625
3997.5 90.625
3998.5 86.625
3999.5 85.75
4000.5 81.25
4001.5 115.375
4002.5 84.875
4003.5 112.375
4004.5 74.25
4005.5 107.5
4006.5 85.375
4007.5 75.875
4008.5 110.875
4009.5 72.75
4010.5 91.875
4011.5 114
4012.5 102.875
4013.5 99.25
4014.5 89.75
4015.5 125.5
4016.5 93
4017.5 83.5
4018.5 105.75
4019.5 82.375
4020.5 98
4021.5 120.25
4022.5 176
4023.5 197
4024.5 261
4025.5 277.875
4026.5 252.5
4027.5 201
4028.5 139.625
4029.5 145.625
4030.5 176.875
4031.5 153.75
4032.5 128
4033.5 160.625
4034.5 141.75
4035.5 124.75
4036.5 110.625
4037.5 83.5
4038.5 110.875
4039.5 120.125
4040.5 91.5
4041.5 73.875
4042.5 81.5
4043.5 67.875
4044.5 103.5
4045.5 89.875
4046.5 118.625
4047.5 134.375
4048.5 125.25
4049.5 109.625
4050.5 122.625
4051.5 118.875
4052.5 112.125
4053.5 130.625
4054.5 104
4055.5 112.75
4056.5 91.5
4057.5 115.75
4058.5 107
4059.5 125.875
4060.5 110.125
4061.5 76.125
4062.5 108.125
4063.5 122.125
4064.5 99.25
4065.5 104.5
4066.5 94.125
4067.5 108.5
4068.5 129.5
4069.5 92.625
4070.5 117
4071.5 79.25
4072.5 103.25
4073.5 116.25
4074.5 102.5
4075.5 109.875
4076.5 90.625
4077.5 107.25
4078.5 121.625
4079.5 95
4080.5 49.75
4081.5 67.125
4082.5 93.375
4083.5 81.625
4084.5 64.875
4085.5 96.875
4086.5 113
4087.5 106.25
4088.5 117.75
4089.5 140.375
4090.5 118.625
4091.5 132.625
4092.5 83.875
4093.5 71
4094.5 82.125
4095.5 34.25
4096.5 75.5
4097.5 87.625
4098.5 107.125
4099.5 65.5
4100.5 83.5
4101.5 81
4102.5 83.75
4103.5 87
4104.5 98.125
4105.5 109.375
4106.5 112.125
4107.5 82.375
4108.5 67.625
4109.5 116.375
4110.5 89.875
4111.5 115.25
4112.5 140.75
4113.5 108.75
4114.5 148.125
4115.5 110.25
4116.5 119.25
4117.5 110.375
4118.5 92.375
4119.5 104.5
4120.5 120.125
4121.5 78.125
4122.5 116.75
4123.5 125
4124.5 93.375
4125.5 93.875
4126.5 69.375
4127.5 88.5
4128.5 44.625
4129.5 67
4130.5 94
4131.5 58.875
4132.5 103
4133.5 110.125
4134.5 75.25
4135.5 118.875
4136.5 109.375
4137.5 97.875
4138.5 110.625
4139.5 124.5
4140.5 82.25
4141.5 74.875
4142.5 72.625
4143.5 99
4144.5 90.75
4145.5 109.75
4146.5 97.125
4147.5 110.5
4148.5 178.75
4149.5 133.75
4150.5 172
4151.5 145.5
4152.5 120.125
4153.5 107.25
4154.5 80.125
4155.5 77.25
4156.5 87.875
4157.5 43.25
4158.5 89.375
4159.5 64.125
4160.5 74.25
4161.5 91.75
4162.5 94.5
4163.5 107.75
4164.5 132.25
4165.5 96.375
4166.5 151.125
4167.5 164.75
4168.5 244.25
4169.5 246.25
4170.5 162.5
4171.5 114.75
4172.5 119.5
4173.5 105.375
4174.5 107.125
4175.5 117.25
4176.5 75.25
4177.5 73
4178.5 67.125
4179.5 70.875
4180.5 92.5
4181.5 90.5
4182.5 98.125
4183.5 109.875
4184.5 58.5
4185.5 105.25
4186.5 106.625
4187.5 52
4188.5 78.5
4189.5 88.375
4190.5 100.875
4191.5 83.25
4192.5 64.625
4193.5 53.25
4194.5 95
4195.5 87.875
4196.5 45.375
4197.5 63.625
4198.5 60.75
4199.5 123.125
4200.5 94.75
4201.5 94
4202.5 99.625
4203.5 114
4204.5 123.625
4205.5 169.5
4206.5 199.375
4207.5 281.875
4208.5 329
4209.5 358.375
4210.5 257.625
4211.5 214.875
4212.5 142
4213.5 96.625
4214.5 88.125
4215.5 76.875
4216.5 79
4217.5 83.875
4218.5 73.875
4219.5 64.875
4220.5 89.75
4221.5 79.75
4222.5 95.125
4223.5 84.875
4224.5 83
4225.5 80.75
4226.5 55.25
4227.5 97.875
4228.5 109
4229.5 69.125
4230.5 58.875
4231.5 109.5
4232.5 111
4233.5 101.75
4234.5 109.75
4235.5 121.625
4236.5 141.375
4237.5 140.625
4238.5 116.875
4239.5 133.5
4240.5 132.375
4241.5 161.25
4242.5 128.5
4243.5 134.5
4244.5 89.625
4245.5 82.625
4246.5 86.5
4247.5 94.125
4248.5 71.375
4249.5 90.5
4250.5 85
4251.5 95.25
4252.5 90.125
4253.5 102.5
4254.5 133
4255.5 124.375
4256.5 136
4257.5 136.75
4258.5 130.875
4259.5 122.625
4260.5 147.625
4261.5 126.375
4262.5 142.125
4263.5 118.125
4264.5 158
4265.5 116.375
4266.5 108.125
4267.5 95.875
4268.5 85
4269.5 96.625
4270.5 95.875
4271.5 118.25
4272.5 128.625
4273.5 146.25
4274.5 143.5
4275.5 150.625
4276.5 174.5
4277.5 133
4278.5 107.75
4279.5 108
4280.5 138.625
4281.5 110.25
4282.5 97.125
4283.5 85.125
4284.5 105.5
4285.5 85.5
4286.5 79
4287.5 71.875
4288.5 101.25
4289.5 70.625
4290.5 99.25
4291.5 78
4292.5 121.375
4293.5 81.625
4294.5 96.5
4295.5 129.375
4296.5 89.75
4297.5 91.625
4298.5 60.75
4299.5 75.5
4300.5 92.75
4301.5 56
4302.5 99.625
4303.5 87.375
4304.5 52.125
4305.5 83.375
4306.5 95.125
4307.5 79.75
4308.5 76.375
4309.5 96.625
4310.5 107.625
4311.5 101.375
4312.5 80.5
4313.5 72.625
4314.5 98.625
4315.5 98.625
4316.5 119.75
4317.5 103.875
4318.5 98.5
4319.5 128
4320.5 115.375
4321.5 94.75
4322.5 69
4323.5 101.25
4324.5 92.25
4325.5 68.5
4326.5 97.75
4327.5 85.125
4328.5 89.875
4329.5 79.25
4330.5 95.75
4331.5 85.25
4332.5 96.75
4333.5 103.375
4334.5 89.125
4335.5 80.75
4336.5 65.375
4337.5 57.25
4338.5 100.125
4339.5 95.875
4340.5 126.25
4341.5 92.375
4342.5 82.75
4343.5 108.75
4344.5 52.375
4345.5 125.125
4346.5 87.625
4347.5 121
4348.5 114.375
4349.5 119
4350.5 89.5
4351.5 102.25
4352.5 87.375
4353.5 64
4354.5 87.25
4355.5 75.125
4356.5 87.25
4357.5 81.875
4358.5 72.5
4359.5 110.75
4360.5 93.625
4361.5 50.625
4362.5 67.5
4363.5 72.125
4364.5 72.625
4365.5 89.375
4366.5 103.75
4367.5 96.25
4368.5 103.875
4369.5 76.5
4370.5 74.25
4371.5 98.375
4372.5 82.75
4373.5 83.125
4374.5 193.75
4375.5 178.875
4376.5 106.625
4377.5 107.125
4378.5 134.625
4379.5 117.5
4380.5 190.25
4381.5 167.625
4382.5 166.125
4383.5 155.75
4384.5 163.875
4385.5 104.375
4386.5 99.875
4387.5 86.5
4388.5 73.25
4389.5 114.125
4390.5 128.125
4391.5 70.5
4392.5 99.625
4393.5 90.25
4394.5 96.125
4395.5 74.875
4396.5 88
4397.5 84.5
4398.5 101.875
4399.5 72.625
4400.5 107.125
4401.5 83.25
4402.5 103.375
4403.5 84.625
4404.5 122.875
4405.5 124.875
4406.5 101.75
4407.5 133.375
4408.5 144.75
4409.5 131.125
4410.5 140.125
4411.5 90.375
4412.5 101.625
4413.5 98.125
4414.5 106.375
4415.5 122.875
4416.5 97.875
4417.5 116.5
4418.5 155.375
4419.5 136.125
4420.5 122.25
4421.5 75.875
4422.5 100.125
4423.5 103.25
4424.5 90.75
4425.5 91
4426.5 83
4427.5 125
4428.5 95.5
4429.5 101.375
4430.5 84
4431.5 99.375
4432.5 87.25
4433.5 99.875
4434.5 92.5
4435.5 109.5
4436.5 67.75
4437.5 92.125
4438.5 93.5
4439.5 80.5
4440.5 77.375
4441.5 81.125
4442.5 78.625
4443.5 64.75
4444.5 80.625
4445.5 86.625
4446.5 89.625
4447.5 86.375
4448.5 89.5
4449.5 108.125
4450.5 107.125
4451.5 112.75
4452.5 142.25
4453.5 168.75
4454.5 193.375
4455.5 291.625
4456.5 304.375
4457.5 439.125
4458.5 367.75
4459.5 226.625
4460.5 197.875
4461.5 192
4462.5 107.875
4463.5 98.375
4464.5 93.125
4465.5 93.5
4466.5 95
4467.5 103.875
4468.5 104
4469.5 93
4470.5 138.25
4471.5 139.5
4472.5 117.125
4473.5 119.75
4474.5 114.875
4475.5 86.125
4476.5 87.5
4477.5 71.125
4478.5 92.25
4479.5 75.5
4480.5 85.625
4481.5 96.25
4482.5 91
4483.5 127.375
4484.5 105.125
4485.5 116.25
4486.5 127.625
4487.5 109.75
4488.5 78.25
4489.5 73.125
4490.5 101.375
4491.5 111.875
4492.5 71.25
4493.5 83.375
4494.5 72.5
4495.5 82.75
4496.5 82.625
4497.5 92.625
4498.5 77.875
4499.5 78.875
4500.5 62
4501.5 80.25
4502.5 38
4503.5 64.25
4504.5 74.125
4505.5 63.625
4506.5 95.625
4507.5 115.75
4508.5 73.75
4509.5 79.875
4510.5 113.625
4511.5 72.375
4512.5 83
4513.5 96.625
4514.5 81.125
4515.5 116.25
4516.5 62.125
4517.5 73.875
4518.5 92.625
4519.5 95.75
4520.5 76.625
4521.5 94.25
4522.5 109.75
4523.5 127
4524.5 87.875
4525.5 118.625
4526.5 99.875
4527.5 85.5
4528.5 78
4529.5 140.75
4530.5 126.125
4531.5 121.375
4532.5 99.125
4533.5 92.75
4534.5 90.25
4535.5 106.25
4536.5 108.5
4537.5 91.5
4538.5 108.875
4539.5 84.125
4540.5 113.625
4541.5 107.25
4542.5 85.5
4543.5 81.25
4544.5 84.5
4545.5 71.375
4546.5 95.5
4547.5 90.125
4548.5 106.125
4549.5 117.375
4550.5 101.25
4551.5 126.25
4552.5 142.75
4553.5 98.25
4554.5 83.375
4555.5 69.25
4556.5 116.25
4557.5 84.75
4558.5 80.75
4559.5 104.75
4560.5 101.875
4561.5 132.875
4562.5 97.625
4563.5 183.125
4564.5 220.125
4565.5 169.5
4566.5 176.625
4567.5 139.875
4568.5 98
4569.5 85.375
4570.5 87.125
4571.5 73.125
4572.5 87.875
4573.5 81.25
4574.5 80
4575.5 79.125
4576.5 117.5
4577.5 143.5
4578.5 103.375
4579.5 131.625
4580.5 143.625
4581.5 135
4582.5 100.375
4583.5 112.375
4584.5 100.625
4585.5 124.5
4586.5 116.125
4587.5 87.5
4588.5 72
4589.5 94.875
4590.5 86.875
4591.5 81.5
4592.5 83.125
4593.5 78.5
4594.5 98
4595.5 113.25
4596.5 105.625
4597.5 157.75
4598.5 116.25
4599.5 114.5
4600.5 133.125
4601.5 110.875
4602.5 70.625
4603.5 47.125
4604.5 59.25
4605.5 34.625
4606.5 20.5
4607.5 65.125
4608.5 48.375
4609.5 66.75
4610.5 80.75
4611.5 84.875
4612.5 94.875
4613.5 59
4614.5 68.625
4615.5 98.5
4616.5 106.75
4617.5 118.375
4618.5 85
4619.5 108.625
4620.5 113.125
4621.5 199.25
4622.5 234.25
4623.5 240
4624.5 267.625
4625.5 197.125
4626.5 155
4627.5 148.75
4628.5 108.375
4629.5 122.75
4630.5 145.75
4631.5 141.75
4632.5 180.875
4633.5 144.75
4634.5 88.125
4635.5 82.25
4636.5 124.5
4637.5 95
4638.5 79.625
4639.5 76
4640.5 99.875
4641.5 76
4642.5 84.625
4643.5 80.375
4644.5 87.5
4645.5 131.5
4646.5 91.125
4647.5 112.125
4648.5 149.5
4649.5 108.25
4650.5 116.75
4651.5 67.125
4652.5 107.5
4653.5 99.125
4654.5 111.25
4655.5 107.625
4656.5 77.25
4657.5 80.625
4658.5 90.75
4659.5 91.75
4660.5 99.625
4661.5 111
4662.5 107.75
4663.5 81.375
4664.5 92
4665.5 92.125
4666.5 72.75
4667.5 94.125
4668.5 86
4669.5 86.375
4670.5 119.375
4671.5 109.5
4672.5 95.125
4673.5 107.375
4674.5 89.375
4675.5 70.625
4676.5 96.5
4677.5 104.625
4678.5 62.375
4679.5 110.5
4680.5 59.125
4681.5 106.875
4682.5 121.25
4683.5 90.25
4684.5 128.5
4685.5 121.375
4686.5 125.75
4687.5 100.75
4688.5 68.125
4689.5 93.875
4690.5 70.75
4691.5 110
4692.5 72.125
4693.5 85.125
4694.5 101.875
4695.5 80.5
4696.5 96.875
4697.5 75.125
4698.5 97.75
4699.5 115.75
4700.5 70.625
4701.5 86
4702.5 90.625
4703.5 75
4704.5 78.625
4705.5 104
4706.5 101.5
4707.5 105.625
4708.5 97
4709.5 98.75
4710.5 100.25
4711.5 103.875
4712.5 146
4713.5 95.5
4714.5 86.375
4715.5 133
4716.5 127.375
4717.5 111.25
4718.5 103.25
4719.5 151.25
4720.5 103.125
4721.5 117.375
4722.5 92.75
4723.5 107.125
4724.5 82.375
4725.5 77.875
4726.5 60.875
4727.5 44.625
4728.5 93
4729.5 59.875
4730.5 98.375
4731.5 81.375
4732.5 58.75
4733.5 87
4734.5 76.125
4735.5 104.875
4736.5 81.25
4737.5 90.25
4738.5 93.5
4739.5 65.75
4740.5 98.875
4741.5 81.875
4742.5 80.25
4743.5 107.75
4744.5 113.375
4745.5 137.375
4746.5 165
4747.5 180.625
4748.5 215.75
4749.5 147.875
4750.5 188.75
4751.5 177.875
4752.5 222.5
4753.5 156.375
4754.5 133.875
4755.5 138.5
4756.5 104.5
4757.5 114.125
4758.5 91.5
4759.5 104.25
4760.5 102.375
4761.5 93.5
4762.5 96.125
4763.5 103.25
4764.5 86.625
4765.5 91.5
4766.5 105.875
4767.5 87.375
4768.5 106.125
4769.5 113.75
4770.5 114.125
4771.5 67.25
4772.5 100.875
4773.5 120.875
4774.5 90.125
4775.5 101
4776.5 99.5
4777.5 100.625
4778.5 95.25
4779.5 91.625
4780.5 97.625
4781.5 74.375
4782.5 96.25
4783.5 70.875
4784.5 105
4785.5 80.875
4786.5 89
4787.5 101.5
4788.5 96.75
4789.5 93.875
4790.5 78.875
4791.5 96.125
4792.5 54
4793.5 92.875
4794.5 73.125
4795.5 93.375
4796.5 88.875
4797.5 74.625
4798.5 72
4799.5 58.75
4800.5 74
4801.5 109
4802.5 82.375
4803.5 97.625
4804.5 138.625
4805.5 116.375
4806.5 118.875
4807.5 140.125
4808.5 113.625
4809.5 73
4810.5 108.375
4811.5 108.625
4812.5 105.5
4813.5 90
4814.5 114
4815.5 102.375
4816.5 117
4817.5 101.875
4818.5 116.25
4819.5 91.75
4820.5 86.875
4821.5 75.875
4822.5 112
4823.5 82.125
4824.5 88.75
4825.5 87
4826.5 95.375
4827.5 70.375
4828.5 82.5
4829.5 77.875
4830.5 85
4831.5 58.25
4832.5 91.25
4833.5 72.75
4834.5 86.625
4835.5 91
4836.5 114.75
4837.5 89
4838.5 107.125
4839.5 86.75
4840.5 90.875
4841.5 119.125
4842.5 103.25
4843.5 88.625
4844.5 126
4845.5 100.125
4846.5 98.75
4847.5 87
4848.5 90.125
4849.5 82.875
4850.5 108.125
4851.5 102
4852.5 68.125
4853.5 75
4854.5 95.375
4855.5 97.5
4856.5 88.625
4857.5 71.625
4858.5 96.25
4859.5 64.125
4860.5 102.625
4861.5 87.5
4862.5 84.5
4863.5 79.875
4864.5 88.875
4865.5 104.125
4866.5 60.25
4867.5 91
4868.5 79
4869.5 96.375
4870.5 82.25
4871.5 63.75
4872.5 126.25
4873.5 121.875
4874.5 114.75
4875.5 252.875
4876.5 317
4877.5 458.625
4878.5 419.5
4879.5 364.25
4880.5 273.875
4881.5 195.875
4882.5 181.75
4883.5 166.125
4884.5 237.625
4885.5 219.375
4886.5 241.75
4887.5 144.75
4888.5 159.625
4889.5 120.25
4890.5 98
4891.5 62.375
4892.5 107.375
4893.5 123.5
4894.5 64.875
4895.5 99.25
4896.5 79.5
4897.5 61.875
4898.5 94
4899.5 109.125
4900.5 101.25
4901.5 128.875
4902.5 140.75
4903.5 135.75
4904.5 84
4905.5 135.875
4906.5 94.25
4907.5 89.375
4908.5 120.875
4909.5 85.375
4910.5 109.75
4911.5 115.125
4912.5 111.875
4913.5 99.5
4914.5 152.5
4915.5 143
4916.5 161.75
4917.5 200.125
4918.5 265.375
4919.5 291.75
4920.5 230.625
4921.5 226.75
4922.5 134.875
4923.5 127.75
4924.5 112.625
4925.5 102.625
4926.5 121.375
4927.5 125.125
4928.5 94.125
4929.5 96
4930.5 101.5
4931.5 92
4932.5 108.125
4933.5 68
4934.5 100.5
4935.5 94.5
4936.5 84.75
4937.5 82.875
4938.5 114.875
4939.5 103.375
4940.5 109.875
4941.5 86.875
4942.5 109.125
4943.5 128.5
4944.5 96.625
4945.5 98.875
4946.5 119.375
4947.5 86.25
4948.5 110.375
4949.5 100.625
4950.5 97.875
4951.5 89.75
4952.5 57
4953.5 88.75
4954.5 77.25
4955.5 89.625
4956.5 98.75
4957.5 107.375
4958.5 91.125
4959.5 93.25
4960.5 135.5
4961.5 86.75
4962.5 83.5
4963.5 84
4964.5 70.25
4965.5 104.5
4966.5 77.75
4967.5 85.125
4968.5 102.875
4969.5 122.875
4970.5 102.125
4971.5 105.875
4972.5 107.375
4973.5 103.875
4974.5 130.875
4975.5 131.875
4976.5 120.75
4977.5 132.5
4978.5 171.625
4979.5 168.25
4980.5 196.125
4981.5 206.625
4982.5 217.5
4983.5 278.625
4984.5 206.875
4985.5 175.625
4986.5 130
4987.5 116.125
4988.5 99.625
4989.5 91.375
4990.5 79.25
4991.5 101.375
4992.5 110.5
4993.5 114.25
4994.5 90.125
4995.5 91.5
4996.5 103.375
4997.5 71.75
4998.5 67.125
4999.5 84.375
5000.5 101.875
5001.5 82.375
5002.5 107.125
5003.5 102.875
5004.5 101.5
5005.5 105.375
5006.5 121
5007.5 89.375
5008.5 89
5009.5 106.875
5010.5 116.625
5011.5 102
5012.5 104.5
5013.5 110.875
5014.5 134.25
5015.5 106.375
5016.5 98.75
5017.5 115
5018.5 86.375
5019.5 88.5
5020.5 100.25
5021.5 129.25
5022.5 93.375
5023.5 110.375
5024.5 109.625
5025.5 91.375
5026.5 88
5027.5 114.75
5028.5 96
5029.5 123.375
5030.5 61.875
5031.5 91.375
5032.5 105.25
5033.5 121
5034.5 90
5035.5 78.75
5036.5 92.125
5037.5 96.625
5038.5 138.125
5039.5 134.5
5040.5 146.25
5041.5 152.625
5042.5 144.25
5043.5 124.5
5044.5 104.375
5045.5 121.125
5046.5 127.75
5047.5 140.375
5048.5 85.625
5049.5 120.875
5050.5 84.625
5051.5 92.625
5052.5 97.75
5053.5 98
5054.5 70
5055.5 116.25
5056.5 68.5
5057.5 87.75
5058.5 92.625
5059.5 96.125
5060.5 108.25
5061.5 79.75
5062.5 97.5
5063.5 98
5064.5 105
5065.5 74.75
5066.5 113.125
5067.5 94.625
5068.5 82
5069.5 87.875
5070.5 130.625
5071.5 112.5
5072.5 101.625
5073.5 91.25
5074.5 122
5075.5 80.625
5076.5 90.75
5077.5 78.375
5078.5 92.375
5079.5 79.625
5080.5 94.5
5081.5 115.875
5082.5 94.875
5083.5 133
5084.5 127
5085.5 122.875
5086.5 132.5
5087.5 163
5088.5 199.625
5089.5 264
5090.5 310
5091.5 259
5092.5 272.875
5093.5 179.75
5094.5 117.75
5095.5 108.875
5096.5 143.5
5097.5 103.75
5098.5 132
5099.5 147.375
5100.5 143.75
5101.5 214.25
5102.5 262.25
5103.5 279.25
5104.5 251
5105.5 139.375
5106.5 147.625
5107.5 87.875
5108.5 108.25
5109.5 117.5
5110.5 83.625
5111.5 111.5
5112.5 112.875
5113.5 109.25
5114.5 114.875
5115.5 129
5116.5 142.125
5117.5 146.125
5118.5 119.125
5119.5 114.25
5120.5 93.75
5121.5 114.375
5122.5 79.875
5123.5 118.375
5124.5 110
5125.5 107.875
5126.5 101.75
5127.5 91.75
5128.5 104.125
5129.5 106
5130.5 137.625
5131.5 145.125
5132.5 171.625
5133.5 193.875
5134.5 199.25
5135.5 256.5
5136.5 233.375
5137.5 208.25
5138.5 165
5139.5 122.375
5140.5 104.875
5141.5 120.25
5142.5 102.25
5143.5 98.25
5144.5 142.25
5145.5 102.5
5146.5 105.875
5147.5 104
5148.5 106.125
5149.5 122.5
5150.5 115.125
5151.5 100.375
5152.5 126.75
5153.5 129.125
5154.5 97.875
5155.5 121.125
5156.5 124.25
5157.5 131.25
5158.5 173.25
5159.5 206.5
5160.5 155.75
5161.5 207.875
5162.5 185.25
5163.5 165.125
5164.5 144.5
5165.5 130.75
5166.5 89.375
5167.5 95.875
5168.5 117.75
5169.5 100.125
5170.5 110.375
5171.5 111.625
5172.5 119.125
5173.5 113.75
5174.5 84.125
5175.5 101.25
5176.5 104.5
5177.5 123.875
5178.5 135.25
5179.5 121.125
5180.5 120.625
5181.5 95.375
5182.5 118.75
5183.5 100.5
5184.5 95.75
5185.5 109.25
5186.5 97
5187.5 118.75
5188.5 108.25
5189.5 117.125
5190.5 133.5
5191.5 170.125
5192.5 174.75
5193.5 226.25
5194.5 174.5
5195.5 201.5
5196.5 208.625
5197.5 156.875
5198.5 120.625
5199.5 113
5200.5 128.375
5201.5 97.25
5202.5 117.375
5203.5 111.625
5204.5 119.25
5205.5 130.75
5206.5 128.375
5207.5 99.5
5208.5 100
5209.5 116.875
5210.5 116.375
5211.5 93.375
5212.5 97.625
5213.5 114.625
5214.5 102.25
5215.5 137.375
5216.5 131.625
5217.5 106.25
5218.5 86.625
5219.5 132.625
5220.5 159
5221.5 137
5222.5 166.375
5223.5 169.375
5224.5 148.125
5225.5 139.75
5226.5 121.875
5227.5 91.375
5228.5 101.75
5229.5 91.25
5230.5 94.25
5231.5 116.75
5232.5 94.25
5233.5 107
5234.5 125.875
5235.5 119.125
5236.5 80.125
5237.5 98.875
5238.5 109.625
5239.5 81.75
5240.5 100.375
5241.5 83.25
5242.5 110.125
5243.5 70.875
5244.5 82.375
5245.5 76.625
5246.5 84.375
5247.5 124
5248.5 104.25
5249.5 98.25
5250.5 97.75
5251.5 89.875
5252.5 57.25
5253.5 110.875
5254.5 129.5
5255.5 112.5
5256.5 106.5
5257.5 130
5258.5 119.125
5259.5 213.25
5260.5 230.125
5261.5 235.875
5262.5 354.75
5263.5 443.5
5264.5 388
5265.5 331.875
5266.5 237.25
5267.5 188.75
5268.5 105.25
5269.5 125.125
5270.5 141
5271.5 74.125
5272.5 98
5273.5 135
5274.5 107.5
5275.5 118.25
5276.5 129.375
5277.5 99.25
5278.5 108.875
5279.5 117.875
5280.5 127.375
5281.5 120.875
5282.5 145.875
5283.5 102.375
5284.5 126.5
5285.5 84.625
5286.5 89.25
5287.5 113.625
5288.5 91.625
5289.5 92.625
5290.5 78.875
5291.5 95.625
5292.5 112.875
5293.5 113.5
5294.5 94.625
5295.5 87.5
5296.5 90.75
5297.5 74.75
5298.5 106.375
5299.5 90.875
5300.5 82.75
5301.5 101.5
5302.5 87.375
5303.5 98
5304.5 109.5
5305.5 91.375
5306.5 87.75
5307.5 102.375
5308.5 101.125
5309.5 102.25
5310.5 81.25
5311.5 95
5312.5 105.125
5313.5 88.125
5314.5 92
5315.5 98.75
5316.5 96.25
5317.5 112.875
5318.5 98.25
5319.5 99.5
5320.5 93.625
5321.5 106
5322.5 99.625
5323.5 58.375
5324.5 86.625
5325.5 92.75
5326.5 90.5
5327.5 94.75
5328.5 111.5
5329.5 114.75
5330.5 99.375
5331.5 96.125
5332.5 107
5333.5 98.25
5334.5 92.875
5335.5 112.25
5336.5 93.75
5337.5 94.875
5338.5 107.25
5339.5 87.5
5340.5 81.625
5341.5 90.75
5342.5 83.5
5343.5 97.5
5344.5 74.25
5345.5 126.75
5346.5 102.75
5347.5 94.5
5348.5 80.375
5349.5 103.25
5350.5 120.75
5351.5 109.5
5352.5 149.25
5353.5 124.125
5354.5 158.875
5355.5 193.875
5356.5 140.375
5357.5 175.75
5358.5 126
5359.5 103.625
5360.5 76.125
5361.5 69.25
5362.5 120.875
5363.5 92.5
5364.5 80.375
5365.5 111.5
5366.5 108.75
5367.5 78.75
5368.5 110.25
5369.5 95.5
5370.5 93.75
5371.5 117.75
5372.5 95.125
5373.5 107.25
5374.5 88.5
5375.5 117.25
5376.5 107.25
5377.5 97.875
5378.5 120.125
5379.5 113.25
5380.5 127
5381.5 153.125
5382.5 213.125
5383.5 259.625
5384.5 343.125
5385.5 463.25
5386.5 658
5387.5 833.75
5388.5 993.5
5389.5 1078.12
5390.5 942.75
5391.5 736.5
5392.5 455.5
5393.5 373.125
5394.5 336.125
5395.5 365.75
5396.5 458.875
5397.5 510.875
5398.5 453.375
5399.5 347.25
5400.5 227.875
5401.5 153.75
5402.5 148.25
5403.5 119.375
5404.5 103.875
5405.5 99.375
5406.5 100.875
5407.5 77.875
5408.5 101
5409.5 89.75
5410.5 111.625
5411.5 103.125
5412.5 103
5413.5 110
5414.5 110.5
5415.5 81.5
5416.5 116.625
5417.5 78.375
5418.5 110.375
5419.5 64.125
5420.5 105.5
5421.5 84.75
5422.5 95.375
5423.5 94.375
5424.5 117
5425.5 111.25
5426.5 108.5
5427.5 91.5
5428.5 94.375
5429.5 118.125
5430.5 103.25
5431.5 114.25
5432.5 89.375
5433.5 97.875
5434.5 110.625
5435.5 96
5436.5 88.625
5437.5 100.875
5438.5 123
5439.5 109.125
5440.5 111.75
5441.5 72.125
5442.5 97
5443.5 99
5444.5 85.25
5445.5 132.25
5446.5 92.375
5447.5 95.125
5448.5 98
5449.5 93.875
5450.5 113
5451.5 92.75
5452.5 108.25
5453.5 92.5
5454.5 113.75
5455.5 96.625
5456.5 95.375
5457.5 97.375
5458.5 77
5459.5 96.625
5460.5 90
5461.5 111.5
5462.5 82.75
5463.5 84.5
5464.5 84.375
5465.5 96.375
5466.5 83.375
5467.5 97.75
5468.5 93.25
5469.5 118.625
5470.5 105.875
5471.5 122.5
5472.5 134
5473.5 112.875
5474.5 111.125
5475.5 95.25
5476.5 108.25
5477.5 101.125
5478.5 82.625
5479.5 78.375
5480.5 103.5
5481.5 120.5
5482.5 126.75
5483.5 136.75
5484.5 140
5485.5 143.25
5486.5 169
5487.5 201.125
5488.5 232.75
5489.5 287.875
5490.5 252.625
5491.5 212
5492.5 153.25
5493.5 144.625
5494.5 107.625
5495.5 94.625
5496.5 92
5497.5 82.625
5498.5 98.75
5499.5 92.25
5500.5 121.625
5501.5 119.5
5502.5 89.375
5503.5 112.875
5504.5 106.875
5505.5 83.75
5506.5 105
5507.5 96.375
5508.5 90.625
5509.5 90.75
5510.5 118.875
5511.5 105.625
5512.5 85.5
5513.5 108.875
5514.5 106
5515.5 105.625
5516.5 112.375
5517.5 119.625
5518.5 74.625
5519.5 106.25
5520.5 113.75
5521.5 90.25
5522.5 99.125
5523.5 115.125
5524.5 145.875
5525.5 125.5
5526.5 109.875
5527.5 89.75
5528.5 137
5529.5 90.125
5530.5 135.75
5531.5 81.125
5532.5 103.125
5533.5 103
5534.5 89.75
5535.5 93.25
5536.5 129
5537.5 96.375
5538.5 117.25
5539.5 103.875
5540.5 128.125
5541.5 88.375
5542.5 94.5
5543.5 101.625
5544.5 99.75
5545.5 110.875
5546.5 103.375
5547.5 98
5548.5 108.75
5549.5 76
5550.5 111.625
5551.5 95
5552.5 110
5553.5 111.75
5554.5 98.75
5555.5 101.75
5556.5 130.625
5557.5 126.5
5558.5 156.5
5559.5 122.875
5560.5 133.75
5561.5 108.75
5562.5 102.875
5563.5 92.25
5564.5 93.25
5565.5 80.125
5566.5 102.625
5567.5 112.875
5568.5 107
5569.5 90.75
5570.5 105.375
5571.5 111.25
5572.5 126
5573.5 96.375
5574.5 110.5
5575.5 106.625
5576.5 77.125
5577.5 103
5578.5 121.25
5579.5 107.5
5580.5 112.75
5581.5 155.25
5582.5 136.375
5583.5 126.875
5584.5 120.125
5585.5 88
5586.5 87.625
5587.5 98.875
5588.5 103.125
5589.5 132.375
5590.5 100
5591.5 114.625
5592.5 96.25
5593.5 113
5594.5 139.25
5595.5 102.625
5596.5 103.75
5597.5 117.75
5598.5 85.875
5599.5 105.625
5600.5 123
5601.5 102.875
5602.5 75.5
5603.5 96.25
5604.5 117.25
5605.5 131.375
5606.5 163.125
5607.5 187.5
5608.5 190.625
5609.5 233.5
5610.5 338.5
5611.5 432.75
5612.5 495.125
5613.5 538
5614.5 623.25
5615.5 426.625
5616.5 352.75
5617.5 252.5
5618.5 189.375
5619.5 113.25
5620.5 134.75
5621.5 129.125
5622.5 111
5623.5 133.75
5624.5 128.625
5625.5 124.625
5626.5 117.5
5627.5 133.5
5628.5 132.375
5629.5 126.75
5630.5 129.375
5631.5 139
5632.5 104.625
5633.5 126.625
5634.5 107
5635.5 120
5636.5 96.625
5637.5 122.375
5638.5 143.625
5639.5 120.25
5640.5 113.75
5641.5 128.25
5642.5 111.5
5643.5 112.25
5644.5 121.625
5645.5 90.25
5646.5 100.125
5647.5 97.75
5648.5 97.5
5649.5 114.375
5650.5 119.75
5651.5 100.25
5652.5 149.625
5653.5 141.5
5654.5 131.625
5655.5 116.25
5656.5 133.625
5657.5 135.375
5658.5 128.875
5659.5 100.75
5660.5 149.375
5661.5 131.375
5662.5 146.75
5663.5 135.75
5664.5 104.25
5665.5 124.875
5666.5 115.5
5667.5 135.125
5668.5 174.375
5669.5 178.25
5670.5 207.875
5671.5 206.5
5672.5 235.625
5673.5 222.75
5674.5 173.625
5675.5 140
5676.5 116.375
5677.5 87
5678.5 93.875
5679.5 84
5680.5 88
5681.5 107.5
5682.5 125.5
5683.5 101.875
5684.5 75.875
5685.5 94.375
5686.5 104
5687.5 101
5688.5 119.875
5689.5 86.625
5690.5 99.125
5691.5 110.375
5692.5 99
5693.5 103.375
5694.5 111.75
5695.5 101
5696.5 99.375
5697.5 115.5
5698.5 86
5699.5 115.25
5700.5 93.25
5701.5 108.625
5702.5 103.625
5703.5 114
5704.5 106.375
5705.5 121.625
5706.5 103.875
5707.5 128.375
5708.5 117.75
5709.5 83.375
5710.5 115.375
5711.5 94.625
5712.5 95.25
5713.5 127.5
5714.5 102
5715.5 113.375
5716.5 110.125
5717.5 118.625
5718.5 114.5
5719.5 86.125
5720.5 104.625
5721.5 97.75
5722.5 137.625
5723.5 87.375
5724.5 111.625
5725.5 111.125
5726.5 113.375
5727.5 84.25
5728.5 100.375
5729.5 107.875
5730.5 82.5
5731.5 114.875
5732.5 108.5
5733.5 104.25
5734.5 119
5735.5 97.5
5736.5 95.875
5737.5 104.125
5738.5 77.5
5739.5 68.125
5740.5 101.125
5741.5 106
5742.5 87.125
5743.5 109
5744.5 112.125
5745.5 95
5746.5 78.25
5747.5 87.25
5748.5 109.375
5749.5 90.5
5750.5 83.5
5751.5 89.375
5752.5 102.25
5753.5 57
5754.5 52.625
5755.5 37.625
5756.5 55.5
5757.5 72
5758.5 65.75
5759.5 84.125
5760.5 98
5761.5 111.125
5762.5 96.25
5763.5 72
5764.5 82
5765.5 82.25
5766.5 87
5767.5 86
5768.5 96.625
5769.5 93.25
5770.5 81.5
5771.5 79.25
5772.5 44.875
5773.5 85.75
5774.5 104.875
5775.5 100.125
5776.5 78.25
5777.5 63.625
5778.5 91.75
5779.5 62.75
5780.5 76.375
5781.5 63.875
5782.5 81.875
5783.5 102
5784.5 73.5
5785.5 67.125
5786.5 107.625
5787.5 102.25
5788.5 129.25
5789.5 88.5
5790.5 93.5
5791.5 91.5
5792.5 74.625
5793.5 78
5794.5 88.625
5795.5 80.125
5796.5 103.625
5797.5 67.625
5798.5 89.125
5799.5 87.875
5800.5 62.5
5801.5 72
5802.5 77
5803.5 89.875
5804.5 65.5
5805.5 66.25
5806.5 70.25
5807.5 84.375
5808.5 83.875
5809.5 90.125
5810.5 79.875
5811.5 78
5812.5 81.125
5813.5 76.5
5814.5 72.625
5815.5 77.5
5816.5 67.625
5817.5 79.75
5818.5 83.125
5819.5 90.375
5820.5 64.25
5821.5 82.875
5822.5 64.125
5823.5 53.125
5824.5 89.375
5825.5 48.25
5826.5 78.75
5827.5 79.25
5828.5 70.5
5829.5 91.375
5830.5 84.125
5831.5 83.75
5832.5 60.75
5833.5 61
5834.5 77.625
5835.5 69.875
5836.5 93.625
5837.5 66
5838.5 119.25
5839.5 110.5
5840.5 121.25
5841.5 127.875
5842.5 118.25
5843.5 108.625
5844.5 107.25
5845.5 68.875
5846.5 75.625
5847.5 81
5848.5 68.125
5849.5 91.625
5850.5 72.625
5851.5 76.125
5852.5 73.875
5853.5 56.625
5854.5 59.5
5855.5 71
5856.5 73
5857.5 69.125
5858.5 85.375
5859.5 73.625
5860.5 59.625
5861.5 83.625
5862.5 86
5863.5 68.25
5864.5 77.375
5865.5 84.625
5866.5 66.875
5867.5 100.5
5868.5 62.75
5869.5 58.75
5870.5 79.5
5871.5 57.5
5872.5 61.375
5873.5 79.25
5874.5 73.5
5875.5 73.875
5876.5 71.375
5877.5 60
5878.5 39.625
5879.5 83.125
5880.5 62.625
5881.5 91.625
5882.5 76.875
5883.5 77.875
5884.5 64.25
5885.5 55.25
5886.5 66.125
5887.5 58.625
5888.5 93.875
5889.5 68.5
5890.5 102.875
5891.5 110.875
5892.5 138.875
5893.5 184.875
5894.5 341.875
5895.5 604.375
5896.5 887
5897.5 1298.12
5898.5 1704.38
5899.5 2310.88
5900.5 2541.25
5901.5 2274.62
5902.5 1628.5
5903.5 974
5904.5 422
5905.5 198.875
5906.5 146.5
5907.5 118.25
5908.5 120.125
5909.5 65.125
5910.5 71.5
5911.5 49
5912.5 43.625
5913.5 68.375
5914.5 51.875
5915.5 63.375
5916.5 42.375
5917.5 55.875
5918.5 42.5
5919.5 31.625
5920.5 35.375
5921.5 32.5
5922.5 50
5923.5 67.625
5924.5 62.75
5925.5 44.625
5926.5 49
5927.5 36.375
5928.5 43.625
5929.5 34
5930.5 34.5
5931.5 35.375
5932.5 71
5933.5 32.625
5934.5 55.25
5935.5 67.5
5936.5 55.25
5937.5 39.625
5938.5 38.5
5939.5 46.125
5940.5 40.25
5941.5 39.375
5942.5 56
5943.5 28.625
5944.5 56.5
5945.5 54.125
5946.5 43.625
5947.5 36.625
5948.5 57.375
5949.5 27
5950.5 39.375
5951.5 52.125
5952.5 52.5
5953.5 26.625
5954.5 52.875
5955.5 44.25
5956.5 38.5
5957.5 47
5958.5 37.625
5959.5 45
5960.5 44.75
5961.5 30.75
5962.5 28.875
5963.5 28.75
5964.5 28.25
5965.5 32.75
5966.5 35.5
5967.5 52.75
5968.5 21.875
5969.5 24.25
5970.5 39.25
5971.5 58.625
5972.5 45.625
5973.5 48.375
5974.5 35
5975.5 57.875
5976.5 30.125
5977.5 29.5
5978.5 45.25
5979.5 54.5
5980.5 42.5
5981.5 39.75
5982.5 37.625
5983.5 44.5
5984.5 35.625
5985.5 39.125
5986.5 49.25
5987.5 35.25
5988.5 41.75
5989.5 47
5990.5 45.25
5991.5 48.125
5992.5 37
5993.5 55.375
5994.5 81.25
5995.5 101.875
5996.5 160.25
5997.5 235.875
5998.5 251.75
5999.5 322.75
6000.5 427.875
6001.5 407
6002.5 288.875
6003.5 218.75
6004.5 118.125
6005.5 81.75
6006.5 32.625
6007.5 59
6008.5 26.125
6009.5 42.25
6010.5 39.125
6011.5 21.125
6012.5 50
6013.5 55.5
6014.5 49.25
6015.5 12.25
6016.5 63.375
6017.5 21.125
6018.5 39.375
6019.5 22.75
6020.5 37.875
6021.5 49
6022.5 32
6023.5 33
6024.5 42.75
6025.5 28.625
6026.5 36.125
6027.5 24.625
6028.5 36.25
6029.5 39.25
6030.5 48.25
6031.5 36.125
6032.5 78.625
6033.5 78.875
6034.5 89.125
6035.5 46.625
6036.5 97.5
6037.5 59.5
6038.5 38.125
6039.5 58.875
6040.5 40.625
6041.5 33.125
6042.5 22.25
6043.5 28.125
6044.5 29.75
6045.5 22.875
6046.5 30.375
6047.5 24.375
6048.5 31.875
6049.5 31
6050.5 32.5
6051.5 33
6052.5 40.125
6053.5 26.75
6054.5 31.125
6055.5 37.125
6056.5 37
6057.5 47
6058.5 46.625
6059.5 38.25
6060.5 19.625
6061.5 31.625
6062.5 38.625
6063.5 43.625
6064.5 34.5
6065.5 19
6066.5 38.375
6067.5 26.625
6068.5 26.75
6069.5 26.875
6070.5 32.125
6071.5 26.875
6072.5 19.25
6073.5 32
6074.5 24.25
6075.5 30.375
6076.5 30.875
6077.5 34.625
6078.5 22.375
6079.5 27.625
6080.5 33.75
6081.5 36.875
6082.5 25.75
6083.5 24.375
6084.5 20.25
6085.5 27.5
6086.5 21.25
6087.5 32.875
6088.5 37
6089.5 16.375
6090.5 40.875
6091.5 30.25
6092.5 24.375
6093.5 31.75
6094.5 23.75
6095.5 53.125
6096.5 26
6097.5 22.375
6098.5 35.875
6099.5 40.75
6100.5 28.875
6101.5 24.5
6102.5 65.875
6103.5 52.75
6104.5 38
6105.5 47.625
6106.5 32.75
6107.5 26.5
6108.5 37.375
6109.5 35.375
6110.5 31.875
6111.5 36.125
6112.5 34.625
6113.5 38.5
6114.5 34.625
6115.5 68.5
6116.5 50.625
6117.5 93.75
6118.5 147.875
6119.5 230.5
6120.5 380.75
6121.5 582.25
6122.5 739.625
6123.5 1011.25
6124.5 1198.25
6125.5 1184
6126.5 879.75
6127.5 500.125
6128.5 293.25
6129.5 134.125
6130.5 96
6131.5 60.375
6132.5 63.125
6133.5 28.125
6134.5 35.125
6135.5 35.75
6136.5 25.125
6137.5 40.5
6138.5 20.5
6139.5 24
6140.5 36.25
6141.5 20
6142.5 8.375
6143.5 25.625
6144.5 22.75
6145.5 26.375
6146.5 23.5
6147.5 13.25
6148.5 41
6149.5 32
6150.5 20.25
6151.5 36.875
6152.5 35.375
6153.5 50.375
6154.5 25.75
6155.5 27
6156.5 13.625
6157.5 32.125
6158.5 25.375
6159.5 17.625
6160.5 30
6161.5 10.625
6162.5 31.625
6163.5 28.375
6164.5 15.375
6165.5 20.75
6166.5 13.5
6167.5 24.75
6168.5 38.125
6169.5 22.75
6170.5 25
6171.5 13.875
6172.5 20.25
6173.5 30.25
6174.5 26.5
6175.5 12.625
6176.5 34.875
6177.5 14.125
6178.5 9.25
6179.5 26.125
6180.5 27.625
6181.5 18.5
6182.5 24.625
6183.5 16.5
6184.5 29.5
6185.5 23.375
6186.5 13.5
6187.5 26.625
6188.5 26.375
6189.5 23.125
6190.5 13.75
6191.5 25.75
6192.5 28.875
6193.5 21.375
6194.5 13.625
6195.5 35.875
6196.5 26.875
6197.5 21.625
6198.5 14.875
6199.5 18.375
6200.5 31.5
6201.5 29.75
6202.5 6.875
6203.5 12.625
6204.5 26
6205.5 23.625
6206.5 16.375
6207.5 16.25
6208.5 24.75
6209.5 27.625
6210.5 21.875
6211.5 18
6212.5 22.375
6213.5 26.75
6214.5 14.625
6215.5 26.625
6216.5 36.75
6217.5 31.375
6218.5 36.875
6219.5 27.25
6220.5 32.875
6221.5 33.875
6222.5 26
6223.5 46.875
6224.5 50.625
6225.5 66.125
6226.5 50.75
6227.5 18.875
6228.5 42.5
6229.5 37.625
6230.5 24
6231.5 25.375
6232.5 38.125
6233.5 12.375
6234.5 33.125
6235.5 15.375
6236.5 19.5
6237.5 37.375
6238.5 17.25
6239.5 27.125
6240.5 25.5
6241.5 22.625
6242.5 18.5
6243.5 22.125
6244.5 18.5
6245.5 19.125
6246.5 32.25
6247.5 15
6248.5 32.5
6249.5 27.625
6250.5 13.375
6251.5 14.5
6252.5 27.625
6253.5 17.25
6254.5 16.375
6255.5 32.125
6256.5 23.125
6257.5 16.125
6258.5 41.125
6259.5 18.75
6260.5 23.875
6261.5 36.75
6262.5 22.625
6263.5 26.375
6264.5 23.5
6265.5 15.125
6266.5 16.625
6267.5 30.875
6268.5 19.25
6269.5 12.875
6270.5 10.75
6271.5 25.5
6272.5 32
6273.5 21.875
6274.5 26
6275.5 30.125
6276.5 12.625
6277.5 22.75
6278.5 25.5
6279.5 25.75
6280.5 34.125
6281.5 16.625
6282.5 10.75
6283.5 26.125
6284.5 9.75
6285.5 10.125
6286.5 23.625
6287.5 25.75
6288.5 26.875
6289.5 29
6290.5 8.875
6291.5 12.5
6292.5 15.5
6293.5 16.375
6294.5 18.125
6295.5 10.5
6296.5 24
6297.5 -1.875
6298.5 7.125
6299.5 24.625
6300.5 15.75
6301.5 22
6302.5 14.125
6303.5 19.625
6304.5 11.25
6305.5 25.875
6306.5 27.625
6307.5 11.625
6308.5 19.625
6309.5 17.875
6310.5 33.875
6311.5 17.5
6312.5 24.25
6313.5 28.125
6314.5 27.125
6315.5 18.875
6316.5 17
6317.5 31.875
6318.5 17.75
6319.5 23.375
6320.5 29.625
6321.5 21.625
6322.5 35.75
6323.5 21.25
6324.5 26.375
6325.5 17.125
6326.5 29.75
6327.5 23.125
6328.5 24.875
6329.5 21.25
6330.5 19.25
6331.5 26
6332.5 20.5
6333.5 34.75
6334.5 34.875
6335.5 23.125
6336.5 8
6337.5 23.625
6338.5 16.5
6339.5 17.875
6340.5 18.375
6341.5 19
6342.5 22.875
6343.5 4.875
6344.5 21.25
6345.5 26.125
6346.5 29.125
6347.5 33.125
6348.5 18.625
6349.5 33
6350.5 22.125
6351.5 39
6352.5 17
6353.5 23.375
6354.5 23.25
6355.5 14.125
6356.5 29.25
6357.5 20
6358.5 22.75
6359.5 13.625
6360.5 16.5
6361.5 11.875
6362.5 23.5
6363.5 30.5
6364.5 25.125
6365.5 26.5
6366.5 16.875
6367.5 22
6368.5 26.375
6369.5 29.75
6370.5 27.75
6371.5 25.25
6372.5 25
6373.5 36.5
6374.5 29
6375.5 28.375
6376.5 32.875
6377.5 67.375
6378.5 73.25
6379.5 70.75
6380.5 63.75
6381.5 55.375
6382.5 30.75
6383.5 41.5
6384.5 33.375
6385.5 36.5
6386.5 16.75
6387.5 14.625
6388.5 28.25
6389.5 22
6390.5 33.125
6391.5 12.375
6392.5 21.625
6393.5 31.75
6394.5 15.875
6395.5 33.625
6396.5 26.25
6397.5 24.375
6398.5 28.625
6399.5 17.25
6400.5 24
6401.5 18
6402.5 19.625
6403.5 19.25
6404.5 29.625
6405.5 24.75
6406.5 24.75
6407.5 14.5
6408.5 23.375
6409.5 31.125
6410.5 20.5
6411.5 33.625
6412.5 29.625
6413.5 28.25
6414.5 19.875
6415.5 18.375
6416.5 22.125
6417.5 22.5
6418.5 20.875
6419.5 30
6420.5 27
6421.5 21.75
6422.5 16.5
6423.5 18.5
6424.5 28.375
6425.5 25.75
6426.5 25
6427.5 28.5
6428.5 20.5
6429.5 21.25
6430.5 25.75
6431.5 18.5
6432.5 24.875
6433.5 31.375
6434.5 25.75
6435.5 21.875
6436.5 10.625
6437.5 22.875
6438.5 22.375
6439.5 22.75
6440.5 17.75
6441.5 19.75
6442.5 19
6443.5 14.375
6444.5 24.75
6445.5 16.875
6446.5 24
6447.5 19.625
6448.5 24.75
6449.5 21
6450.5 20.75
6451.5 17.625
6452.5 31.5
6453.5 35.5
6454.5 19
6455.5 14.625
6456.5 19.125
6457.5 18.75
6458.5 17.75
6459.5 12.375
6460.5 6
6461.5 33.125
6462.5 24.625
6463.5 18
6464.5 19.25
6465.5 15.625
6466.5 16.75
6467.5 7.625
6468.5 24.875
6469.5 22.25
6470.5 22.5
6471.5 13.625
6472.5 35.125
6473.5 17.5
6474.5 36.25
6475.5 24.625
6476.5 35.125
6477.5 16.5
6478.5 20.625
6479.5 23.375
6480.5 48.625
6481.5 26.125
6482.5 22.75
6483.5 18.625
6484.5 34.5
6485.5 18.25
6486.5 30.125
6487.5 36.375
6488.5 24.125
6489.5 31.25
6490.5 18.625
6491.5 17.875
6492.5 32.75
6493.5 16
6494.5 10.625
6495.5 17.125
6496.5 19.25
6497.5 25
6498.5 25.625
6499.5 22.25
6500.5 22.25
6501.5 21.375
6502.5 19
6503.5 27.375
6504.5 22.25
6505.5 31.5
6506.5 13.875
6507.5 17.5
6508.5 26.75
6509.5 16.5
6510.5 18.875
6511.5 28.625
6512.5 25.625
6513.5 27
6514.5 21.125
6515.5 18.875
6516.5 15.75
6517.5 19.125
6518.5 18.5
6519.5 21.5
6520.5 16.625
6521.5 18.125
6522.5 21.375
6523.5 24.875
6524.5 30.375
6525.5 13.5
6526.5 22.5
6527.5 23.625
6528.5 29.625
6529.5 27.625
6530.5 15.875
6531.5 20.125
6532.5 22.25
6533.5 21.125
6534.5 21.875
6535.5 16.125
6536.5 29.5
6537.5 36.125
6538.5 28.5
6539.5 40
6540.5 43.875
6541.5 40
6542.5 60.25
6543.5 74.125
6544.5 94.5
6545.5 135
6546.5 110.25
6547.5 67.375
6548.5 83.5
6549.5 64.375
6550.5 49.25
6551.5 24.375
6552.5 24.375
6553.5 12
6554.5 40.625
6555.5 23.875
6556.5 23.875
6557.5 16.5
6558.5 18.5
6559.5 25.125
6560.5 28.25
6561.5 20.125
6562.5 30.875
6563.5 34.25
6564.5 41.375
6565.5 31.5
6566.5 41.75
6567.5 47.75
6568.5 37.125
6569.5 19.375
6570.5 30.25
6571.5 11.75
6572.5 22.25
6573.5 28.25
6574.5 29.5
6575.5 21.875
6576.5 11.375
6577.5 27.5
6578.5 20.125
6579.5 19
6580.5 29.375
6581.5 25.125
6582.5 32.625
6583.5 35.5
6584.5 22.5
6585.5 33.5
6586.5 29.75
6587.5 26.25
6588.5 22.625
6589.5 30
6590.5 18
6591.5 32
6592.5 25.75
6593.5 25.5
6594.5 27.125
6595.5 22.875
6596.5 26.375
6597.5 22.625
6598.5 25.25
6599.5 31.5
6600.5 34.5
6601.5 31.375
6602.5 22.5
6603.5 25.625
6604.5 24.125
6605.5 20.125
6606.5 30.375
6607.5 28.625
6608.5 35.5
6609.5 10.875
6610.5 28.25
6611.5 20
6612.5 26.375
6613.5 33.375
6614.5 19.625
6615.5 30.875
6616.5 22.375
6617.5 36.625
6618.5 25.5
6619.5 16
6620.5 26.375
6621.5 22.75
6622.5 23.875
6623.5 26.625
6624.5 27.125
6625.5 27.25
6626.5 21.375
6627.5 16.25
6628.5 19.5
6629.5 22.125
6630.5 25.875
6631.5 22.125
6632.5 15.875
6633.5 36.125
6634.5 17.375
6635.5 15.75
6636.5 27.625
6637.5 17.75
6638.5 25.625
6639.5 9.5
6640.5 31.75
6641.5 14.125
6642.5 20.875
6643.5 19.625
6644.5 36.375
6645.5 25.25
6646.5 25.875
6647.5 29
6648.5 26.75
6649.5 29.75
6650.5 37.625
6651.5 28.25
6652.5 31.75
6653.5 26.125
6654.5 41.25
6655.5 24.25
6656.5 24.5
6657.5 21.25
6658.5 26.5
6659.5 28
6660.5 15
6661.5 44.25
6662.5 19.5
6663.5 16.75
6664.5 11.875
6665.5 30.5
6666.5 22.5
6667.5 22
6668.5 17.5
6669.5 20.5
6670.5 23.5
6671.5 25
6672.5 28.375
6673.5 24.25
6674.5 23.125
6675.5 17.5
6676.5 21.25
6677.5 27.25
6678.5 7.625
6679.5 28.75
6680.5 11.375
6681.5 27.5
6682.5 22.75
6683.5 21.5
6684.5 18.875
6685.5 26.375
6686.5 28.875
6687.5 23.25
6688.5 22.125
6689.5 19.75
6690.5 33.25
6691.5 37.75
6692.5 24.25
6693.5 38.75
6694.5 29.25
6695.5 18
6696.5 26
6697.5 17.875
6698.5 21.125
6699.5 22.875
6700.5 27.5
6701.5 20.25
6702.5 19.5
6703.5 15
6704.5 22.125
6705.5 25.375
6706.5 20
6707.5 21.75
6708.5 29.875
6709.5 20.625
6710.5 15.75
6711.5 22.625
6712.5 22.375
6713.5 23.25
6714.5 31.375
6715.5 22
6716.5 15.5
6717.5 17.25
6718.5 4.5
6719.5 29.25
6720.5 27.75
6721.5 26.375
6722.5 28.375
6723.5 25.5
6724.5 29.5
6725.5 27.375
6726.5 24.875
6727.5 19.125
6728.5 30.5
6729.5 13.375
6730.5 39.375
6731.5 25
6732.5 39.875
6733.5 18.625
6734.5 17
6735.5 24.5
6736.5 26.375
6737.5 34.75
6738.5 31.375
6739.5 31.25
6740.5 33.125
6741.5 39.25
6742.5 34.125
6743.5 43.625
6744.5 36.375
6745.5 68.375
6746.5 79.5
6747.5 130.875
6748.5 163.875
6749.5 240.125
6750.5 321.5
6751.5 295.875
6752.5 304.125
6753.5 193.125
6754.5 121.25
6755.5 72.125
6756.5 44.875
6757.5 25.5
6758.5 36.375
6759.5 38.75
6760.5 31.375
6761.5 34
6762.5 30.25
6763.5 29.25
6764.5 37
6765.5 24.5
6766.5 22.25
6767.5 34.125
6768.5 35.125
6769.5 30.875
6770.5 28.75
6771.5 50.25
6772.5 21
6773.5 13.875
6774.5 34.5
6775.5 27.125
6776.5 21.75
6777.5 45.125
6778.5 31.125
6779.5 21.125
6780.5 42.625
6781.5 42.125
6782.5 36
6783.5 31.5
6784.5 36.375
6785.5 25.875
6786.5 34.125
6787.5 33.25
6788.5 51.875
6789.5 38.875
6790.5 32.25
6791.5 39.5
6792.5 28.375
6793.5 39.5
6794.5 41.5
6795.5 30.25
6796.5 39.625
6797.5 29.875
6798.5 44.5
6799.5 28.625
6800.5 28
6801.5 35.125
6802.5 41.5
6803.5 31.25
6804.5 39.625
6805.5 34.25
6806.5 38.125
6807.5 34.25
6808.5 39.25
6809.5 31.5
6810.5 33.25
6811.5 30.125
6812.5 34.5
6813.5 25
6814.5 37.5
6815.5 44.375
6816.5 33.75
6817.5 37.5
6818.5 43.375
6819.5 39.25
6820.5 46.5
6821.5 38.25
6822.5 36.5
6823.5 29.75
6824.5 38.125
6825.5 34.625
6826.5 36.625
6827.5 46.875
6828.5 45.5
6829.5 35.125
6830.5 40.75
6831.5 33.125
6832.5 35.625
6833.5 37.5
6834.5 40.125
6835.5 31.125
6836.5 44.375
6837.5 41.125
6838.5 36.875
6839.5 41.875
6840.5 36.5
6841.5 24.25
6842.5 37.25
6843.5 44.5
6844.5 32.75
6845.5 34.625
6846.5 42.75
6847.5 36.125
6848.5 24.25
6849.5 36.75
6850.5 34.625
6851.5 34.25
6852.5 48.625
6853.5 41.5
6854.5 41
6855.5 31.125
6856.5 42.75
6857.5 32.5
6858.5 43.75
6859.5 54.5
6860.5 30.625
6861.5 30.25
6862.5 34.625
6863.5 39.5
6864.5 32.75
6865.5 37.625
6866.5 39.5
6867.5 30.125
6868.5 40.5
6869.5 50.875
6870.5 32.375
6871.5 33.25
6872.5 43.5
6873.5 42.5
6874.5 42.125
6875.5 40.75
6876.5 48.875
6877.5 35.75
6878.5 39.75
6879.5 35.75
6880.5 37.625
6881.5 32.625
6882.5 40.125
6883.5 45.25
6884.5 26.25
6885.5 34.25
6886.5 38.625
6887.5 43.5
6888.5 51.75
6889.5 29.375
6890.5 39.5
6891.5 28.75
6892.5 37.25
6893.5 32.375
6894.5 27.875
6895.5 35.75
6896.5 32
6897.5 31.5
6898.5 38.625
6899.5 40.75
6900.5 36.375
6901.5 32.25
6902.5 32.25
6903.5 45.625
6904.5 43.375
6905.5 46.375
6906.5 48.5
6907.5 41.25
6908.5 34
6909.5 37.5
6910.5 47.5
6911.5 36.375
6912.5 46.375
6913.5 46.875
6914.5 27
6915.5 31.625
6916.5 34.25
6917.5 33.75
6918.5 42.25
6919.5 46.5
6920.5 32.25
6921.5 38.25
6922.5 33.625
6923.5 39.5
6924.5 50.75
6925.5 44.75
6926.5 41.75
6927.5 42.25
6928.5 32.125
6929.5 38.75
6930.5 41.875
6931.5 51.5
6932.5 36
6933.5 47.25
6934.5 42.5
6935.5 38.125
6936.5 32
6937.5 54.25
6938.5 27.5
6939.5 37.75
6940.5 42
6941.5 44.875
6942.5 37.125
6943.5 51.5
6944.5 46.875
6945.5 34.125
6946.5 37.5
6947.5 29.375
6948.5 44.375
6949.5 51.625
6950.5 34.125
6951.5 44.125
6952.5 49.5
6953.5 32
6954.5 34.5
6955.5 42.25
6956.5 30.125
6957.5 41.375
6958.5 41.5
6959.5 35.75
6960.5 44.625
6961.5 44.875
6962.5 32.625
6963.5 45.5
6964.5 39.5
6965.5 37.25
6966.5 50.875
6967.5 38.375
6968.5 62.375
6969.5 27.5
6970.5 27.125
6971.5 40.625
6972.5 54.75
6973.5 38.625
6974.5 37.375
6975.5 30.125
6976.5 44.75
6977.5 39.625
6978.5 28.25
6979.5 48.125
6980.5 39.5
6981.5 29.625
6982.5 42.25
6983.5 32.875
6984.5 37.5
6985.5 38.625
6986.5 38.625
6987.5 40.75
6988.5 46.625
6989.5 33.625
6990.5 40.875
6991.5 48
6992.5 40.5
6993.5 53.625
6994.5 34.25
6995.5 43.375
6996.5 50.5
6997.5 40.625
6998.5 45.75
6999.5 31.5
7000.5 31.625
7001.5 56.875
7002.5 40.5
7003.5 38.625
7004.5 42.5
7005.5 43.625
7006.5 47.5
7007.5 50.75
7008.5 40.375
7009.5 46.875
7010.5 39.5
7011.5 39.75
7012.5 41.5
7013.5 53.75
7014.5 52.75
7015.5 45.625
7016.5 55.375
7017.5 38.625
7018.5 38
7019.5 59.25
7020.5 37.375
7021.5 38
7022.5 46.25
7023.5 30
7024.5 54.5
7025.5 54.75
7026.5 46
7027.5 51.75
7028.5 60.25
7029.5 47.625
7030.5 47.25
7031.5 45.75
7032.5 39.875
7033.5 45
7034.5 56.75
7035.5 56.625
7036.5 40.375
7037.5 56.875
7038.5 41.375
7039.5 47.875
7040.5 42.25
7041.5 53.75
7042.5 45.875
7043.5 55.5
7044.5 52.5
7045.5 50.875
7046.5 42.875
7047.5 59.75
7048.5 36.375
7049.5 46.625
7050.5 58.75
7051.5 53.375
7052.5 55.875
7053.5 41.75
7054.5 49
7055.5 39.375
7056.5 55.375
7057.5 50.125
7058.5 55.5
7059.5 58.625
7060.5 52.875
7061.5 56.625
7062.5 57.875
7063.5 47.625
7064.5 58.375
7065.5 48.625
7066.5 54.375
7067.5 42.5
7068.5 48.75
7069.5 63.5
7070.5 50.375
7071.5 38.25
7072.5 56.75
7073.5 53.875
7074.5 41.5
7075.5 59.75
7076.5 57
7077.5 45.25
7078.5 48.5
7079.5 37.25
7080.5 52.625
7081.5 34.875
7082.5 53.625
7083.5 42.375
7084.5 52.625
7085.5 50.75
7086.5 52.625
7087.5 45.625
7088.5 64.75
7089.5 46.375
7090.5 50.375
7091.5 61.75
7092.5 58.875
7093.5 44
7094.5 37.25
7095.5 36.75
7096.5 46.5
7097.5 50.75
7098.5 46.625
7099.5 50.75
7100.5 40.5
7101.5 50.625
7102.5 36.625
7103.5 40.75
7104.5 46.75
7105.5 29.5
7106.5 35.875
7107.5 39.625
7108.5 42.75
7109.5 47.875
7110.5 47.625
7111.5 39.75
7112.5 55.625
7113.5 44.5
7114.5 50.25
7115.5 40.5
7116.5 53.625
7117.5 50.375
7118.5 47.375
7119.5 53.25
7120.5 47.25
7121.5 36.625
7122.5 56.625
7123.5 53.75
7124.5 49.75
7125.5 38.375
7126.5 50.875
7127.5 46.625
7128.5 40.75
7129.5 50.75
7130.5 55.5
7131.5 43.75
7132.5 44.5
7133.5 53.625
7134.5 43.625
7135.5 39.625
7136.5 45.75
7137.5 47.875
7138.5 44.75
7139.5 39.625
7140.5 42.75
7141.5 29.25
7142.5 39.875
7143.5 46.875
7144.5 59.75
7145.5 34.625
7146.5 34.625
7147.5 38.5
7148.5 45.375
7149.5 38.5
7150.5 42.625
7151.5 51
7152.5 48.75
7153.5 42.75
7154.5 40.625
7155.5 42.5
7156.5 30.375
7157.5 31.125
7158.5 34.375
7159.5 45
7160.5 53.375
7161.5 45.625
7162.5 25.5
7163.5 26.375
7164.5 35.875
7165.5 26.5
7166.5 35.625
7167.5 39
7168.5 47.75
7169.5 30.75
7170.5 57.75
7171.5 34.75
7172.5 45.5
7173.5 47.875
7174.5 29.875
7175.5 25.75
7176.5 28.875
7177.5 35.5
7178.5 37.75
7179.5 42.875
7180.5 28.625
7181.5 31.625
7182.5 32.875
7183.5 40.625
7184.5 30
7185.5 49
7186.5 35.875
7187.5 40.625
7188.5 40.875
7189.5 34.875
7190.5 32.625
7191.5 29.75
7192.5 48.625
7193.5 41.625
7194.5 43.875
7195.5 25.5
7196.5 34.75
7197.5 33.75
7198.5 44.5
7199.5 27.125
7200.5 30.75
7201.5 31.875
7202.5 40.875
7203.5 32.5
7204.5 43.375
7205.5 32.5
7206.5 32.125
7207.5 33.625
7208.5 38.875
7209.5 26.125
7210.5 28.25
7211.5 30.75
7212.5 48.5
7213.5 40.75
7214.5 36.625
7215.5 43.5
7216.5 31.375
7217.5 36.625
7218.5 26.625
7219.5 39.5
7220.5 31.375
7221.5 34.625
7222.5 38.625
7223.5 38.625
7224.5 39.375
7225.5 35.875
7226.5 28.5
7227.5 27.5
7228.5 34.625
7229.5 25.75
7230.5 27.625
7231.5 34.625
7232.5 37.75
7233.5 40
7234.5 50.75
7235.5 32.625
7236.5 41.625
7237.5 48.875
7238.5 27.75
7239.5 37.875
7240.5 28.75
7241.5 30.5
7242.5 41.75
7243.5 49
7244.5 37.375
7245.5 31.625
7246.5 40.375
7247.5 46.75
7248.5 50.875
7249.5 52.5
7250.5 68.625
7251.5 57.5
7252.5 104.875
7253.5 134.75
7254.5 153.375
7255.5 236.25
7256.5 286.5
7257.5 411.375
7258.5 497.375
7259.5 663.75
7260.5 816.875
7261.5 948.875
7262.5 875
7263.5 796.125
7264.5 549.625
7265.5 330.125
7266.5 231.625
7267.5 148.75
7268.5 102.875
7269.5 71.875
7270.5 74.5
7271.5 58.75
7272.5 56.625
7273.5 44.5
7274.5 53.625
7275.5 48.75
7276.5 55.625
7277.5 51
7278.5 63.625
7279.5 33.625
7280.5 43.375
7281.5 43.875
7282.5 48.625
7283.5 40.5
7284.5 44.375
7285.5 49.5
7286.5 40.875
7287.5 55.875
7288.5 41.375
7289.5 54.875
7290.5 40.625
7291.5 43
7292.5 35.625
7293.5 49.5
7294.5 45.625
7295.5 47.75
7296.5 43.75
7297.5 44.875
7298.5 37.875
7299.5 54.375
7300.5 52.75
7301.5 36.75
7302.5 34
7303.5 37.625
7304.5 46
7305.5 39.125
7306.5 42.625
7307.5 37.75
7308.5 35.875
7309.5 35.375
7310.5 41.875
7311.5 43.625
7312.5 39.625
7313.5 36.625
7314.5 55.875
7315.5 42.625
7316.5 59.375
7317.5 27.125
7318.5 44.75
7319.5 41.75
7320.5 46.75
7321.5 52.625
7322.5 43.75
7323.5 51.625
7324.5 38.75
7325.5 35.75
7326.5 42.875
7327.5 36.625
7328.5 36.5
7329.5 35.625
7330.5 47.75
7331.5 33.75
7332.5 51.75
7333.5 44
7334.5 37.625
7335.5 36.625
7336.5 43.25
7337.5 46.625
7338.5 37.875
7339.5 30.625
7340.5 35.75
7341.5 37
7342.5 34.75
7343.5 53.375
7344.5 35
7345.5 31.625
7346.5 42.5
7347.5 50.25
7348.5 44.375
7349.5 36.875
7350.5 33.125
7351.5 40.875
7352.5 43.5
7353.5 38.625
7354.5 45.125
7355.5 43.125
7356.5 46.25
7357.5 32.875
7358.5 32.375
7359.5 50.75
7360.5 31
7361.5 35.125
7362.5 46.625
7363.5 27.5
7364.5 43.75
7365.5 38
7366.5 49.75
7367.5 44
7368.5 44.875
7369.5 42.625
7370.5 45.875
7371.5 35
7372.5 48
7373.5 28.875
7374.5 42.625
7375.5 41
7376.5 34.625
7377.5 41.75
7378.5 40.75
7379.5 37.75
7380.5 37.5
7381.5 35
7382.5 28
7383.5 40.875
7384.5 38.75
7385.5 41.75
7386.5 42.75
7387.5 26.75
7388.5 34.75
7389.5 37.75
7390.5 49
7391.5 34.75
7392.5 41
7393.5 41.75
7394.5 47
7395.5 36.625
7396.5 40.875
7397.5 37.875
7398.5 36.875
7399.5 34
7400.5 27.75
7401.5 44.875
7402.5 33.75
7403.5 50.625
7404.5 40.75
7405.5 43.75
7406.5 42.875
7407.5 53
7408.5 41.625
7409.5 48.75
7410.5 41.875
7411.5 23.375
7412.5 36.5
7413.5 42.375
7414.5 54.25
7415.5 34.375
7416.5 38.5
7417.5 45.625
7418.5 48.375
7419.5 46.25
7420.5 42.625
7421.5 34.25
7422.5 37.625
7423.5 47.75
7424.5 32.75
7425.5 32.75
7426.5 34.625
7427.5 47.875
7428.5 33.875
7429.5 36.75
7430.5 38.75
7431.5 43.75
7432.5 54.75
7433.5 41.875
7434.5 36.5
7435.5 38
7436.5 55.5
7437.5 49.875
7438.5 38.875
7439.5 33.625
7440.5 36.75
7441.5 39.875
7442.5 43.75
7443.5 45
7444.5 46.875
7445.5 44.875
7446.5 42
7447.5 42.375
7448.5 41.875
7449.5 36.875
7450.5 45.5
7451.5 45.125
7452.5 37.375
7453.5 47
7454.5 41.375
7455.5 36.25
7456.5 30.75
7457.5 45.75
7458.5 36.625
7459.5 44.875
7460.5 44
7461.5 42.625
7462.5 35
7463.5 38.75
7464.5 36.75
7465.5 36.875
7466.5 46.625
7467.5 44.875
7468.5 43.625
7469.5 37.875
7470.5 43
7471.5 25.5
7472.5 42.625
7473.5 42.875
7474.5 46.875
7475.5 50.75
7476.5 32.75
7477.5 39.625
7478.5 27.875
7479.5 48.875
7480.5 48.875
7481.5 40.875
7482.5 40.625
7483.5 44
7484.5 44.875
7485.5 45.625
7486.5 32.875
7487.5 61
7488.5 58.5
7489.5 39.5
7490.5 41.625
7491.5 43.875
7492.5 46.5
7493.5 55.875
7494.5 48.625
7495.5 39.5
7496.5 50.5
7497.5 36.625
7498.5 41
7499.5 46.75
7500.5 56.5
7501.5 54
7502.5 51.875
7503.5 46.75
7504.5 48.625
7505.5 59.75
7506.5 41
7507.5 36.875
7508.5 47
7509.5 28.625
7510.5 49
7511.5 47
7512.5 42.75
7513.5 66
7514.5 46.875
7515.5 50.75
7516.5 59
7517.5 47
7518.5 49.5
7519.5 55
7520.5 77
7521.5 40.75
7522.5 58
7523.5 45.875
7524.5 55
7525.5 43.875
7526.5 45.75
7527.5 43
7528.5 42.5
7529.5 52
7530.5 42
7531.5 48
7532.5 47
7533.5 46.75
7534.5 41.75
7535.5 40
7536.5 42
7537.5 49.375
7538.5 39.875
7539.5 45.75
7540.5 36.875
7541.5 41.875
7542.5 40.875
7543.5 35.625
7544.5 35.625
7545.5 38.75
7546.5 55.75
7547.5 60.75
7548.5 40.875
7549.5 37.875
7550.5 43
7551.5 39.75
7552.5 38
7553.5 43.875
7554.5 35
7555.5 41
7556.5 34.625
7557.5 31.875
7558.5 30.875
7559.5 35.5
7560.5 43.875
7561.5 43.875
7562.5 39
7563.5 39
7564.5 36.75
7565.5 34
7566.5 41.875
7567.5 41.875
7568.5 36.875
7569.5 29.75
7570.5 34.625
7571.5 37.875
7572.5 30.5
7573.5 47.75
7574.5 32.625
7575.5 31.75
7576.5 41.75
7577.5 43.875
7578.5 38.875
7579.5 36.875
7580.5 36.875
7581.5 43.625
7582.5 38.75
7583.5 35
7584.5 37
7585.5 37
7586.5 32.5
7587.5 38.75
7588.5 38.75
7589.5 60.75
7590.5 40.875
7591.5 37.625
7592.5 35.875
7593.5 37
7594.5 40.875
7595.5 37.75
7596.5 33.875
7597.5 38
7598.5 38.75
7599.5 47
7600.5 35.875
7601.5 31.75
7602.5 34
7603.5 32.75
7604.5 49
7605.5 33.875
7606.5 31.75
7607.5 43
7608.5 48.875
7609.5 39
7610.5 34.875
7611.5 43
7612.5 43
7613.5 36
7614.5 31.875
7615.5 34.75
7616.5 25
7617.5 30.75
7618.5 35
7619.5 24.625
7620.5 37.875
7621.5 38.75
7622.5 29.5
7623.5 16
7624.5 32
7625.5 34
7626.5 38.875
7627.5 35
7628.5 31.875
7629.5 37.875
7630.5 27.5
7631.5 28.75
7632.5 28.875
7633.5 32.75
7634.5 30
7635.5 37.875
7636.5 33.75
7637.5 26.625
7638.5 32.875
7639.5 33.625
7640.5 30.75
7641.5 27.875
7642.5 33
7643.5 28
7644.5 31.875
7645.5 31.625
7646.5 27.875
7647.5 26.875
7648.5 12.75
7649.5 27.875
7650.5 21.75
7651.5 29
7652.5 27.625
7653.5 20.75
7654.5 23
7655.5 28
7656.5 27.75
7657.5 22.875
7658.5 25.75
7659.5 29
7660.5 29
7661.5 30
7662.5 15.75
7663.5 25
7664.5 23.875
7665.5 23.875
7666.5 18.75
7667.5 17.875
7668.5 17
7669.5 20.875
7670.5 14.625
7671.5 19.875
7672.5 18.875
7673.5 17.75
7674.5 24
7675.5 16
7676.5 22
7677.5 14.875
7678.5 25
7679.5 27
7680.5 21.875
7681.5 10.875
7682.5 15
7683.5 12
7684.5 11.875
7685.5 16
7686.5 20.75
7687.5 18.75
7688.5 15.875
7689.5 10.875
7690.5 21.875
7691.5 23.875
7692.5 23
7693.5 26.875
7694.5 21
7695.5 14.75
7696.5 17
7697.5 15
7698.5 4.625
7699.5 18
7700.5 15
7701.5 12
7702.5 13.875
7703.5 8.25
7704.5 15.875
7705.5 13.5
7706.5 11
7707.5 18.875
7708.5 9.5
7709.5 10.75
7710.5 19
7711.5 13.875
7712.5 15
7713.5 15
7714.5 16.75
7715.5 16
7716.5 11.75
7717.5 21.875
7718.5 8.75
7719.5 10.75
7720.5 11.5
7721.5 13
7722.5 9.75
7723.5 11.75
7724.5 12.75
7725.5 11.875
7726.5 8.625
7727.5 13.875
7728.5 18
7729.5 9
7730.5 12.75
7731.5 19
7732.5 14.75
7733.5 11
7734.5 20
7735.5 15.875
7736.5 10.875
7737.5 10
7738.5 7.75
7739.5 9.875
7740.5 14.875
7741.5 18.875
7742.5 19
7743.5 9
7744.5 20.875
7745.5 12.75
7746.5 16
7747.5 11.75
7748.5 14
7749.5 12
7750.5 20
7751.5 14
7752.5 14.5
7753.5 8.875
7754.5 11
7755.5 21
7756.5 15
7757.5 17.875
7758.5 18.875
7759.5 22.875
7760.5 29.625
7761.5 42
7762.5 55.875
7763.5 76
7764.5 127.625
7765.5 195
7766.5 296
7767.5 442.5
7768.5 629.125
7769.5 742.5
7770.5 981.5
7771.5 1189.12
7772.5 1421.75
7773.5 1530.5
7774.5 1236.62
7775.5 927.25
7776.5 583.875
7777.5 299.75
7778.5 170.625
7779.5 110.875
7780.5 75
7781.5 70
7782.5 60
7783.5 42.875
7784.5 42.75
7785.5 32.875
7786.5 18.75
7787.5 13.75
7788.5 9.875
7789.5 9.5
7790.5 21.875
7791.5 12.875
7792.5 8.875
7793.5 2.875
7794.5 1.75
7795.5 2.875
7796.5 1
7797.5 -1.5
7798.5 0
7799.5 -4.5
7800.5 -3.5
7801.5 -1.125
7802.5 -3.5
7803.5 -0.25
7804.5 2
7805.5 1
7806.5 1
7807.5 1.75
7808.5 -0.125
7809.5 0.875
7810.5 1
7811.5 -0.125
7812.5 0.875
7813.5 0.75
7814.5 2
7815.5 0.875
7816.5 0.875
7817.5 1
7818.5 2
7819.5 2
7820.5 -1.625
7821.5 2
7822.5 2.875
7823.5 2.875
7824.5 0.625
7825.5 -1.5
7826.5 1.5
7827.5 2.625
7828.5 1.25
7829.5 5.75
7830.5 -3.5
7831.5 1.625
7832.5 -0.125
7833.5 2.875
7834.5 5
7835.5 -0.125
7836.5 -0.125
7837.5 0.875
7838.5 1
7839.5 2.875
7840.5 -2.25
7841.5 3
7842.5 1
7843.5 2
7844.5 -1.375
7845.5 -1.125
7846.5 2.875
7847.5 0.875
7848.5 0
7849.5 1
7850.5 0
7851.5 0
7852.5 0.875
7853.5 0
7854.5 0
7855.5 2
7856.5 -0.125
7857.5 -1.125
7858.5 1
7859.5 2
7860.5 -0.125
7861.5 3
7862.5 1
7863.5 1
7864.5 1
7865.5 1
7866.5 1
7867.5 2
7868.5 -0.125
7869.5 1
7870.5 0
7871.5 -1.125
7872.5 0.875
7873.5 1
7874.5 1
7875.5 -1.125
7876.5 0
7877.5 1
7878.5 0.875
7879.5 -1.25
7880.5 0
7881.5 2
7882.5 -1.125
7883.5 -2.25
7884.5 0.875
7885.5 1
7886.5 3
7887.5 -1.125
7888.5 0
7889.5 0.875
7890.5 1
7891.5 -0.125
7892.5 -0.25
7893.5 0
7894.5 2
7895.5 2
7896.5 0
7897.5 2
7898.5 -1.125
7899.5 -1.125
7900.5 3
7901.5 1
7902.5 0.875
7903.5 3
7904.5 1.875
7905.5 1
7906.5 0
7907.5 -0.25
7908.5 2
7909.5 2
7910.5 2
7911.5 1
7912.5 0.875
7913.5 0.875
7914.5 2
7915.5 3
7916.5 1
7917.5 -3.375
7918.5 0.875
7919.5 0
7920.5 0
7921.5 0
7922.5 5
7923.5 -0.125
7924.5 1
7925.5 0
7926.5 0
7927.5 -1.125
7928.5 0
7929.5 3
7930.5 0
7931.5 1
7932.5 1.875
7933.5 -0.125
7934.5 0.75
7935.5 -1.125
7936.5 0
7937.5 1
7938.5 2
7939.5 1
7940.5 0
7941.5 0
7942.5 1
7943.5 2
7944.5 -0.125
7945.5 0
7946.5 1
7947.5 1
7948.5 2
7949.5 0
7950.5 1
7951.5 0
7952.5 2
7953.5 -0.125
7954.5 2
7955.5 1.875
7956.5 1
7957.5 1
7958.5 0
7959.5 0
7960.5 2.875
7961.5 1
7962.5 -0.375
7963.5 -0.125
7964.5 -0.125
7965.5 0
7966.5 -1.25
7967.5 1
7968.5 0
7969.5 3
7970.5 -1.25
7971.5 0
7972.5 1
7973.5 0.875
7974.5 1
7975.5 1
7976.5 1
7977.5 -1.125
7978.5 -0.125
7979.5 -1.125
7980.5 -0.25
7981.5 1
7982.5 1
7983.5 -1.375
7984.5 -0.125
7985.5 -1.25
7986.5 1
7987.5 0
7988.5 0.875
7989.5 -1.125
7990.5 -1.25
7991.5 -0.25
7992.5 2
7993.5 1.875
7994.5 -0.125
7995.5 3
7996.5 6
7997.5 -1.375
7998.5 3.875
7999.5 1
8000.5 0.875
8001.5 1.875
8002.5 1.875
8003.5 -0.125
8004.5 4
8005.5 0.875
8006.5 0
8007.5 3
8008.5 1
8009.5 0
8010.5 1
8011.5 0
8012.5 1.875
8013.5 0
8014.5 2
8015.5 2
8016.5 1
8017.5 -0.125
8018.5 1
8019.5 2
8020.5 0
8021.5 1
8022.5 1
8023.5 0
8024.5 -0.125
8025.5 1
8026.5 2
8027.5 -0.125
8028.5 1
8029.5 -0.125
8030.5 0
8031.5 0
8032.5 0
8033.5 0.875
8034.5 2
8035.5 0
8036.5 1
8037.5 0
8038.5 0
8039.5 1
8040.5 1
8041.5 0.875
8042.5 2
8043.5 1
8044.5 -1.125
8045.5 2
8046.5 0
8047.5 1
8048.5 -1.125
8049.5 1
8050.5 -0.25
8051.5 -1.125
8052.5 0
8053.5 -0.125
8054.5 0
8055.5 0
8056.5 -2.375
8057.5 1
8058.5 1
8059.5 2
8060.5 2
8061.5 2
8062.5 0
8063.5 0
8064.5 1
8065.5 -0.25
8066.5 -1.25
8067.5 1
8068.5 -0.125
8069.5 1.875
8070.5 1
8071.5 2
8072.5 -0.125
8073.5 0
8074.5 0
8075.5 -0.125
8076.5 0
8077.5 0
8078.5 1
8079.5 0
8080.5 -0.125
8081.5 1
8082.5 -0.125
8083.5 -2.25
8084.5 0.875
8085.5 3.875
8086.5 3
8087.5 3.625
8088.5 0.875
8089.5 -0.125
8090.5 2
8091.5 1
8092.5 -0.125
8093.5 1
8094.5 1
8095.5 -1.25
8096.5 2
8097.5 1
8098.5 -1.125
8099.5 2
8100.5 1
8101.5 0
8102.5 0
8103.5 3
8104.5 4
8105.5 0
8106.5 1
8107.5 0
8108.5 0
8109.5 -1.125
8110.5 0
8111.5 0
8112.5 -2.25
8113.5 3
8114.5 0
8115.5 0
8116.5 -1.125
8117.5 -1.25
8118.5 1
8119.5 -1.125
8120.5 1
8121.5 -0.125
8122.5 0
8123.5 2
8124.5 -1.125
8125.5 -1.25
8126.5 2
8127.5 -1.125
8128.5 0
8129.5 0
8130.5 1
8131.5 3
8132.5 0
8133.5 1
8134.5 0
8135.5 1
8136.5 -0.125
8137.5 1
8138.5 0
8139.5 0
8140.5 0
8141.5 0
8142.5 1
8143.5 0.875
8144.5 0
8145.5 -1.125
8146.5 -0.125
8147.5 -1.125
8148.5 1.875
8149.5 -1.125
8150.5 0
8151.5 1
8152.5 1
8153.5 0
8154.5 -0.125
8155.5 0
8156.5 0
8157.5 2
8158.5 -1.125
8159.5 -1.125
8160.5 4
8161.5 1
8162.5 0.875
8163.5 1
8164.5 1.875
8165.5 1
8166.5 1
8167.5 1
8168.5 1
8169.5 0
8170.5 1
8171.5 -1.125
8172.5 -0.125
8173.5 2
8174.5 1
8175.5 2
8176.5 0
8177.5 -0.125
8178.5 -1.125
8179.5 -1.125
8180.5 1
8181.5 0
8182.5 0
8183.5 1
8184.5 0
8185.5 1
8186.5 0
8187.5 2
8188.5 1
8189.5 2
8190.5 1.875
8191.5 0
8192.5 -1.125
8193.5 2
8194.5 1
8195.5 1
8196.5 -0.125
8197.5 1
8198.5 0
8199.5 0
8200.5 0
8201.5 0
8202.5 0
8203.5 0
8204.5 1
8205.5 0
8206.5 3
8207.5 2
8208.5 -1.125
8209.5 0
8210.5 0
8211.5 1
8212.5 3
8213.5 0
8214.5 0
8215.5 0
8216.5 0
8217.5 1
8218.5 1
8219.5 1
8220.5 0
8221.5 1
8222.5 1
8223.5 1
8224.5 -0.125
8225.5 -1.125
8226.5 -1.125
8227.5 2
8228.5 0
8229.5 1
8230.5 0
8231.5 0
8232.5 0.875
8233.5 0
8234.5 -1.25
8235.5 -1.125
8236.5 2
8237.5 -0.125
8238.5 1
8239.5 -0.125
8240.5 0
8241.5 1
8242.5 -0.125
8243.5 0
8244.5 0
8245.5 3
8246.5 -1.25
8247.5 -0.125
8248.5 3
8249.5 0
8250.5 0
8251.5 0.875
8252.5 1
8253.5 0
8254.5 2
8255.5 1
8256.5 1
8257.5 0
8258.5 -1.125
8259.5 0
8260.5 1
8261.5 0
8262.5 -1.125
8263.5 0
8264.5 0
8265.5 0
8266.5 1
8267.5 1
8268.5 2
8269.5 -0.125
8270.5 1
8271.5 -1.125
8272.5 -0.125
8273.5 1
8274.5 0
8275.5 0
8276.5 -1.125
8277.5 1
8278.5 2
8279.5 0
8280.5 0
8281.5 -0.125
8282.5 1
8283.5 2
8284.5 -1.125
8285.5 0
8286.5 1
8287.5 1
8288.5 -1.125
8289.5 0
8290.5 -0.125
8291.5 1
8292.5 1
8293.5 1
8294.5 2
8295.5 -0.125
8296.5 1
8297.5 0
8298.5 -1.125
8299.5 -1.125
8300.5 1
8301.5 2
8302.5 -0.125
8303.5 0
8304.5 -0.125
8305.5 0
8306.5 1
8307.5 2
8308.5 -2.25
8309.5 1
8310.5 -0.125
8311.5 2
8312.5 2
8313.5 1
8314.5 0
8315.5 1
8316.5 -0.125
8317.5 -1.125
8318.5 0
8319.5 -1.125
8320.5 -0.125
8321.5 3
8322.5 0
8323.5 0
8324.5 -1.125
8325.5 2
8326.5 1
8327.5 0
8328.5 0
8329.5 0
8330.5 1
8331.5 -1.125
8332.5 -0.125
8333.5 2
8334.5 2
8335.5 0
8336.5 1
8337.5 1
8338.5 2
8339.5 0
8340.5 1
8341.5 -1.25
8342.5 1
8343.5 -1.125
8344.5 3
8345.5 -1.125
8346.5 2
8347.5 -1.125
8348.5 -1.125
8349.5 1
8350.5 1
8351.5 1
8352.5 2
8353.5 -0.125
8354.5 0
8355.5 -1.125
8356.5 0
8357.5 -0.125
8358.5 2
8359.5 1
8360.5 0
8361.5 1
8362.5 0
8363.5 1
8364.5 1
8365.5 0
8366.5 0
8367.5 0
8368.5 1
8369.5 0
8370.5 -0.125
8371.5 -1.125
8372.5 1
8373.5 -0.125
8374.5 2
8375.5 2
8376.5 1
8377.5 0
8378.5 2
8379.5 0
8380.5 1
8381.5 -1.125
8382.5 0
8383.5 1.875
8384.5 1
8385.5 0
8386.5 0
8387.5 0
8388.5 0
8389.5 2
8390.5 1
8391.5 0
8392.5 0
8393.5 0.875
8394.5 0.875
8395.5 0
8396.5 -1.25
8397.5 0
8398.5 -0.125
8399.5 0
8400.5 0
8401.5 0
8402.5 0
8403.5 0
8404.5 0
8405.5 -1.125
8406.5 3
8407.5 0
8408.5 -2.25
8409.5 1
8410.5 1
8411.5 2
8412.5 2
8413.5 2
8414.5 1.875
8415.5 2
8416.5 1
8417.5 0
8418.5 2
8419.5 4
8420.5 0.875
8421.5 -2.25
8422.5 2
8423.5 1
8424.5 2
8425.5 0
8426.5 1
8427.5 0
8428.5 1
8429.5 0
8430.5 2
8431.5 0
8432.5 1
8433.5 1
8434.5 1
8435.5 1
8436.5 1
8437.5 -3.375
8438.5 1
8439.5 0
8440.5 0
8441.5 1
8442.5 2
8443.5 -2.25
8444.5 -1.125
8445.5 -0.125
8446.5 -0.125
8447.5 0
8448.5 -1.125
8449.5 0
8450.5 -0.125
8451.5 0
8452.5 0
8453.5 0
8454.5 0
8455.5 1
8456.5 1
8457.5 -0.125
8458.5 -2.25
8459.5 3
8460.5 1
8461.5 1
8462.5 -1.125
8463.5 0
8464.5 1
8465.5 -1.125
8466.5 1
8467.5 2
8468.5 -1.25
8469.5 1
8470.5 -1.25
8471.5 -1.25
8472.5 2
8473.5 1
8474.5 -0.125
8475.5 1
8476.5 0
8477.5 1
8478.5 0
8479.5 1
8480.5 2
8481.5 1
8482.5 -0.125
8483.5 -0.125
8484.5 1
8485.5 1
8486.5 2
8487.5 0
8488.5 1
8489.5 0
8490.5 1
8491.5 0
8492.5 2
8493.5 -0.125
8494.5 1
8495.5 -0.125
8496.5 0
8497.5 1
8498.5 2
8499.5 0
8500.5 -2.25
8501.5 2
8502.5 -1.125
8503.5 0
8504.5 -2.25
8505.5 -0.125
8506.5 1
8507.5 0
8508.5 1
8509.5 1
8510.5 0
8511.5 1
8512.5 -1.125
8513.5 0
8514.5 1
8515.5 -1.125
8516.5 0
8517.5 0
8518.5 1
8519.5 1
8520.5 -1.125
8521.5 1
8522.5 1
8523.5 0
8524.5 0
8525.5 0
8526.5 0
8527.5 0
8528.5 -0.125
8529.5 1
8530.5 3
8531.5 -1.125
8532.5 -1.125
8533.5 3
8534.5 0
8535.5 1
8536.5 0
8537.5 1
8538.5 0
8539.5 1
8540.5 1
8541.5 0
8542.5 0
8543.5 0
8544.5 1
8545.5 -2.25
8546.5 1
8547.5 -0.125
8548.5 0
8549.5 0
8550.5 0
8551.5 1
8552.5 -0.125
8553.5 0
8554.5 2
8555.5 1
8556.5 1
8557.5 0
8558.5 1
8559.5 -1.125
8560.5 0
8561.5 0
8562.5 0
8563.5 0
8564.5 -0.25
8565.5 1
8566.5 0.875
8567.5 1
8568.5 0
8569.5 -0.125
8570.5 -1.125
8571.5 2
8572.5 0
8573.5 0.875
8574.5 0
8575.5 0
8576.5 1
8577.5 1
8578.5 0
8579.5 1
8580.5 0
8581.5 0
8582.5 1
8583.5 0
8584.5 1
8585.5 2
8586.5 2
8587.5 -1.125
8588.5 0
8589.5 3
8590.5 0
8591.5 1
8592.5 0
8593.5 0
8594.5 0
8595.5 2
8596.5 0
8597.5 -1.125
8598.5 0
8599.5 -1.125
8600.5 1
8601.5 0
8602.5 0
8603.5 -1.125
8604.5 1
8605.5 1
8606.5 0
8607.5 0
8608.5 2
8609.5 1
8610.5 1
8611.5 2
8612.5 0
8613.5 1
8614.5 0
8615.5 0
8616.5 0
8617.5 1
8618.5 1
8619.5 0
8620.5 0
8621.5 0
8622.5 0
8623.5 0
8624.5 0
8625.5 1
8626.5 -0.125
8627.5 1
8628.5 -1.125
8629.5 1
8630.5 0
8631.5 1
8632.5 0
8633.5 0
8634.5 -1.125
8635.5 1
8636.5 -0.125
8637.5 2
8638.5 -1.125
8639.5 2
8640.5 1
8641.5 0
8642.5 0
8643.5 0
8644.5 2
8645.5 -1.125
8646.5 1
8647.5 0
8648.5 1
8649.5 0
8650.5 0
8651.5 -1.125
8652.5 -0.125
8653.5 -1.125
8654.5 0
8655.5 0
8656.5 2
8657.5 1
8658.5 2
8659.5 -1.125
8660.5 0
8661.5 0
8662.5 1
8663.5 1
8664.5 1
8665.5 0
8666.5 0
8667.5 0
8668.5 0
8669.5 -0.125
8670.5 2
8671.5 1
8672.5 0
8673.5 0
8674.5 0
8675.5 1
8676.5 0
8677.5 0
8678.5 0
8679.5 1
8680.5 1
8681.5 0
8682.5 -1.125
8683.5 0
8684.5 -1.125
8685.5 0
8686.5 0
8687.5 1
8688.5 1
8689.5 1
8690.5 1
8691.5 0
8692.5 1
8693.5 1
8694.5 -1.125
8695.5 -1.125
8696.5 -1.125
8697.5 -0.125
8698.5 0
8699.5 0
8700.5 0.875
8701.5 0
8702.5 1
8703.5 1
8704.5 0
8705.5 1
8706.5 0
8707.5 -1.125
8708.5 1
8709.5 0
8710.5 0
8711.5 1
8712.5 -0.125
8713.5 0
8714.5 -1.125
8715.5 0
8716.5 1
8717.5 1
8718.5 0
8719.5 -0.125
8720.5 0
8721.5 -0.125
8722.5 -0.125
8723.5 1
8724.5 0
8725.5 2
8726.5 0
8727.5 1
8728.5 0
8729.5 -0.125
8730.5 0
8731.5 0
8732.5 2
8733.5 0
8734.5 0
8735.5 -1.25
8736.5 0
8737.5 0
8738.5 0
8739.5 0
8740.5 -1.125
8741.5 1
8742.5 0
8743.5 0
8744.5 1
8745.5 0
8746.5 0
8747.5 0
8748.5 0
8749.5 0
8750.5 0
8751.5 1
8752.5 0
8753.5 0
8754.5 0
8755.5 0
8756.5 1
8757.5 1
8758.5 0
8759.5 0
8760.5 1
8761.5 1
8762.5 0
8763.5 1
8764.5 -2.25
8765.5 0
8766.5 0
8767.5 0
8768.5 -1.25
8769.5 -0.125
8770.5 0
8771.5 0
8772.5 -1.125
8773.5 0
8774.5 0
8775.5 0
8776.5 1
8777.5 0
8778.5 -0.125
8779.5 0
8780.5 0
8781.5 2
8782.5 0
8783.5 -1.125
8784.5 0
8785.5 1
8786.5 0
8787.5 1
8788.5 0
8789.5 0
8790.5 1
8791.5 1
8792.5 -0.125
8793.5 0
8794.5 -2.25
8795.5 -1.125
8796.5 1
8797.5 0
8798.5 0
8799.5 0
8800.5 0
8801.5 0
8802.5 -0.125
8803.5 0
8804.5 0
8805.5 0
8806.5 0
8807.5 2
8808.5 2
8809.5 1
8810.5 1
8811.5 0
8812.5 0
8813.5 0
8814.5 1
8815.5 2
8816.5 -1.125
8817.5 0.875
8818.5 0
8819.5 0
8820.5 0.875
8821.5 0
8822.5 1
8823.5 0
8824.5 0
8825.5 0
8826.5 0
8827.5 2
8828.5 0
8829.5 1
8830.5 0
8831.5 1
8832.5 0
8833.5 0
8834.5 0
8835.5 1
8836.5 0
8837.5 2
8838.5 0
8839.5 0
8840.5 1
8841.5 3
8842.5 -2.25
8843.5 0.875
8844.5 0
8845.5 0
8846.5 0
8847.5 -0.125
8848.5 0
8849.5 2
8850.5 -0.125
8851.5 0
8852.5 2
8853.5 0
8854.5 1
8855.5 2
8856.5 -0.125
8857.5 0
8858.5 0
8859.5 1
8860.5 0
8861.5 -1.125
8862.5 1
8863.5 0
8864.5 0
8865.5 -0.125
8866.5 0
8867.5 1
8868.5 -1.125
8869.5 0
8870.5 -1.125
8871.5 0
8872.5 0
8873.5 0
8874.5 1
8875.5 1
8876.5 0
8877.5 0
8878.5 1
8879.5 0
8880.5 0
8881.5 0
8882.5 -1.125
8883.5 0
8884.5 0
8885.5 0
8886.5 0
8887.5 0
8888.5 0
8889.5 0
8890.5 1
8891.5 1
8892.5 0
8893.5 0
8894.5 0
8895.5 1
8896.5 1
8897.5 0
8898.5 0
8899.5 0
8900.5 1
8901.5 0.875
8902.5 0
8903.5 0
8904.5 0
8905.5 0
8906.5 0
8907.5 0
8908.5 1
8909.5 0
8910.5 0
8911.5 3
8912.5 -1.125
8913.5 0
8914.5 -1.125
8915.5 0
8916.5 0
8917.5 1
8918.5 0
8919.5 0
8920.5 -1.125
8921.5 -1.125
8922.5 1
8923.5 3
8924.5 3
8925.5 1
8926.5 1.875
8927.5 5.875
8928.5 4
8929.5 2
8930.5 2
8931.5 2
8932.5 2
8933.5 2
8934.5 3
8935.5 1
8936.5 2
8937.5 1
8938.5 0
8939.5 0
8940.5 0
8941.5 1
8942.5 0
8943.5 0
8944.5 0
8945.5 0
8946.5 -1.125
8947.5 1
8948.5 1
8949.5 1
8950.5 0
8951.5 -1.125
8952.5 0
8953.5 1
8954.5 0
8955.5 1
8956.5 1
8957.5 1
8958.5 0
8959.5 -1.125
8960.5 0
8961.5 0
8962.5 0
8963.5 -1.125
8964.5 0
8965.5 -0.125
8966.5 0
8967.5 0
8968.5 0
8969.5 0
8970.5 0
8971.5 0
8972.5 0
8973.5 0
8974.5 0
8975.5 1
8976.5 0
8977.5 1
8978.5 1
8979.5 0
8980.5 0
8981.5 0
8982.5 1
8983.5 0
8984.5 1
8985.5 0
8986.5 2
8987.5 -1.125
8988.5 0
8989.5 1
8990.5 -1.125
8991.5 0
8992.5 1
8993.5 -1.125
8994.5 0
8995.5 0
8996.5 -0.125
8997.5 0
8998.5 1
8999.5 1
9000.5 0
9001.5 0
9002.5 -1.125
9003.5 -0.125
9004.5 -1.125
9005.5 -0.125
9006.5 0
9007.5 1
9008.5 0
9009.5 -0.125
9010.5 0
9011.5 0
9012.5 0
9013.5 1
9014.5 0
9015.5 0
9016.5 0
9017.5 0
9018.5 0
9019.5 0
9020.5 1
9021.5 0
9022.5 -1.125
9023.5 -1.125
9024.5 0
9025.5 0
9026.5 1
9027.5 0
9028.5 0
9029.5 1
9030.5 0
9031.5 -1.125
9032.5 0
9033.5 0
9034.5 1
9035.5 0
9036.5 1
9037.5 0
9038.5 -0.125
9039.5 -1.125
9040.5 -1.125
9041.5 0
9042.5 -1.125
9043.5 0
9044.5 2
9045.5 0
9046.5 0
9047.5 0
9048.5 0
9049.5 0
9050.5 0
9051.5 0
9052.5 2
9053.5 -0.125
9054.5 0
9055.5 1
9056.5 -0.125
9057.5 0
9058.5 0
9059.5 1
9060.5 0
9061.5 0
9062.5 0
9063.5 0
9064.5 0
9065.5 1
9066.5 1
9067.5 0
9068.5 -1.125
9069.5 0
9070.5 1
9071.5 0
9072.5 0
9073.5 0
9074.5 0
9075.5 0
9076.5 1
9077.5 0
9078.5 0
9079.5 0
9080.5 1
9081.5 0
9082.5 1
9083.5 0
9084.5 1
9085.5 0
9086.5 0
9087.5 1
9088.5 -1.125
9089.5 1
9090.5 1
9091.5 -1.125
9092.5 0
9093.5 0
9094.5 0
9095.5 -1.125
9096.5 0
9097.5 0
9098.5 0
9099.5 0
9100.5 0
9101.5 0
9102.5 1
9103.5 1
9104.5 -1.125
9105.5 0
9106.5 0
9107.5 0
9108.5 0
9109.5 0
9110.5 0
9111.5 0
9112.5 0
9113.5 0
9114.5 0
9115.5 2
9116.5 -1.125
9117.5 0
9118.5 0
9119.5 2
9120.5 0
9121.5 0
9122.5 0
9123.5 0
9124.5 0
9125.5 0
9126.5 0
9127.5 0
9128.5 0
9129.5 0
9130.5 0
9131.5 0
9132.5 0
9133.5 0
9134.5 0
9135.5 0
9136.5 2
9137.5 -1.25
9138.5 1
9139.5 1
9140.5 0
9141.5 0
9142.5 0
9143.5 0
9144.5 1
9145.5 0
9146.5 0
9147.5 0
9148.5 0
9149.5 0
9150.5 0
9151.5 0
9152.5 -1.125
9153.5 0
9154.5 0
9155.5 -1.125
9156.5 0
9157.5 0
9158.5 0
9159.5 0
9160.5 0
9161.5 1
9162.5 0
9163.5 0
9164.5 0
9165.5 -1.125
9166.5 1
9167.5 0
9168.5 0
9169.5 0
9170.5 0
9171.5 -1.125
9172.5 -1.125
9173.5 0
9174.5 0
9175.5 -0.125
9176.5 0
9177.5 -1.125
9178.5 1
9179.5 0
9180.5 0
9181.5 0
9182.5 0
9183.5 0
9184.5 1
9185.5 2
9186.5 0
9187.5 0
9188.5 0
9189.5 0
9190.5 1
9191.5 0
9192.5 -1.125
9193.5 0
9194.5 0
9195.5 0
9196.5 -1.125
9197.5 0
9198.5 -1.125
9199.5 -1.125
9200.5 0
9201.5 0
9202.5 -1.125
9203.5 0
9204.5 0
9205.5 0
9206.5 0
9207.5 0
9208.5 0
9209.5 1
9210.5 0
9211.5 0
9212.5 0
9213.5 -1.125
9214.5 0
9215.5 0
9216.5 1
9217.5 0
9218.5 0
9219.5 -1.125
9220.5 0
9221.5 0
9222.5 0
9223.5 0
9224.5 1
9225.5 0
9226.5 1
9227.5 0
9228.5 0
9229.5 0
9230.5 -1.125
9231.5 -1.125
9232.5 0
9233.5 0
9234.5 1
9235.5 1
9236.5 0
9237.5 -1.125
9238.5 1
9239.5 0
9240.5 0.875
9241.5 0
9242.5 0
9243.5 -2.25
9244.5 0
9245.5 1
9246.5 0
9247.5 0
9248.5 -0.125
9249.5 0
9250.5 0
9251.5 -1.125
9252.5 0
9253.5 0
9254.5 0
9255.5 0
9256.5 0
9257.5 0
9258.5 0
9259.5 0
9260.5 0
9261.5 1
9262.5 0
9263.5 0
9264.5 0
9265.5 0
9266.5 -1.125
9267.5 0
9268.5 1
9269.5 -0.125
9270.5 -0.125
9271.5 -1.125
9272.5 0
9273.5 0
9274.5 -1.125
9275.5 -1.125
9276.5 0
9277.5 1
9278.5 0
9279.5 -1.125
9280.5 0
9281.5 0
9282.5 0
9283.5 1
9284.5 1
9285.5 2
9286.5 0
9287.5 1
9288.5 -1.125
9289.5 0
9290.5 0
9291.5 0
9292.5 0
9293.5 0
9294.5 0
9295.5 0
9296.5 -1.125
9297.5 0
9298.5 -1.125
9299.5 0
9300.5 -0.125
9301.5 -1.125
9302.5 0
9303.5 0
9304.5 0
9305.5 1
9306.5 0
9307.5 1
9308.5 0
9309.5 0
9310.5 0
9311.5 0
9312.5 -1.125
9313.5 0
9314.5 -1.125
9315.5 1
9316.5 0
9317.5 0
9318.5 0
9319.5 0
9320.5 0
9321.5 1
9322.5 0
9323.5 0
9324.5 0
9325.5 1
9326.5 0
9327.5 0
9328.5 0
9329.5 -1.125
9330.5 0
9331.5 -1.125
9332.5 0
9333.5 0
9334.5 0
9335.5 0
9336.5 1
9337.5 0
9338.5 1
9339.5 0
9340.5 1
9341.5 0
9342.5 1
9343.5 -1.125
9344.5 0
9345.5 0
9346.5 -1.125
9347.5 0
9348.5 2
9349.5 0
9350.5 0
9351.5 -0.125
9352.5 0
9353.5 0
9354.5 0
9355.5 2
9356.5 0
9357.5 0
9358.5 0
9359.5 0
9360.5 0
9361.5 0
9362.5 -1.125
9363.5 0
9364.5 1
9365.5 0
9366.5 0
9367.5 0
9368.5 0
9369.5 -0.125
9370.5 0
9371.5 -1.125
9372.5 0
9373.5 0
9374.5 0
9375.5 0
9376.5 -1.125
9377.5 0
9378.5 0
9379.5 0
9380.5 0
9381.5 -1.125
9382.5 0
9383.5 0
9384.5 0
9385.5 0
9386.5 0
9387.5 0
9388.5 0
9389.5 0
9390.5 0
9391.5 1
9392.5 1
9393.5 1
9394.5 0
9395.5 0
9396.5 0
9397.5 0
9398.5 -1.125
9399.5 -1.125
9400.5 0
9401.5 0
9402.5 1
9403.5 -1.125
9404.5 1
9405.5 -0.125
9406.5 0
9407.5 1
9408.5 1
9409.5 0
9410.5 0
9411.5 0
9412.5 0
9413.5 1
9414.5 0
9415.5 -1.125
9416.5 -1.125
9417.5 2
9418.5 -0.125
9419.5 0
9420.5 0
9421.5 0
9422.5 0
9423.5 1
9424.5 0
9425.5 0
9426.5 0
9427.5 0
9428.5 -1.125
9429.5 -1.125
9430.5 0
9431.5 0
9432.5 0
9433.5 -0.125
9434.5 1
9435.5 0
9436.5 0
9437.5 0
9438.5 0
9439.5 -1.125
9440.5 0
9441.5 -2.25
9442.5 0
9443.5 0
9444.5 0
9445.5 0
9446.5 -1.125
9447.5 -1.125
9448.5 1
9449.5 1
9450.5 0
9451.5 -1.125
9452.5 0
9453.5 0
9454.5 0
9455.5 1
9456.5 1
9457.5 0
9458.5 0
9459.5 0
9460.5 0
9461.5 0
9462.5 0
9463.5 0
9464.5 -1.125
9465.5 1
9466.5 0
9467.5 0
9468.5 1
9469.5 0
9470.5 1
9471.5 0
9472.5 0
9473.5 -1.125
9474.5 0
9475.5 0
9476.5 0
9477.5 -0.125
9478.5 0
9479.5 1
9480.5 0
9481.5 1
9482.5 0
9483.5 1
9484.5 0
9485.5 1
9486.5 0
9487.5 0
9488.5 0
9489.5 0
9490.5 0
9491.5 0
9492.5 0
9493.5 0
9494.5 0
9495.5 0
9496.5 0
9497.5 0
9498.5 0
9499.5 0
9500.5 0
9501.5 0
9502.5 0
9503.5 0
9504.5 0
9505.5 1
9506.5 0
9507.5 0
9508.5 0
9509.5 0
9510.5 0
9511.5 0
9512.5 0
9513.5 0
9514.5 1
9515.5 0
9516.5 0
9517.5 0
9518.5 0
9519.5 0
9520.5 0
9521.5 0
9522.5 -1.125
9523.5 0
9524.5 0
9525.5 0
9526.5 0
9527.5 -0.125
9528.5 0
9529.5 0
9530.5 -2.25
9531.5 0
9532.5 1
9533.5 0
9534.5 1
9535.5 0
9536.5 0
9537.5 2
9538.5 0
9539.5 0
9540.5 1
9541.5 0
9542.5 0
9543.5 1
9544.5 0
9545.5 0
9546.5 0
9547.5 0
9548.5 -2.25
9549.5 0
9550.5 0
9551.5 0
9552.5 -1.125
9553.5 0
9554.5 1
9555.5 0
9556.5 0
9557.5 0
9558.5 -1.125
9559.5 1
9560.5 2
9561.5 0
9562.5 0
9563.5 0
9564.5 2
9565.5 0
9566.5 0
9567.5 0
9568.5 0
9569.5 -1.125
9570.5 0
9571.5 0
9572.5 0
9573.5 0
9574.5 0
9575.5 0
9576.5 0
9577.5 0
9578.5 0
9579.5 0
9580.5 1
9581.5 1
9582.5 0
9583.5 0
9584.5 0
9585.5 0
9586.5 1
9587.5 0
9588.5 0
9589.5 0
9590.5 -1.125
9591.5 1
9592.5 1
9593.5 0
9594.5 0
9595.5 0
9596.5 0
9597.5 -1.125
9598.5 0
9599.5 0
9600.5 0
9601.5 0
9602.5 1
9603.5 0
9604.5 0
9605.5 0
9606.5 0
9607.5 0
9608.5 0
9609.5 0
9610.5 0
9611.5 0
9612.5 0
9613.5 0
9614.5 0
9615.5 0
9616.5 1
9617.5 -1.125
9618.5 -1.125
9619.5 0
9620.5 0
9621.5 -0.125
9622.5 0
9623.5 0
9624.5 0
9625.5 0
9626.5 0
9627.5 0
9628.5 0
9629.5 1
9630.5 0
9631.5 0
9632.5 0
9633.5 1
9634.5 1
9635.5 0
9636.5 1
9637.5 0
9638.5 0
9639.5 0
9640.5 0
9641.5 0
9642.5 0
9643.5 1
9644.5 0
9645.5 0
9646.5 0
9647.5 2
9648.5 -1.125
9649.5 0
9650.5 0
9651.5 -1.125
9652.5 0
9653.5 0
9654.5 1
9655.5 0
9656.5 0
9657.5 -1.125
9658.5 0
9659.5 0
9660.5 0
9661.5 0
9662.5 0
9663.5 0
9664.5 0
9665.5 0
9666.5 0
9667.5 0
9668.5 0
9669.5 0
9670.5 0
9671.5 0
9672.5 0
9673.5 0
9674.5 0
9675.5 0
9676.5 0
9677.5 0
9678.5 0
9679.5 0
9680.5 0
9681.5 0
9682.5 0
9683.5 0
9684.5 0
9685.5 0
9686.5 0
9687.5 0
9688.5 0
9689.5 0
9690.5 -1.125
9691.5 0
9692.5 0
9693.5 0
9694.5 0
9695.5 0
9696.5 0
9697.5 0
9698.5 0
9699.5 0
9700.5 0
9701.5 0
9702.5 0
9703.5 0
9704.5 0
9705.5 -0.125
9706.5 0
9707.5 0
9708.5 1
9709.5 0
9710.5 -1.125
9711.5 0
9712.5 0
9713.5 2
9714.5 0
9715.5 0
9716.5 -1.125
9717.5 1
9718.5 0
9719.5 0
9720.5 0
9721.5 0
9722.5 0
9723.5 1
9724.5 0
9725.5 1
9726.5 0
9727.5 0
9728.5 0
9729.5 0
9730.5 1
9731.5 0
9732.5 0
9733.5 0
9734.5 0
9735.5 0
9736.5 0
9737.5 0
9738.5 0
9739.5 1
9740.5 0
9741.5 0
9742.5 0
9743.5 0
9744.5 0
9745.5 0
9746.5 0
9747.5 0
9748.5 -1.125
9749.5 0
9750.5 0
9751.5 0
9752.5 0
9753.5 0
9754.5 -0.125
9755.5 0
9756.5 -1.125
9757.5 0
9758.5 0
9759.5 0
9760.5 0
9761.5 0
9762.5 0
9763.5 0
9764.5 0
9765.5 0
9766.5 1
9767.5 0
9768.5 0
9769.5 1
9770.5 1
9771.5 1
9772.5 0
9773.5 -0.125
9774.5 0
9775.5 0
9776.5 0
9777.5 0
9778.5 0
9779.5 1
9780.5 0
9781.5 0
9782.5 0
9783.5 0
9784.5 0
9785.5 0
9786.5 0
9787.5 1
9788.5 -1.125
9789.5 0
9790.5 0
9791.5 -1.125
9792.5 0
9793.5 -1.125
9794.5 0
9795.5 0
9796.5 0
9797.5 0
9798.5 0
9799.5 1
9800.5 0
9801.5 0
9802.5 0
9803.5 0
9804.5 0
9805.5 0
9806.5 0
9807.5 0
9808.5 0
9809.5 -1.125
9810.5 0
9811.5 0
9812.5 0
9813.5 0
9814.5 0
9815.5 0
9816.5 0
9817.5 0
9818.5 1
9819.5 0
9820.5 0
9821.5 0
9822.5 0
9823.5 0
9824.5 0
9825.5 0
9826.5 0
9827.5 0
9828.5 1
9829.5 0
9830.5 0
9831.5 0
9832.5 0
9833.5 2
9834.5 0
9835.5 0
9836.5 0
9837.5 0
9838.5 0
9839.5 0
9840.5 0
9841.5 0
9842.5 0
9843.5 0
9844.5 0
9845.5 0
9846.5 0
9847.5 0
9848.5 0
9849.5 1
9850.5 0
9851.5 0
9852.5 0
9853.5 0
9854.5 0
9855.5 0
9856.5 0
9857.5 0
9858.5 -1.125
9859.5 0
9860.5 0
9861.5 0
9862.5 0
9863.5 0
9864.5 0
9865.5 0
9866.5 0
9867.5 0
9868.5 0
9869.5 0
9870.5 -0.125
9871.5 0
9872.5 -1.125
9873.5 0
9874.5 0
9875.5 0
9876.5 0
9877.5 0
9878.5 1
9879.5 0
9880.5 0
9881.5 -1.125
9882.5 0
9883.5 0
9884.5 0
9885.5 0
9886.5 0
9887.5 0
9888.5 0
9889.5 0
9890.5 1
9891.5 0
9892.5 0
9893.5 0
9894.5 0
9895.5 0
9896.5 0
9897.5 0
9898.5 0
9899.5 0
9900.5 0
9901.5 0
9902.5 0
9903.5 0
9904.5 0
9905.5 1
9906.5 0
9907.5 0
9908.5 0
9909.5 0
9910.5 0
9911.5 0
9912.5 0
9913.5 0
9914.5 0
9915.5 0
9916.5 0
9917.5 0
9918.5 -1.125
9919.5 0
9920.5 0
9921.5 0
9922.5 0
9923.5 0
9924.5 0
9925.5 0
9926.5 0
9927.5 0
9928.5 1
9929.5 0
9930.5 0
9931.5 0
9932.5 0
9933.5 0
9934.5 0
9935.5 0
9936.5 -1.125
9937.5 0
9938.5 0
9939.5 0
9940.5 0
9941.5 1
9942.5 0
9943.5 1
9944.5 0
9945.5 0
9946.5 0
9947.5 0
9948.5 0
9949.5 0
9950.5 0
9951.5 0
9952.5 0
9953.5 0
9954.5 0
9955.5 0
9956.5 0
9957.5 0
9958.5 0
9959.5 0
9960.5 0
9961.5 0
9962.5 1
9963.5 0
9964.5 0
9965.5 0
9966.5 1
9967.5 0
9968.5 0
9969.5 0
9970.5 -1.125
9971.5 -1.125
9972.5 0
9973.5 1
9974.5 0
9975.5 0
9976.5 1
9977.5 0
9978.5 0
9979.5 0
9980.5 0
9981.5 0
9982.5 0
9983.5 0
9984.5 0
9985.5 1
9986.5 0
9987.5 0
9988.5 0
9989.5 0
9990.5 0
9991.5 0
9992.5 0
9993.5 0
9994.5 0
9995.5 0
9996.5 -1.125
9997.5 0
9998.5 0
9999.5 0
10000.5 0
10001.5 0
10002.5 0
10003.5 0
10004.5 0
10005.5 0
10006.5 0
10007.5 0
10008.5 0
10009.5 0
10010.5 0
10011.5 0
10012.5 0
10013.5 0
10014.5 0
10015.5 0
10016.5 0
10017.5 0
10018.5 0
10019.5 0
10020.5 0
10021.5 0
10022.5 0
10023.5 0
10024.5 -1.125
10025.5 0
10026.5 0
10027.5 0
10028.5 0
10029.5 0
10030.5 0
10031.5 -1.125
10032.5 0
10033.5 0
10034.5 0
10035.5 0
10036.5 0
10037.5 0
10038.5 0
10039.5 0
10040.5 0
10041.5 0
10042.5 0
10043.5 0
10044.5 0
10045.5 0
10046.5 0
10047.5 0
10048.5 0
10049.5 0
10050.5 0
10051.5 0
10052.5 0
10053.5 0
10054.5 -1.125
10055.5 0
10056.5 0
10057.5 0
10058.5 1
10059.5 0
10060.5 0
10061.5 0
10062.5 1
10063.5 0
10064.5 0
10065.5 -1.125
10066.5 0
10067.5 0
10068.5 0
10069.5 0
10070.5 0
10071.5 0
10072.5 0
10073.5 1
10074.5 0
10075.5 0
10076.5 0
10077.5 0
10078.5 0
10079.5 0
10080.5 0
10081.5 0
10082.5 1
10083.5 0
10084.5 0
10085.5 0
10086.5 0
10087.5 0
10088.5 0
10089.5 0
10090.5 0
10091.5 0
10092.5 0
10093.5 0
10094.5 0
10095.5 0
10096.5 0
10097.5 0
10098.5 0
10099.5 0
10100.5 -1.125
10101.5 0
10102.5 1
10103.5 0
10104.5 0
10105.5 0
10106.5 0
10107.5 0
10108.5 0
10109.5 2
10110.5 0
10111.5 0
10112.5 0
10113.5 0
10114.5 0
10115.5 0
10116.5 0
10117.5 0
10118.5 0
10119.5 0
10120.5 0
10121.5 0
10122.5 0
10123.5 1
10124.5 0
10125.5 0
10126.5 0
10127.5 0
10128.5 0
10129.5 0
10130.5 0
10131.5 0
10132.5 1
10133.5 0
10134.5 0
10135.5 0
10136.5 1
10137.5 0
10138.5 0
10139.5 0
10140.5 0
10141.5 0
10142.5 0
10143.5 0
10144.5 0
10145.5 0
10146.5 -1.125
10147.5 0
10148.5 0
10149.5 0
10150.5 0
10151.5 0
10152.5 0
10153.5 1
10154.5 0
10155.5 0
10156.5 -1.125
10157.5 0
10158.5 0
10159.5 -1.125
10160.5 0
10161.5 0
10162.5 0
10163.5 0
10164.5 0
10165.5 0
10166.5 0
10167.5 0
10168.5 0
10169.5 0
10170.5 0
10171.5 0
10172.5 0
10173.5 0
10174.5 0
10175.5 0
10176.5 0
10177.5 0
10178.5 0
10179.5 0
10180.5 0
10181.5 0
10182.5 0
10183.5 0
10184.5 0
10185.5 0
10186.5 0
10187.5 0
10188.5 0
10189.5 0
10190.5 0
10191.5 0
10192.5 0
10193.5 0
10194.5 0
10195.5 0
10196.5 0
10197.5 0
10198.5 0
10199.5 0
10200.5 0
10201.5 0
10202.5 0
10203.5 0
10204.5 0
10205.5 0
10206.5 -1.125
10207.5 0
10208.5 0
10209.5 0
10210.5 0
10211.5 0
10212.5 0
10213.5 0
10214.5 0
10215.5 0
10216.5 0
10217.5 0
10218.5 0
10219.5 0
10220.5 0
10221.5 0
10222.5 0
10223.5 0
10224.5 0
10225.5 0
10226.5 0
10227.5 0
10228.5 0
10229.5 0
10230.5 0
10231.5 0
10232.5 0
10233.5 0
10234.5 0
10235.5 0
10236.5 0
10237.5 0
10238.5 0
10239.5 0
10240.5 0
10241.5 0
10242.5 0
10243.5 0
10244.5 0
10245.5 0
10246.5 0
10247.5 0
10248.5 0
10249.5 0
10250.5 0
10251.5 0
10252.5 0
10253.5 0
10254.5 0
10255.5 0
10256.5 0
10257.5 0
10258.5 0
10259.5 0
10260.5 0
10261.5 0
10262.5 0
10263.5 0
10264.5 0
10265.5 0
10266.5 0
10267.5 1
10268.5 0
10269.5 0
10270.5 0
10271.5 0
10272.5 0
10273.5 0
10274.5 -1.125
10275.5 0
10276.5 0
10277.5 0
10278.5 0
10279.5 0
10280.5 0
10281.5 0
10282.5 0
10283.5 0
10284.5 0
10285.5 0
10286.5 0
10287.5 0
10288.5 0
10289.5 0
10290.5 0
10291.5 0
10292.5 0
10293.5 0
10294.5 0
10295.5 0
10296.5 0
10297.5 0
10298.5 -1.125
10299.5 0
10300.5 0
10301.5 0
10302.5 0
10303.5 0
10304.5 0
10305.5 0
10306.5 1
10307.5 1
10308.5 0
10309.5 0
10310.5 0
10311.5 -1.125
10312.5 0
10313.5 0
10314.5 0
10315.5 0
10316.5 1
10317.5 0
10318.5 1
10319.5 0
10320.5 0
10321.5 0
10322.5 0
10323.5 0
10324.5 0
10325.5 0
10326.5 0
10327.5 0
10328.5 1
10329.5 0
10330.5 0
10331.5 0
10332.5 0
10333.5 0
10334.5 1
10335.5 0
10336.5 0
10337.5 0
10338.5 -1.125
10339.5 0
10340.5 0
10341.5 0
10342.5 0
10343.5 0
10344.5 0
10345.5 -1.125
10346.5 0
10347.5 0
10348.5 0
10349.5 0
10350.5 0
10351.5 0
10352.5 0
10353.5 0
10354.5 0
10355.5 0
10356.5 0
10357.5 0
10358.5 0
10359.5 0
10360.5 0
10361.5 0
10362.5 0
10363.5 0
10364.5 0
10365.5 0
10366.5 0
10367.5 0
10368.5 0
10369.5 0
10370.5 0
10371.5 0
10372.5 0
10373.5 0
10374.5 0
10375.5 0
10376.5 0
10377.5 0
10378.5 0
10379.5 0
10380.5 1
10381.5 0
10382.5 0
10383.5 0
10384.5 0
10385.5 0
10386.5 0
10387.5 0
10388.5 0
10389.5 0
10390.5 0
10391.5 0
10392.5 0
10393.5 1
10394.5 0
10395.5 0
10396.5 0
10397.5 0
10398.5 0
10399.5 0
10400.5 0
10401.5 0
10402.5 0
10403.5 0
10404.5 0
10405.5 0
10406.5 0
10407.5 0
10408.5 0
10409.5 1
10410.5 0
10411.5 0
10412.5 0
10413.5 0
10414.5 1
10415.5 0
10416.5 0
10417.5 0
10418.5 0
10419.5 0
10420.5 0
10421.5 0
10422.5 0
10423.5 0
10424.5 0
10425.5 0
10426.5 0
10427.5 0
10428.5 0
10429.5 0
10430.5 0
10431.5 0
10432.5 0
10433.5 0
10434.5 0
10435.5 0
10436.5 0
10437.5 0
10438.5 0
10439.5 1
10440.5 0
10441.5 0
10442.5 0
10443.5 0
10444.5 0
10445.5 0
10446.5 0
10447.5 0
10448.5 0
10449.5 0
10450.5 0
10451.5 0
10452.5 0
10453.5 0
10454.5 0
10455.5 0
10456.5 0
10457.5 0
10458.5 0
10459.5 0
10460.5 0
10461.5 0
10462.5 0
10463.5 0
10464.5 0
10465.5 0
10466.5 0
10467.5 -1.125
10468.5 0
10469.5 0
10470.5 0
10471.5 0
10472.5 0
10473.5 0
10474.5 0
10475.5 0
10476.5 0
10477.5 0
10478.5 1
10479.5 0
10480.5 0
10481.5 0
10482.5 0
10483.5 0
10484.5 0
10485.5 0
10486.5 0
10487.5 0
10488.5 0
10489.5 0
10490.5 0
10491.5 0
10492.5 0
10493.5 0
10494.5 0
10495.5 0
10496.5 0
10497.5 0
10498.5 0
10499.5 0
10500.5 0
10501.5 0
10502.5 0
10503.5 0
10504.5 0
10505.5 0
10506.5 0
10507.5 0
10508.5 0
10509.5 0
10510.5 0
10511.5 0
10512.5 0
10513.5 0
10514.5 0
10515.5 0
10516.5 0
10517.5 0
10518.5 0
10519.5 1
10520.5 0
10521.5 0
10522.5 0
10523.5 0
10524.5 0
10525.5 0
10526.5 0
10527.5 0
10528.5 0
10529.5 0
10530.5 0
10531.5 0
10532.5 0
10533.5 0
10534.5 0
10535.5 0
10536.5 0
10537.5 0
10538.5 0
10539.5 0
10540.5 0
10541.5 0
10542.5 0
10543.5 0
10544.5 0
10545.5 0
10546.5 0
10547.5 0
10548.5 0
10549.5 0
10550.5 0
10551.5 0
10552.5 0
10553.5 0
10554.5 0
10555.5 0
10556.5 0
10557.5 0
10558.5 0
10559.5 0
10560.5 0
10561.5 0
10562.5 0
10563.5 0
10564.5 0
10565.5 0
10566.5 -1.125
10567.5 0
10568.5 0
10569.5 0
10570.5 0
10571.5 0
10572.5 0
10573.5 0
10574.5 0
10575.5 0
10576.5 0
10577.5 0
10578.5 0
10579.5 0
10580.5 0
10581.5 0
10582.5 1
10583.5 0
10584.5 0
10585.5 0
10586.5 0
10587.5 0
10588.5 0
10589.5 0
10590.5 0
10591.5 0
10592.5 0
10593.5 0
10594.5 0
10595.5 0
10596.5 1
10597.5 0
10598.5 0
10599.5 0
10600.5 0
10601.5 0
10602.5 0
10603.5 0
10604.5 0
10605.5 0
10606.5 0
10607.5 0
10608.5 0
10609.5 1
10610.5 0
10611.5 0
10612.5 0
10613.5 0
10614.5 0
10615.5 0
10616.5 0
10617.5 0
10618.5 0
10619.5 0
10620.5 0
10621.5 0
10622.5 0
10623.5 0
10624.5 0
10625.5 0
10626.5 0
10627.5 0
10628.5 0
10629.5 0
10630.5 0
10631.5 0
10632.5 0
10633.5 0
10634.5 0
10635.5 0
10636.5 0
10637.5 0
10638.5 0
10639.5 0
10640.5 0
10641.5 0
10642.5 1
10643.5 0
10644.5 0
10645.5 0
10646.5 0
10647.5 0
10648.5 0
10649.5 0
10650.5 0
10651.5 0
10652.5 0
10653.5 0
10654.5 -1.125
10655.5 0
10656.5 0
10657.5 0
10658.5 -1.125
10659.5 0
10660.5 0
10661.5 0
10662.5 0
10663.5 0
10664.5 0
10665.5 0
10666.5 0
10667.5 0
10668.5 0
10669.5 0
10670.5 0
10671.5 0
10672.5 0
10673.5 0
10674.5 0
10675.5 0
10676.5 0
10677.5 0
10678.5 0
10679.5 0
10680.5 0
10681.5 0
10682.5 0
10683.5 0
10684.5 0
10685.5 0
10686.5 0
10687.5 0
10688.5 0
10689.5 0
10690.5 0
10691.5 0
10692.5 0
10693.5 0
10694.5 0
10695.5 0
10696.5 0
10697.5 0
10698.5 0
10699.5 0
10700.5 0
10701.5 0
10702.5 0
10703.5 0
10704.5 0
10705.5 0
10706.5 0
10707.5 0
10708.5 0
10709.5 0
10710.5 0
10711.5 0
10712.5 0
10713.5 0
10714.5 0
10715.5 0
10716.5 0
10717.5 0
10718.5 0
10719.5 0
10720.5 0
10721.5 0
10722.5 0
10723.5 0
10724.5 0
10725.5 0
10726.5 0
10727.5 -1.125
10728.5 0
10729.5 0
10730.5 0
10731.5 0
10732.5 0
10733.5 0
10734.5 0
10735.5 0
10736.5 0
10737.5 0
10738.5 0
10739.5 0
10740.5 0
10741.5 0
10742.5 0
10743.5 0
10744.5 0
10745.5 0
10746.5 0
10747.5 0
10748.5 0
10749.5 0
10750.5 0
10751.5 0
10752.5 0
10753.5 0
10754.5 0
10755.5 0
10756.5 0
10757.5 0
10758.5 0
10759.5 0
10760.5 0
10761.5 0
10762.5 0
10763.5 0
10764.5 0
10765.5 0
10766.5 0
10767.5 0
10768.5 0
10769.5 0
10770.5 0
10771.5 0
10772.5 0
10773.5 0
10774.5 0
10775.5 0
10776.5 0
10777.5 0
10778.5 0
10779.5 0
10780.5 0
10781.5 0
10782.5 0
10783.5 0
10784.5 0
10785.5 0
10786.5 0
10787.5 0
10788.5 0
10789.5 0
10790.5 0
10791.5 1
10792.5 0
10793.5 0
10794.5 0
10795.5 0
10796.5 0
10797.5 0
10798.5 0
10799.5 0
10800.5 0
10801.5 0
10802.5 0
10803.5 0
10804.5 0
10805.5 0
10806.5 0
10807.5 0
10808.5 0
10809.5 0
10810.5 0
10811.5 0
10812.5 0
10813.5 0
10814.5 0
10815.5 0
10816.5 0
10817.5 0
10818.5 0
10819.5 0
10820.5 0
10821.5 0
10822.5 0
10823.5 0
10824.5 0
10825.5 0
10826.5 0
10827.5 0
10828.5 0
10829.5 0
10830.5 0
10831.5 0
10832.5 0
10833.5 0
10834.5 0
10835.5 0
10836.5 0
10837.5 0
10838.5 0
10839.5 0
10840.5 0
10841.5 0
10842.5 0
10843.5 0
10844.5 0
10845.5 0
10846.5 0
10847.5 0
10848.5 0
10849.5 0
10850.5 0
10851.5 0
10852.5 0
10853.5 0
10854.5 0
10855.5 0
10856.5 0
10857.5 0
10858.5 0
10859.5 0
10860.5 0
10861.5 0
10862.5 0
10863.5 0
10864.5 0
10865.5 0
10866.5 0
10867.5 0
10868.5 0
10869.5 0
10870.5 0
10871.5 0
10872.5 0
10873.5 0
10874.5 0
10875.5 0
10876.5 0
10877.5 0
10878.5 0
10879.5 0
10880.5 0
10881.5 0
10882.5 0
10883.5 0
10884.5 0
10885.5 0
10886.5 0
10887.5 0
10888.5 0
10889.5 0
10890.5 0
10891.5 0
10892.5 0
10893.5 0
10894.5 0
10895.5 0
10896.5 0
10897.5 1
10898.5 0
10899.5 0
10900.5 0
10901.5 0
10902.5 0
10903.5 0
10904.5 0
10905.5 0
10906.5 0
10907.5 0
10908.5 0
10909.5 0
10910.5 0
10911.5 0
10912.5 0
10913.5 0
10914.5 0
10915.5 0
10916.5 0
10917.5 0
10918.5 0
10919.5 0
10920.5 0
10921.5 0
10922.5 0
10923.5 0
10924.5 0
10925.5 0
10926.5 0
10927.5 0
10928.5 0
10929.5 1
10930.5 0
10931.5 0
10932.5 0
10933.5 0
10934.5 0
10935.5 0
10936.5 0
10937.5 0
10938.5 0
10939.5 0
10940.5 1
10941.5 0
10942.5 0
10943.5 0
10944.5 0
10945.5 0
10946.5 0
10947.5 0
10948.5 0
10949.5 0
10950.5 0
10951.5 0
10952.5 0
10953.5 0
10954.5 0
10955.5 0
10956.5 0
10957.5 0
10958.5 0
10959.5 0
10960.5 1
10961.5 0
10962.5 0
10963.5 0
10964.5 0
10965.5 0
10966.5 0
10967.5 0
10968.5 0
10969.5 0
10970.5 1
10971.5 0
10972.5 0
10973.5 0
10974.5 0
10975.5 0
10976.5 0
10977.5 0
10978.5 0
10979.5 0
10980.5 0
10981.5 0
10982.5 0
10983.5 0
10984.5 0
10985.5 0
10986.5 0
10987.5 0
10988.5 0
10989.5 0
10990.5 0
10991.5 0
10992.5 0
10993.5 0
10994.5 0
10995.5 0
10996.5 0
10997.5 0
10998.5 0
10999.5 0
11000.5 0
11001.5 0
11002.5 0
11003.5 0
11004.5 0
11005.5 0
11006.5 0
11007.5 0
11008.5 0
11009.5 0
11010.5 0
11011.5 0
11012.5 0
11013.5 0
11014.5 0
11015.5 0
11016.5 0
11017.5 0
11018.5 0
11019.5 0
11020.5 0
11021.5 0
11022.5 0
11023.5 0
11024.5 0
11025.5 0
11026.5 0
11027.5 0
11028.5 -1.125
11029.5 0
11030.5 0
11031.5 0
11032.5 0
11033.5 0
11034.5 0
11035.5 0
11036.5 0
11037.5 0
11038.5 0
11039.5 0
11040.5 0
11041.5 0
11042.5 0
11043.5 0
11044.5 0
11045.5 0
11046.5 0
11047.5 0
11048.5 0
11049.5 0
11050.5 0
11051.5 0
11052.5 0
11053.5 0
11054.5 0
11055.5 0
11056.5 0
11057.5 0
11058.5 0
11059.5 0
11060.5 0
11061.5 0
11062.5 0
11063.5 0
11064.5 0
11065.5 0
11066.5 0
11067.5 0
11068.5 0
11069.5 0
11070.5 0
11071.5 0
11072.5 0
11073.5 0
11074.5 0
11075.5 0
11076.5 0
11077.5 0
11078.5 0
11079.5 0
11080.5 0
11081.5 1
11082.5 0
11083.5 0
11084.5 0
11085.5 0
11086.5 1
11087.5 0
11088.5 0
11089.5 0
11090.5 0
11091.5 0
11092.5 0
11093.5 -1.125
11094.5 0
11095.5 0
11096.5 0
11097.5 0
11098.5 0
11099.5 0
11100.5 0
11101.5 0
11102.5 0
11103.5 0
11104.5 0
11105.5 0
11106.5 0
11107.5 0
11108.5 0
11109.5 0
11110.5 0
11111.5 0
11112.5 0
11113.5 0
11114.5 0
11115.5 0
11116.5 0
11117.5 0
11118.5 0
11119.5 0
11120.5 0
11121.5 0
11122.5 0
11123.5 0
11124.5 0
11125.5 0
11126.5 0
11127.5 0
11128.5 0
11129.5 0
11130.5 0
11131.5 0
11132.5 0
11133.5 0
11134.5 0
11135.5 0
11136.5 0
11137.5 0
11138.5 0
11139.5 0
11140.5 0
11141.5 0
11142.5 -1.125
11143.5 0
11144.5 0
11145.5 0
11146.5 0
11147.5 0
11148.5 0
11149.5 0
11150.5 0
11151.5 0
11152.5 0
11153.5 0
11154.5 0
11155.5 0
11156.5 0
11157.5 0
11158.5 0
11159.5 0
11160.5 0
11161.5 0
11162.5 0
11163.5 0
11164.5 0
11165.5 0
11166.5 0
11167.5 0
11168.5 0
11169.5 0
11170.5 0
11171.5 0
11172.5 0
11173.5 0
11174.5 0
11175.5 0
11176.5 0
11177.5 0
11178.5 0
11179.5 0
11180.5 0
11181.5 0
11182.5 0
11183.5 0
11184.5 0
11185.5 0
11186.5 0
11187.5 0
11188.5 0
11189.5 0
11190.5 0
11191.5 0
11192.5 0
11193.5 0
11194.5 0
11195.5 0
11196.5 -1.125
11197.5 -1.125
11198.5 1
11199.5 0
11200.5 0
11201.5 0
11202.5 0
11203.5 0
11204.5 0
11205.5 0
11206.5 0
11207.5 1
11208.5 0
11209.5 0
11210.5 0
11211.5 0
11212.5 0
11213.5 0
11214.5 0
11215.5 0
11216.5 0
11217.5 0
11218.5 0
11219.5 0
11220.5 0
11221.5 0
11222.5 0
11223.5 0
11224.5 0
11225.5 0
11226.5 0
11227.5 0
11228.5 0
11229.5 0
11230.5 0
11231.5 0
11232.5 0
11233.5 0
11234.5 0
11235.5 0
11236.5 0
11237.5 0
11238.5 0
11239.5 0
11240.5 0
11241.5 0
11242.5 0
11243.5 0
11244.5 0
11245.5 0
11246.5 0
11247.5 0
11248.5 0
11249.5 0
11250.5 0
11251.5 0
11252.5 0
11253.5 0
11254.5 0
11255.5 0
11256.5 0
11257.5 0
11258.5 0
11259.5 0
11260.5 0
11261.5 0
11262.5 0
11263.5 0
11264.5 0
11265.5 0
11266.5 0
11267.5 0
11268.5 0
11269.5 0
11270.5 0
11271.5 0
11272.5 0
11273.5 0
11274.5 0
11275.5 0
11276.5 0
11277.5 0
11278.5 0
11279.5 0
11280.5 0
11281.5 0
11282.5 0
11283.5 0
11284.5 0
11285.5 0
11286.5 0
11287.5 0
11288.5 0
11289.5 0
11290.5 0
11291.5 0
11292.5 0
11293.5 0
11294.5 0
11295.5 0
11296.5 0
11297.5 0
11298.5 0
11299.5 0
11300.5 0
11301.5 0
11302.5 0
11303.5 0
11304.5 0
11305.5 0
11306.5 0
11307.5 0
11308.5 0
11309.5 0
11310.5 0
11311.5 0
11312.5 0
11313.5 0
11314.5 0
11315.5 0
11316.5 0
11317.5 0
11318.5 0
11319.5 0
11320.5 0
11321.5 0
11322.5 0
11323.5 0
11324.5 0
11325.5 0
11326.5 0
11327.5 0
11328.5 0
11329.5 0
11330.5 0
11331.5 0
11332.5 0
11333.5 0
11334.5 0
11335.5 0
11336.5 -1.125
11337.5 0
11338.5 0
11339.5 0
11340.5 0
11341.5 0
11342.5 0
11343.5 0
11344.5 0
11345.5 0
11346.5 0
11347.5 0
11348.5 0
11349.5 0
11350.5 0
11351.5 0
11352.5 0
11353.5 0
11354.5 0
11355.5 0
11356.5 0
11357.5 0
11358.5 0
11359.5 0
11360.5 0
11361.5 0
11362.5 0
11363.5 0
11364.5 0
11365.5 0
11366.5 0
11367.5 0
11368.5 0
11369.5 0
11370.5 0
11371.5 0
11372.5 0
11373.5 0
11374.5 0
11375.5 0
11376.5 0
11377.5 0
11378.5 0
11379.5 0
11380.5 0
11381.5 0
11382.5 0
11383.5 0
11384.5 0
11385.5 0
11386.5 0
11387.5 0
11388.5 0
11389.5 0
11390.5 0
11391.5 0
11392.5 0
11393.5 0
11394.5 0
11395.5 0
11396.5 0
11397.5 0
11398.5 0
11399.5 0
11400.5 0
11401.5 0
11402.5 0
11403.5 1
11404.5 0
11405.5 0
11406.5 0
11407.5 0
11408.5 0
11409.5 0
11410.5 0
11411.5 0
11412.5 0
11413.5 0
11414.5 0
11415.5 0
11416.5 0
11417.5 0
11418.5 0
11419.5 1
11420.5 0
11421.5 0
11422.5 0
11423.5 0
11424.5 0
11425.5 0
11426.5 0
11427.5 0
11428.5 0
11429.5 0
11430.5 0
11431.5 0
11432.5 0
11433.5 -1.125
11434.5 0
11435.5 0
11436.5 0
11437.5 0
11438.5 0
11439.5 0
11440.5 0
11441.5 0
11442.5 0
11443.5 0
11444.5 0
11445.5 0
11446.5 0
11447.5 0
11448.5 0
11449.5 0
11450.5 0
11451.5 0
11452.5 0
11453.5 0
11454.5 0
11455.5 0
11456.5 0
11457.5 0
11458.5 0
11459.5 0
11460.5 0
11461.5 0
11462.5 0
11463.5 0
11464.5 0
11465.5 0
11466.5 0
11467.5 0
11468.5 0
11469.5 1
11470.5 0
11471.5 0
11472.5 0
11473.5 0
11474.5 0
11475.5 0
11476.5 0
11477.5 0
11478.5 0
11479.5 0
11480.5 0
11481.5 0
11482.5 0
11483.5 -1.125
11484.5 0
11485.5 0
11486.5 0
11487.5 0
11488.5 1
11489.5 0
11490.5 0
11491.5 0
11492.5 0
11493.5 0
11494.5 0
11495.5 0
11496.5 0
11497.5 0
11498.5 0
11499.5 0
11500.5 0
11501.5 0
11502.5 0
11503.5 0
11504.5 0
11505.5 0
11506.5 0
11507.5 0
11508.5 0
11509.5 0
11510.5 0
11511.5 0
11512.5 0
11513.5 0
11514.5 0
11515.5 0
11516.5 0
11517.5 0
11518.5 0
11519.5 0
11520.5 0
11521.5 0
11522.5 0
11523.5 0
11524.5 0
11525.5 0
11526.5 0
11527.5 0
11528.5 -1.125
11529.5 0
11530.5 0
11531.5 0
11532.5 0
11533.5 0
11534.5 0
11535.5 0
11536.5 0
11537.5 0
11538.5 -1.125
11539.5 0
11540.5 0
11541.5 0
11542.5 0
11543.5 0
11544.5 0
11545.5 0
11546.5 0
11547.5 0
11548.5 0
11549.5 0
11550.5 0
11551.5 0
11552.5 0
11553.5 0
11554.5 0
11555.5 0
11556.5 0
11557.5 0
11558.5 0
11559.5 0
11560.5 0
11561.5 0
11562.5 0
11563.5 0
11564.5 0
11565.5 0
11566.5 0
11567.5 0
11568.5 -1.125
11569.5 0
11570.5 0
11571.5 0
11572.5 -1.125
11573.5 0
11574.5 0
11575.5 0
11576.5 0
11577.5 0
11578.5 0
11579.5 0
11580.5 0
11581.5 0
11582.5 0
11583.5 0
11584.5 0
11585.5 0
11586.5 0
11587.5 0
11588.5 0
11589.5 0
11590.5 0
11591.5 0
11592.5 0
11593.5 0
11594.5 0
11595.5 0
11596.5 0
11597.5 0
11598.5 0
11599.5 0
11600.5 0
11601.5 0
11602.5 1
11603.5 0
11604.5 0
11605.5 0
11606.5 0
11607.5 0
11608.5 0
11609.5 0
11610.5 0
11611.5 0
11612.5 0
11613.5 0
11614.5 0
11615.5 0
11616.5 0
11617.5 0
11618.5 0
11619.5 0
11620.5 0
11621.5 0
11622.5 0
11623.5 0
11624.5 0
11625.5 0
11626.5 0
11627.5 0
11628.5 0
11629.5 0
11630.5 0
11631.5 0
11632.5 0
11633.5 0
11634.5 0
11635.5 0
11636.5 0
11637.5 0
11638.5 0
11639.5 0
11640.5 0
11641.5 0
11642.5 0
11643.5 0
11644.5 0
11645.5 1
11646.5 0
11647.5 0
11648.5 0
11649.5 0
11650.5 0
11651.5 0
11652.5 0
11653.5 0
11654.5 0
11655.5 0
11656.5 -1.125
11657.5 0
11658.5 0
11659.5 0
11660.5 0
11661.5 0
11662.5 0
11663.5 0
11664.5 0
11665.5 0
11666.5 0
11667.5 0
11668.5 0
11669.5 0
11670.5 0
11671.5 0
11672.5 0
11673.5 0
11674.5 0
11675.5 0
11676.5 0
11677.5 0
11678.5 0
11679.5 0
11680.5 0
11681.5 0
11682.5 0
11683.5 0
11684.5 0
11685.5 0
11686.5 0
11687.5 0
11688.5 0
11689.5 0
11690.5 0
11691.5 0
11692.5 0
11693.5 0
11694.5 0
11695.5 0
11696.5 0
11697.5 0
11698.5 0
11699.5 0
11700.5 0
11701.5 0
11702.5 0
11703.5 0
11704.5 0
11705.5 0
11706.5 0
11707.5 0
11708.5 0
11709.5 0
11710.5 0
11711.5 0
11712.5 0
11713.5 0
11714.5 0
11715.5 0
11716.5 0
11717.5 0
11718.5 0
11719.5 0
11720.5 0
11721.5 0
11722.5 0
11723.5 0
11724.5 0
11725.5 0
11726.5 0
11727.5 0
11728.5 0
11729.5 0
11730.5 0
11731.5 0
11732.5 0
11733.5 0
11734.5 0
11735.5 0
11736.5 0
11737.5 0
11738.5 0
11739.5 0
11740.5 0
11741.5 0
11742.5 0
11743.5 0
11744.5 0
11745.5 0
11746.5 0
11747.5 0
11748.5 0
11749.5 0
11750.5 0
11751.5 0
11752.5 0
11753.5 0
11754.5 0
11755.5 0
11756.5 0
11757.5 0
11758.5 0
11759.5 0
11760.5 0
11761.5 0
11762.5 0
11763.5 0
11764.5 0
11765.5 0
11766.5 0
11767.5 0
11768.5 0
11769.5 0
11770.5 0
11771.5 0
11772.5 0
11773.5 0
11774.5 0
11775.5 0
11776.5 0
11777.5 0
11778.5 0
11779.5 0
11780.5 0
11781.5 0
11782.5 0
11783.5 0
11784.5 0
11785.5 0
11786.5 0
11787.5 0
11788.5 0
11789.5 0
11790.5 0
11791.5 0
11792.5 0
11793.5 0
11794.5 0
11795.5 0
11796.5 0
11797.5 0
11798.5 0
11799.5 0
11800.5 0
11801.5 0
11802.5 0
11803.5 0
11804.5 0
11805.5 0
11806.5 0
11807.5 0
11808.5 0
11809.5 0
11810.5 0
11811.5 0
11812.5 0
11813.5 0
11814.5 0
11815.5 0
11816.5 0
11817.5 0
11818.5 0
11819.5 0
11820.5 0
11821.5 0
11822.5 0
11823.5 0
11824.5 0
11825.5 0
11826.5 0
11827.5 0
11828.5 0
11829.5 0
11830.5 0
11831.5 0
11832.5 0
11833.5 0
11834.5 0
11835.5 0
11836.5 0
11837.5 0
11838.5 0
11839.5 0
11840.5 0
11841.5 0
11842.5 0
11843.5 0
11844.5 0
11845.5 0
11846.5 0
11847.5 0
11848.5 0
11849.5 -1.125
11850.5 0
11851.5 0
11852.5 0
11853.5 0
11854.5 0
11855.5 0
11856.5 0
11857.5 0
11858.5 0
11859.5 0
11860.5 0
11861.5 0
11862.5 0
11863.5 0
11864.5 0
11865.5 0
11866.5 0
11867.5 0
11868.5 0
11869.5 0
11870.5 0
11871.5 0
11872.5 0
11873.5 0
11874.5 0
11875.5 0
11876.5 0
11877.5 0
11878.5 0
11879.5 0
11880.5 0
11881.5 0
11882.5 0
11883.5 0
11884.5 0
11885.5 0
11886.5 0
11887.5 0
11888.5 0
11889.5 0
11890.5 0
11891.5 0
11892.5 0
11893.5 0
11894.5 0
11895.5 0
11896.5 0
11897.5 0
11898.5 0
11899.5 0
11900.5 0
11901.5 0
11902.5 0
11903.5 0
11904.5 0
11905.5 0
11906.5 0
11907.5 0
11908.5 0
11909.5 0
11910.5 0
11911.5 0
11912.5 0
11913.5 0
11914.5 0
11915.5 0
11916.5 0
11917.5 0
11918.5 0
11919.5 0
11920.5 0
11921.5 0
11922.5 0
11923.5 0
11924.5 1
11925.5 0
11926.5 0
11927.5 0
11928.5 0
11929.5 0
11930.5 0
11931.5 0
11932.5 0
11933.5 0
11934.5 0
11935.5 0
11936.5 0
11937.5 0
11938.5 0
11939.5 0
11940.5 0
11941.5 0
11942.5 0
11943.5 0
11944.5 0
11945.5 0
11946.5 0
11947.5 0
11948.5 0
11949.5 0
11950.5 0
11951.5 0
11952.5 0
11953.5 0
11954.5 0
11955.5 0
11956.5 0
11957.5 0
11958.5 0
11959.5 0
11960.5 0
11961.5 0
11962.5 0
11963.5 0
11964.5 0
11965.5 0
11966.5 0
11967.5 0
11968.5 0
11969.5 0
11970.5 0
11971.5 0
11972.5 0
11973.5 0
11974.5 0
11975.5 0
11976.5 0
11977.5 0
11978.5 0
11979.5 0
11980.5 0
11981.5 0
11982.5 0
11983.5 0
11984.5 0
11985.5 0
11986.5 0
11987.5 0
11988.5 0
11989.5 0
11990.5 0
11991.5 0
11992.5 0
11993.5 0
11994.5 0
11995.5 0
11996.5 0
11997.5 0
11998.5 0
11999.5 0
