# EGG_ProjY_E3809.0(3.0)_B3803.5(1.5)_B3817.0(2.0)
# X axis : Energy (keV) [Y axis]
# Y axis : Counts/1 keV
# N Bins : 12000
# X Min : 0
# X Max : 12000
# X value at the center of the bins
0.5 0
1.5 0
2.5 0
3.5 0
4.5 0
5.5 2.85714
6.5 -10.5714
7.5 1.42857
8.5 -0.142857
9.5 5.71429
10.5 -6.42857
11.5 7
12.5 5.14286
13.5 -5.14286
14.5 8.14286
15.5 35.1429
16.5 18.8571
17.5 12.8571
18.5 40.7143
19.5 93.2857
20.5 58.1429
21.5 122.429
22.5 89.1429
23.5 114.571
24.5 141.571
25.5 124.286
26.5 123.143
27.5 210.143
28.5 170
29.5 206.714
30.5 256.714
31.5 111
32.5 282.429
33.5 326.143
34.5 319.286
35.5 263.857
36.5 240.714
37.5 211.143
38.5 327.571
39.5 298.571
40.5 304.429
41.5 219.571
42.5 379.143
43.5 263.571
44.5 236
45.5 318
46.5 298.571
47.5 234.571
48.5 225.571
49.5 387.429
50.5 360.571
51.5 347
52.5 394.286
53.5 350
54.5 402.286
55.5 403.143
56.5 344.286
57.5 369.143
58.5 531.429
59.5 483.714
60.5 351.429
61.5 445.286
62.5 377.571
63.5 335.857
64.5 231.286
65.5 311.857
66.5 456.286
67.5 460.857
68.5 438.857
69.5 231
70.5 405.429
71.5 362.429
72.5 320.714
73.5 477.571
74.5 565.143
75.5 544.714
76.5 680.143
77.5 673.714
78.5 590
79.5 367.571
80.5 274.857
81.5 373.429
82.5 372.429
83.5 333
84.5 360.571
85.5 324.857
86.5 498.429
87.5 514.143
88.5 455.143
89.5 462.571
90.5 475.286
91.5 406.286
92.5 462.429
93.5 439.429
94.5 348.429
95.5 329.143
96.5 313.714
97.5 325.571
98.5 439.857
99.5 358.143
100.5 284.429
101.5 363
102.5 394.286
103.5 461.429
104.5 421.143
105.5 240.714
106.5 341.714
107.5 355
108.5 350.857
109.5 415.429
110.5 311.286
111.5 389.143
112.5 529.571
113.5 366.143
114.5 533.143
115.5 438.714
116.5 483.429
117.5 438
118.5 346.429
119.5 253.429
120.5 415.857
121.5 413
122.5 364.429
123.5 242.286
124.5 471
125.5 418.571
126.5 452.143
127.5 419.286
128.5 461.143
129.5 356.143
130.5 373.143
131.5 375.286
132.5 441.429
133.5 580.143
134.5 627.286
135.5 405.857
136.5 556.286
137.5 471.714
138.5 436.429
139.5 498
140.5 400.571
141.5 368.429
142.5 318.429
143.5 347.286
144.5 390.429
145.5 530.714
146.5 488.286
147.5 475.857
148.5 450
149.5 457
150.5 463.571
151.5 371.714
152.5 507.429
153.5 253.714
154.5 463.714
155.5 482
156.5 464.286
157.5 450.857
158.5 572.714
159.5 594.857
160.5 585
161.5 758.143
162.5 707.286
163.5 737.571
164.5 688
165.5 623.143
166.5 568.429
167.5 525.286
168.5 355.143
169.5 391.286
170.5 498.571
171.5 422.143
172.5 451
173.5 639.286
174.5 572.857
175.5 456.143
176.5 584.571
177.5 395.571
178.5 479.714
179.5 568.571
180.5 583.286
181.5 425.714
182.5 493
183.5 564.429
184.5 471.286
185.5 566.143
186.5 489
187.5 471.143
188.5 523.714
189.5 554
190.5 396.571
191.5 493.714
192.5 608.143
193.5 586
194.5 439.429
195.5 467
196.5 581.429
197.5 543.429
198.5 578.857
199.5 493.429
200.5 623.286
201.5 504.857
202.5 674.143
203.5 577
204.5 493.429
205.5 489
206.5 525.571
207.5 597
208.5 495.429
209.5 686.143
210.5 557.571
211.5 636.857
212.5 571.143
213.5 587.286
214.5 644.571
215.5 710.857
216.5 777.571
217.5 671.286
218.5 656.714
219.5 547.286
220.5 588.143
221.5 675.286
222.5 671.286
223.5 544
224.5 607.286
225.5 663.857
226.5 642.143
227.5 612.429
228.5 512.857
229.5 599
230.5 522.286
231.5 539
232.5 593.714
233.5 611.429
234.5 554.429
235.5 622.571
236.5 698.143
237.5 646.429
238.5 628.429
239.5 582
240.5 529.857
241.5 620
242.5 490.429
243.5 516.429
244.5 641
245.5 585.286
246.5 480.429
247.5 404
248.5 549.857
249.5 525.857
250.5 479.429
251.5 475.143
252.5 589.286
253.5 426.429
254.5 407.429
255.5 481.429
256.5 527
257.5 410.571
258.5 297
259.5 490.143
260.5 595.286
261.5 488.286
262.5 517.857
263.5 507.714
264.5 477
265.5 418.857
266.5 426.143
267.5 368
268.5 542.571
269.5 530.143
270.5 448.143
271.5 403.429
272.5 437
273.5 441.714
274.5 519.714
275.5 375
276.5 463.714
277.5 473.286
278.5 401.571
279.5 464.571
280.5 477.714
281.5 357.857
282.5 570.571
283.5 475.571
284.5 377.571
285.5 429.714
286.5 526.714
287.5 321.286
288.5 439.286
289.5 282.429
290.5 415.286
291.5 451.429
292.5 454
293.5 386.286
294.5 373.143
295.5 431.286
296.5 484.571
297.5 485.286
298.5 785.714
299.5 693
300.5 672.286
301.5 389.714
302.5 385.429
303.5 374.714
304.5 499.429
305.5 518.286
306.5 473.714
307.5 394.286
308.5 282.429
309.5 379.143
310.5 417.143
311.5 411.571
312.5 354.286
313.5 352.143
314.5 412.286
315.5 429.571
316.5 302.143
317.5 344.429
318.5 445.857
319.5 313.571
320.5 286
321.5 388.429
322.5 342.857
323.5 420.286
324.5 335.286
325.5 480.286
326.5 441.429
327.5 474.429
328.5 381.429
329.5 525.714
330.5 355.714
331.5 334.429
332.5 373.857
333.5 285.857
334.5 349
335.5 382.714
336.5 268.143
337.5 339
338.5 412.571
339.5 537.429
340.5 398.714
341.5 372.857
342.5 427
343.5 240.429
344.5 298.857
345.5 260.286
346.5 385.286
347.5 367.857
348.5 339.571
349.5 269
350.5 245.714
351.5 314
352.5 299.714
353.5 363.857
354.5 285.143
355.5 400.571
356.5 366.571
357.5 482.571
358.5 483.857
359.5 501.143
360.5 454.714
361.5 383.857
362.5 272.714
363.5 332.857
364.5 300.571
365.5 394.286
366.5 263.429
367.5 424.857
368.5 471
369.5 465.857
370.5 362.286
371.5 348.714
372.5 335.286
373.5 306.857
374.5 298.143
375.5 319.857
376.5 345.429
377.5 356
378.5 228.857
379.5 356.429
380.5 281.857
381.5 270.429
382.5 336.714
383.5 305.286
384.5 266.143
385.5 281.143
386.5 345.571
387.5 254.429
388.5 261.714
389.5 231.857
390.5 312.857
391.5 263.857
392.5 239.286
393.5 314
394.5 318.571
395.5 355.286
396.5 438.429
397.5 432.571
398.5 486.143
399.5 388.286
400.5 463.857
401.5 408.857
402.5 565.714
403.5 1215.86
404.5 1244.43
405.5 483.857
406.5 432
407.5 332.286
408.5 416.714
409.5 376.857
410.5 409.714
411.5 331.571
412.5 289.143
413.5 211.857
414.5 251.143
415.5 307.714
416.5 334.571
417.5 246.429
418.5 235.286
419.5 261
420.5 217.714
421.5 255.143
422.5 254.143
423.5 273.286
424.5 340.286
425.5 292
426.5 332
427.5 264.571
428.5 302.571
429.5 294.286
430.5 254.714
431.5 307
432.5 284.571
433.5 257.429
434.5 273.571
435.5 266.857
436.5 281.286
437.5 267.857
438.5 340.143
439.5 247.571
440.5 312.857
441.5 330
442.5 353.429
443.5 283.857
444.5 244.571
445.5 266.857
446.5 229.286
447.5 297
448.5 320.857
449.5 296
450.5 386
451.5 265.714
452.5 364.143
453.5 374.571
454.5 416.571
455.5 294.143
456.5 345.429
457.5 259.429
458.5 246.857
459.5 279
460.5 291.571
461.5 255.714
462.5 243.286
463.5 260.714
464.5 328.571
465.5 239
466.5 327.429
467.5 256
468.5 304.857
469.5 292.571
470.5 400.429
471.5 358.714
472.5 354.143
473.5 342.143
474.5 276.714
475.5 349.714
476.5 359.714
477.5 222.857
478.5 337.571
479.5 294.143
480.5 267.286
481.5 302.571
482.5 273
483.5 218.286
484.5 255.857
485.5 304.857
486.5 285.857
487.5 241
488.5 396.286
489.5 322
490.5 296
491.5 333
492.5 351.714
493.5 240.571
494.5 357.286
495.5 267.714
496.5 323
497.5 266.857
498.5 280.714
499.5 274.857
500.5 245.429
501.5 277.286
502.5 278
503.5 361.286
504.5 290.143
505.5 351.857
506.5 448.571
507.5 510.714
508.5 1064.57
509.5 1378.29
510.5 1761.14
511.5 1617.86
512.5 990.429
513.5 508.143
514.5 370
515.5 342.571
516.5 156.857
517.5 231.143
518.5 321.143
519.5 307.571
520.5 331.714
521.5 284.286
522.5 307.571
523.5 219
524.5 287.714
525.5 291.286
526.5 234.714
527.5 298
528.5 280.714
529.5 253.143
530.5 288.143
531.5 284.857
532.5 332.714
533.5 218.286
534.5 280.857
535.5 252.429
536.5 300.714
537.5 292.714
538.5 259.571
539.5 301.429
540.5 127.143
541.5 231.143
542.5 239.714
543.5 238.429
544.5 310.286
545.5 295.143
546.5 279
547.5 211.857
548.5 267.429
549.5 147.286
550.5 231.857
551.5 253.429
552.5 246.857
553.5 238.143
554.5 288.286
555.5 271.143
556.5 215.714
557.5 246.857
558.5 220.571
559.5 200.429
560.5 294.429
561.5 230.857
562.5 213
563.5 235.286
564.5 320.714
565.5 249
566.5 247.429
567.5 285.571
568.5 276.571
569.5 311.714
570.5 251.857
571.5 262.714
572.5 246.571
573.5 279.857
574.5 269.714
575.5 257.286
576.5 264.429
577.5 250.571
578.5 274.857
579.5 295.143
580.5 295.143
581.5 309
582.5 207.714
583.5 236.429
584.5 175.143
585.5 189.429
586.5 214.286
587.5 193
588.5 192.429
589.5 188.429
590.5 225.857
591.5 209.571
592.5 205.429
593.5 211.143
594.5 174
595.5 222.143
596.5 125.571
597.5 223.286
598.5 216.429
599.5 210.429
600.5 201.714
601.5 185.429
602.5 280.571
603.5 194.286
604.5 227.286
605.5 216.429
606.5 220.571
607.5 267
608.5 279
609.5 230.571
610.5 217
611.5 223.143
612.5 197
613.5 233.714
614.5 221.429
615.5 238.714
616.5 178.857
617.5 174.143
618.5 252.286
619.5 263
620.5 198.714
621.5 263.571
622.5 239.286
623.5 230
624.5 287.143
625.5 335.143
626.5 258.571
627.5 376.286
628.5 294
629.5 358.857
630.5 186.429
631.5 186.571
632.5 215.143
633.5 200
634.5 219.286
635.5 225.143
636.5 238.143
637.5 168.143
638.5 242.857
639.5 107.714
640.5 106.571
641.5 218.714
642.5 174.571
643.5 271.857
644.5 304.143
645.5 301.857
646.5 370.429
647.5 304.143
648.5 297.286
649.5 394.143
650.5 499.571
651.5 600.714
652.5 578.286
653.5 704.714
654.5 484.571
655.5 270.143
656.5 162.286
657.5 208.429
658.5 162.857
659.5 216.429
660.5 230.429
661.5 236.714
662.5 232.857
663.5 234.857
664.5 205.286
665.5 220.143
666.5 295.286
667.5 192.429
668.5 225.857
669.5 234.714
670.5 241.143
671.5 217.429
672.5 193.571
673.5 210.286
674.5 235.143
675.5 179.143
676.5 184.143
677.5 187.429
678.5 286.429
679.5 242.429
680.5 192.286
681.5 240.286
682.5 263.429
683.5 233
684.5 224
685.5 225.143
686.5 233.714
687.5 268.286
688.5 236.429
689.5 235
690.5 219.857
691.5 206.571
692.5 252
693.5 268.143
694.5 228.286
695.5 203.429
696.5 240.286
697.5 309.571
698.5 240.857
699.5 207.286
700.5 271.857
701.5 286.571
702.5 367.857
703.5 325.286
704.5 299.143
705.5 180.143
706.5 186.286
707.5 229.143
708.5 185.571
709.5 238.714
710.5 250.143
711.5 150.286
712.5 182.857
713.5 207.143
714.5 204.143
715.5 256.429
716.5 252.143
717.5 219.143
718.5 254
719.5 221.286
720.5 199.429
721.5 223.429
722.5 237.714
723.5 291
724.5 182.286
725.5 266.143
726.5 302.429
727.5 210
728.5 221.429
729.5 253.429
730.5 190.143
731.5 271.429
732.5 253.714
733.5 242.571
734.5 221.429
735.5 231.429
736.5 275.571
737.5 264.429
738.5 265.857
739.5 221.286
740.5 289.429
741.5 273.571
742.5 287.143
743.5 264.143
744.5 257.714
745.5 238.429
746.5 282.857
747.5 288.429
748.5 199.143
749.5 215.143
750.5 244.143
751.5 258.143
752.5 267.429
753.5 217.286
754.5 240.714
755.5 296.571
756.5 230.571
757.5 330.714
758.5 363
759.5 857.571
760.5 2105.43
761.5 2384.14
762.5 1151.29
763.5 455.286
764.5 288.143
765.5 203.429
766.5 254.429
767.5 213
768.5 234.429
769.5 203.714
770.5 246.857
771.5 250.286
772.5 251.571
773.5 187.571
774.5 228.286
775.5 226.714
776.5 258.857
777.5 314.286
778.5 240.286
779.5 225.714
780.5 176.571
781.5 164.571
782.5 225
783.5 186.714
784.5 259.143
785.5 229.857
786.5 269.286
787.5 213.857
788.5 277.571
789.5 280.286
790.5 191
791.5 256.429
792.5 275.857
793.5 210.571
794.5 294.571
795.5 171.857
796.5 252.429
797.5 148.571
798.5 253.429
799.5 236.714
800.5 232.143
801.5 206.571
802.5 233.571
803.5 234
804.5 172.286
805.5 252.429
806.5 236.571
807.5 240.857
808.5 191.429
809.5 229.714
810.5 272
811.5 313.571
812.5 219.714
813.5 283.857
814.5 226
815.5 253.429
816.5 209.143
817.5 207.286
818.5 262
819.5 210
820.5 214.571
821.5 188
822.5 213.857
823.5 191.714
824.5 248.286
825.5 227.286
826.5 221.286
827.5 237.286
828.5 199.571
829.5 238.429
830.5 238
831.5 239.286
832.5 189.571
833.5 222.143
834.5 193.857
835.5 230.143
836.5 256.714
837.5 228.714
838.5 329.857
839.5 309.571
840.5 235
841.5 224.714
842.5 167.571
843.5 255.571
844.5 248.571
845.5 221.143
846.5 202.857
847.5 230.857
848.5 231.143
849.5 183.143
850.5 269.143
851.5 250.429
852.5 263.429
853.5 286.857
854.5 234.857
855.5 191.571
856.5 285.571
857.5 250.429
858.5 290.714
859.5 213.857
860.5 242.429
861.5 223.429
862.5 266.286
863.5 232.286
864.5 286.571
865.5 272.429
866.5 242.143
867.5 258
868.5 349.429
869.5 379
870.5 342.429
871.5 170
872.5 247.571
873.5 248.714
874.5 281.571
875.5 294.714
876.5 419.429
877.5 313.714
878.5 253.857
879.5 284.143
880.5 202.143
881.5 258.286
882.5 293
883.5 266.286
884.5 252.286
885.5 247
886.5 289.857
887.5 218
888.5 244.714
889.5 299.857
890.5 285.857
891.5 231.286
892.5 275.143
893.5 309.714
894.5 269.714
895.5 323.143
896.5 331.143
897.5 246.714
898.5 317.143
899.5 259.857
900.5 254.429
901.5 359.286
902.5 312.714
903.5 303.429
904.5 289
905.5 284.429
906.5 307.714
907.5 313.286
908.5 288.143
909.5 260.429
910.5 292.571
911.5 276.286
912.5 355.714
913.5 298.571
914.5 247.571
915.5 244
916.5 241.143
917.5 291
918.5 240.714
919.5 236.857
920.5 250.571
921.5 321.286
922.5 299.143
923.5 258.429
924.5 303.714
925.5 303.286
926.5 279.714
927.5 296.429
928.5 272
929.5 298.714
930.5 316.429
931.5 286
932.5 270.714
933.5 258.143
934.5 285.429
935.5 305
936.5 325.429
937.5 266.286
938.5 325.714
939.5 338.714
940.5 306.857
941.5 313.143
942.5 334.286
943.5 307.571
944.5 314.714
945.5 298.429
946.5 292.571
947.5 289.857
948.5 205.429
949.5 230
950.5 179.143
951.5 280.857
952.5 280.286
953.5 261.286
954.5 185
955.5 195.143
956.5 226.714
957.5 249.286
958.5 262.571
959.5 209.429
960.5 237.571
961.5 188.857
962.5 265
963.5 304.286
964.5 598.857
965.5 1458.14
966.5 2212.71
967.5 1613.71
968.5 619.143
969.5 330.714
970.5 248.429
971.5 194.429
972.5 225.429
973.5 178.857
974.5 292.429
975.5 214.857
976.5 170.571
977.5 147.857
978.5 208.857
979.5 165.714
980.5 195
981.5 254.286
982.5 139.857
983.5 202.429
984.5 235.714
985.5 243.571
986.5 200
987.5 153.429
988.5 160.571
989.5 204.714
990.5 188.429
991.5 173.143
992.5 196.571
993.5 220.143
994.5 170.286
995.5 172.857
996.5 173.286
997.5 190.571
998.5 175.286
999.5 208.714
1000.5 351.571
1001.5 694.143
1002.5 531.857
1003.5 263.429
1004.5 257.571
1005.5 204.714
1006.5 231
1007.5 167.714
1008.5 183.571
1009.5 178.714
1010.5 135.286
1011.5 193.714
1012.5 170.429
1013.5 203.857
1014.5 154.571
1015.5 217.857
1016.5 178.857
1017.5 150.143
1018.5 133.286
1019.5 205.143
1020.5 165.143
1021.5 179.143
1022.5 185
1023.5 298
1024.5 554.429
1025.5 402.571
1026.5 182.714
1027.5 123.714
1028.5 130.143
1029.5 143.857
1030.5 152.286
1031.5 131.857
1032.5 134.571
1033.5 110.286
1034.5 161.857
1035.5 130.429
1036.5 169.571
1037.5 167.286
1038.5 134.143
1039.5 105
1040.5 187.857
1041.5 133.714
1042.5 110.571
1043.5 166.714
1044.5 167.286
1045.5 146.286
1046.5 119.143
1047.5 127.857
1048.5 150.429
1049.5 126
1050.5 104.429
1051.5 181
1052.5 159.857
1053.5 111.857
1054.5 100.429
1055.5 92.8571
1056.5 106.714
1057.5 121.714
1058.5 98
1059.5 122.429
1060.5 122.286
1061.5 152.286
1062.5 123.143
1063.5 166.571
1064.5 151.714
1065.5 128.714
1066.5 159
1067.5 96.1429
1068.5 123.429
1069.5 155.286
1070.5 140.429
1071.5 179.143
1072.5 305.143
1073.5 633.857
1074.5 733.857
1075.5 330.714
1076.5 122.857
1077.5 135.857
1078.5 118.714
1079.5 115.429
1080.5 111.857
1081.5 119.714
1082.5 156.143
1083.5 91.5714
1084.5 100.143
1085.5 102.714
1086.5 122.571
1087.5 79.8571
1088.5 107.143
1089.5 114
1090.5 183.429
1091.5 171.429
1092.5 75.2857
1093.5 122.286
1094.5 102.429
1095.5 115.571
1096.5 103.429
1097.5 141.714
1098.5 62.1429
1099.5 89.7143
1100.5 82.2857
1101.5 118.857
1102.5 128.857
1103.5 86.2857
1104.5 133.429
1105.5 120.286
1106.5 62.8571
1107.5 148.286
1108.5 134.286
1109.5 111.286
1110.5 102.429
1111.5 117
1112.5 117.571
1113.5 133.429
1114.5 108.143
1115.5 106.714
1116.5 108.571
1117.5 94.7143
1118.5 130.857
1119.5 141.143
1120.5 116.571
1121.5 136.571
1122.5 234.429
1123.5 748.429
1124.5 2725.14
1125.5 6192.29
1126.5 7300.71
1127.5 3259.14
1128.5 854.429
1129.5 266.857
1130.5 125
1131.5 88.1429
1132.5 93.5714
1133.5 87.4286
1134.5 114.857
1135.5 113.143
1136.5 84.7143
1137.5 92.5714
1138.5 111.857
1139.5 101.429
1140.5 74.8571
1141.5 111.857
1142.5 129.143
1143.5 110.571
1144.5 79.7143
1145.5 87.7143
1146.5 82.8571
1147.5 96
1148.5 123.286
1149.5 139.571
1150.5 107.714
1151.5 96
1152.5 131.429
1153.5 455.857
1154.5 1644.57
1155.5 5802.29
1156.5 13025
1157.5 13650.9
1158.5 5727
1159.5 1180
1160.5 231.286
1161.5 101.143
1162.5 80.7143
1163.5 73.8571
1164.5 92.2857
1165.5 53.7143
1166.5 60.1429
1167.5 49.1429
1168.5 90.1429
1169.5 70
1170.5 84
1171.5 98
1172.5 110.143
1173.5 81.2857
1174.5 63.5714
1175.5 77.8571
1176.5 60.7143
1177.5 45.7143
1178.5 27.4286
1179.5 46.7143
1180.5 104
1181.5 134.286
1182.5 142.857
1183.5 179.857
1184.5 120.429
1185.5 132.571
1186.5 103
1187.5 100.571
1188.5 120
1189.5 94.2857
1190.5 65.1429
1191.5 101.571
1192.5 70.2857
1193.5 65.1429
1194.5 82.5714
1195.5 66.8571
1196.5 52.7143
1197.5 46.1429
1198.5 64.4286
1199.5 30.7143
1200.5 92.1429
1201.5 52.1429
1202.5 30.4286
1203.5 41.5714
1204.5 46.1429
1205.5 41.8571
1206.5 78.1429
1207.5 59.7143
1208.5 44.4286
1209.5 62.4286
1210.5 53.2857
1211.5 72.1429
1212.5 69.5714
1213.5 65.2857
1214.5 96.1429
1215.5 98.1429
1216.5 68.2857
1217.5 55.5714
1218.5 52
1219.5 65.8571
1220.5 58.8571
1221.5 90.7143
1222.5 74.1429
1223.5 55.2857
1224.5 47.7143
1225.5 58.7143
1226.5 57.2857
1227.5 89.4286
1228.5 106
1229.5 102.857
1230.5 57.4286
1231.5 75.7143
1232.5 85.5714
1233.5 85.2857
1234.5 53.8571
1235.5 43.4286
1236.5 51.8571
1237.5 75.1429
1238.5 73.5714
1239.5 38.2857
1240.5 61.7143
1241.5 13.8571
1242.5 30.7143
1243.5 41
1244.5 111.429
1245.5 129.714
1246.5 52.8571
1247.5 77.8571
1248.5 65.7143
1249.5 67.5714
1250.5 49.5714
1251.5 80.5714
1252.5 67.7143
1253.5 45.4286
1254.5 59.7143
1255.5 83.4286
1256.5 64.8571
1257.5 64.2857
1258.5 103.429
1259.5 42.4286
1260.5 105.429
1261.5 57.4286
1262.5 70.7143
1263.5 80
1264.5 92.7143
1265.5 120.571
1266.5 128.714
1267.5 126.857
1268.5 109.143
1269.5 66.2857
1270.5 66.7143
1271.5 61.2857
1272.5 70.2857
1273.5 60.5714
1274.5 70.7143
1275.5 34.5714
1276.5 62.2857
1277.5 38.4286
1278.5 78
1279.5 43.5714
1280.5 84.2857
1281.5 68.7143
1282.5 23.7143
1283.5 32.7143
1284.5 61.2857
1285.5 53.4286
1286.5 64.7143
1287.5 64
1288.5 73.4286
1289.5 58.7143
1290.5 63.4286
1291.5 93.4286
1292.5 43.4286
1293.5 97.8571
1294.5 82
1295.5 74.4286
1296.5 49.1429
1297.5 64
1298.5 45
1299.5 42.2857
1300.5 60
1301.5 38.7143
1302.5 58.4286
1303.5 47.7143
1304.5 63.7143
1305.5 42.2857
1306.5 64.1429
1307.5 65.5714
1308.5 44.8571
1309.5 51.5714
1310.5 22.5714
1311.5 72.4286
1312.5 56
1313.5 71.1429
1314.5 75.7143
1315.5 110.143
1316.5 38.8571
1317.5 71.4286
1318.5 50.5714
1319.5 28.8571
1320.5 48
1321.5 81.1429
1322.5 71.1429
1323.5 69.5714
1324.5 63.5714
1325.5 73.5714
1326.5 31.2857
1327.5 43.7143
1328.5 67.1429
1329.5 53.4286
1330.5 65.4286
1331.5 56.8571
1332.5 28.1429
1333.5 33.4286
1334.5 29.2857
1335.5 36.1429
1336.5 24.1429
1337.5 57.5714
1338.5 86.4286
1339.5 42
1340.5 53.7143
1341.5 42.7143
1342.5 63.7143
1343.5 57.8571
1344.5 50
1345.5 60
1346.5 55
1347.5 65
1348.5 65.4286
1349.5 106.571
1350.5 70.8571
1351.5 49
1352.5 53.8571
1353.5 52.2857
1354.5 53.2857
1355.5 65.5714
1356.5 36.7143
1357.5 63.8571
1358.5 56.4286
1359.5 67.5714
1360.5 37.8571
1361.5 43.4286
1362.5 56.4286
1363.5 48
1364.5 47.1429
1365.5 54.5714
1366.5 69.5714
1367.5 75.4286
1368.5 49.5714
1369.5 43.1429
1370.5 18.2857
1371.5 23.5714
1372.5 23.2857
1373.5 61.1429
1374.5 51.8571
1375.5 75
1376.5 84.4286
1377.5 53.1429
1378.5 45.5714
1379.5 60.2857
1380.5 64.7143
1381.5 55.7143
1382.5 74
1383.5 30.8571
1384.5 22.5714
1385.5 80
1386.5 65.7143
1387.5 114.857
1388.5 121.429
1389.5 97.7143
1390.5 61.5714
1391.5 93.5714
1392.5 63.8571
1393.5 52.5714
1394.5 64
1395.5 27.7143
1396.5 64.2857
1397.5 40.8571
1398.5 22.4286
1399.5 39.5714
1400.5 46.8571
1401.5 47.8571
1402.5 85.7143
1403.5 40.1429
1404.5 39.2857
1405.5 33.2857
1406.5 35.7143
1407.5 50
1408.5 40.7143
1409.5 69.7143
1410.5 55.2857
1411.5 60
1412.5 74.5714
1413.5 101
1414.5 113.143
1415.5 106.857
1416.5 71.4286
1417.5 99.2857
1418.5 92.1429
1419.5 63.7143
1420.5 77.4286
1421.5 71.2857
1422.5 70
1423.5 80.7143
1424.5 97.2857
1425.5 56.2857
1426.5 93.4286
1427.5 179.857
1428.5 294.571
1429.5 278
1430.5 163.429
1431.5 74.1429
1432.5 70
1433.5 52.4286
1434.5 34.1429
1435.5 62.8571
1436.5 52.8571
1437.5 58.5714
1438.5 59.8571
1439.5 76.1429
1440.5 41.2857
1441.5 67.4286
1442.5 69.2857
1443.5 44.8571
1444.5 45
1445.5 59
1446.5 35.8571
1447.5 46.4286
1448.5 56
1449.5 72.1429
1450.5 12.8571
1451.5 65.1429
1452.5 80
1453.5 66.4286
1454.5 20.2857
1455.5 53
1456.5 47.7143
1457.5 57.8571
1458.5 30.5714
1459.5 31.2857
1460.5 35.1429
1461.5 50.7143
1462.5 49.1429
1463.5 72.4286
1464.5 63.5714
1465.5 57.2857
1466.5 45.8571
1467.5 39.2857
1468.5 55.1429
1469.5 68.2857
1470.5 89.4286
1471.5 81
1472.5 110.714
1473.5 115.286
1474.5 101
1475.5 49.7143
1476.5 88.2857
1477.5 48.7143
1478.5 38.7143
1479.5 58.1429
1480.5 60.7143
1481.5 68.4286
1482.5 60.5714
1483.5 37.5714
1484.5 42.4286
1485.5 44.7143
1486.5 66.5714
1487.5 46.2857
1488.5 40.2857
1489.5 58
1490.5 131.857
1491.5 121.429
1492.5 114.571
1493.5 79.4286
1494.5 132.571
1495.5 135.857
1496.5 116.143
1497.5 282
1498.5 611.857
1499.5 869.714
1500.5 558
1501.5 219.714
1502.5 139.714
1503.5 80.7143
1504.5 73.1429
1505.5 51.7143
1506.5 53.5714
1507.5 74.7143
1508.5 65.2857
1509.5 110
1510.5 85.8571
1511.5 57
1512.5 34.4286
1513.5 68.1429
1514.5 55.1429
1515.5 37.7143
1516.5 35.4286
1517.5 80.2857
1518.5 30.7143
1519.5 38.5714
1520.5 40
1521.5 47
1522.5 61.2857
1523.5 55
1524.5 51.1429
1525.5 41.8571
1526.5 54.4286
1527.5 54.7143
1528.5 70.8571
1529.5 60
1530.5 68.8571
1531.5 42.4286
1532.5 25.5714
1533.5 53.4286
1534.5 71.7143
1535.5 27.4286
1536.5 49.5714
1537.5 47.2857
1538.5 55.7143
1539.5 56.1429
1540.5 65.2857
1541.5 61
1542.5 41.8571
1543.5 26.5714
1544.5 42.8571
1545.5 107.143
1546.5 132.143
1547.5 161.571
1548.5 103.143
1549.5 66.2857
1550.5 61
1551.5 66.2857
1552.5 51.4286
1553.5 54.4286
1554.5 69.5714
1555.5 55.8571
1556.5 54.4286
1557.5 69.5714
1558.5 80.8571
1559.5 81.4286
1560.5 28.5714
1561.5 54.2857
1562.5 32.7143
1563.5 71.7143
1564.5 58.8571
1565.5 48.7143
1566.5 71.5714
1567.5 45.2857
1568.5 54.7143
1569.5 51.8571
1570.5 56.5714
1571.5 53.2857
1572.5 11.2857
1573.5 45.2857
1574.5 78
1575.5 40
1576.5 20.5714
1577.5 52.2857
1578.5 46.4286
1579.5 44.2857
1580.5 45.8571
1581.5 54.5714
1582.5 58
1583.5 26.5714
1584.5 58.7143
1585.5 58.2857
1586.5 92.2857
1587.5 79.8571
1588.5 81.2857
1589.5 31.2857
1590.5 89
1591.5 29.7143
1592.5 40.2857
1593.5 62.7143
1594.5 56
1595.5 51.7143
1596.5 70
1597.5 39.8571
1598.5 47.4286
1599.5 63.1429
1600.5 27.5714
1601.5 66.2857
1602.5 36.7143
1603.5 63.1429
1604.5 64.7143
1605.5 64
1606.5 45.1429
1607.5 65.8571
1608.5 67
1609.5 44.1429
1610.5 61.7143
1611.5 68.8571
1612.5 65.1429
1613.5 48.4286
1614.5 56
1615.5 64
1616.5 46.4286
1617.5 72.8571
1618.5 39.2857
1619.5 79
1620.5 40.2857
1621.5 77.2857
1622.5 34
1623.5 57.1429
1624.5 65.7143
1625.5 41
1626.5 54
1627.5 58.5714
1628.5 57
1629.5 22.1429
1630.5 42.2857
1631.5 41.7143
1632.5 85.5714
1633.5 105.714
1634.5 57.4286
1635.5 37.2857
1636.5 32.4286
1637.5 45.8571
1638.5 55.2857
1639.5 44.1429
1640.5 65.4286
1641.5 40.4286
1642.5 47.5714
1643.5 46.2857
1644.5 97
1645.5 79.4286
1646.5 61.2857
1647.5 65
1648.5 69.2857
1649.5 59.4286
1650.5 61.5714
1651.5 30.8571
1652.5 46.1429
1653.5 58.5714
1654.5 44.2857
1655.5 33.2857
1656.5 47
1657.5 80.8571
1658.5 90.2857
1659.5 68.2857
1660.5 56.5714
1661.5 50.8571
1662.5 67
1663.5 60.4286
1664.5 36.5714
1665.5 24.2857
1666.5 82
1667.5 39.8571
1668.5 78.2857
1669.5 97.5714
1670.5 77.8571
1671.5 62.1429
1672.5 50.1429
1673.5 54.8571
1674.5 54
1675.5 45.5714
1676.5 57.1429
1677.5 76.1429
1678.5 60.1429
1679.5 71.2857
1680.5 60.1429
1681.5 44.7143
1682.5 66.8571
1683.5 60.8571
1684.5 64.8571
1685.5 39.1429
1686.5 54.1429
1687.5 47.4286
1688.5 53.4286
1689.5 42.4286
1690.5 72.5714
1691.5 38
1692.5 32.2857
1693.5 67.1429
1694.5 47.7143
1695.5 50
1696.5 39.2857
1697.5 24.8571
1698.5 35.7143
1699.5 53.8571
1700.5 57.2857
1701.5 56.2857
1702.5 57
1703.5 47.7143
1704.5 33.1429
1705.5 67.5714
1706.5 29.8571
1707.5 50.7143
1708.5 20.7143
1709.5 87.8571
1710.5 44.8571
1711.5 30.7143
1712.5 87.5714
1713.5 47.2857
1714.5 50.1429
1715.5 57.7143
1716.5 62
1717.5 56.2857
1718.5 61.8571
1719.5 57.4286
1720.5 59.8571
1721.5 50.2857
1722.5 51
1723.5 62.2857
1724.5 116
1725.5 92.1429
1726.5 281.286
1727.5 472.286
1728.5 311.429
1729.5 190.571
1730.5 99.5714
1731.5 61.5714
1732.5 52.7143
1733.5 37.2857
1734.5 68.8571
1735.5 57.7143
1736.5 37.1429
1737.5 58.5714
1738.5 50.5714
1739.5 36.2857
1740.5 30.1429
1741.5 48
1742.5 71.2857
1743.5 33.5714
1744.5 66
1745.5 36.4286
1746.5 64.5714
1747.5 54.2857
1748.5 -14.1429
1749.5 36.8571
1750.5 70.4286
1751.5 46.5714
1752.5 20.1429
1753.5 55.7143
1754.5 39.8571
1755.5 68.4286
1756.5 22
1757.5 42.7143
1758.5 49.1429
1759.5 54.5714
1760.5 30.4286
1761.5 30.4286
1762.5 53.1429
1763.5 52.8571
1764.5 63.4286
1765.5 43.1429
1766.5 28.2857
1767.5 41.8571
1768.5 34.4286
1769.5 53.1429
1770.5 38.1429
1771.5 62.7143
1772.5 94.2857
1773.5 82.2857
1774.5 34.2857
1775.5 41.2857
1776.5 65
1777.5 57.7143
1778.5 79.7143
1779.5 66.2857
1780.5 73.4286
1781.5 79
1782.5 213.857
1783.5 248.857
1784.5 216.143
1785.5 103.571
1786.5 69.5714
1787.5 54.4286
1788.5 33.4286
1789.5 66
1790.5 63.1429
1791.5 36.8571
1792.5 59.2857
1793.5 27.5714
1794.5 46.8571
1795.5 32
1796.5 36.8571
1797.5 40.7143
1798.5 25.2857
1799.5 54.4286
1800.5 64.1429
1801.5 34.1429
1802.5 49
1803.5 10
1804.5 57.8571
1805.5 50.4286
1806.5 49.5714
1807.5 49.7143
1808.5 43.5714
1809.5 22.2857
1810.5 56.7143
1811.5 61.8571
1812.5 33.1429
1813.5 48.2857
1814.5 39.4286
1815.5 65.2857
1816.5 115.143
1817.5 141.429
1818.5 347
1819.5 440.143
1820.5 275.429
1821.5 165.143
1822.5 80
1823.5 86.1429
1824.5 91.2857
1825.5 103.714
1826.5 84.1429
1827.5 35.8571
1828.5 51.4286
1829.5 24.4286
1830.5 35.4286
1831.5 35.1429
1832.5 36.7143
1833.5 47.2857
1834.5 42.7143
1835.5 0.571427
1836.5 36.7143
1837.5 48.8571
1838.5 56
1839.5 61.4286
1840.5 37.1429
1841.5 37.8571
1842.5 46.4286
1843.5 46
1844.5 50.7143
1845.5 20.1429
1846.5 39.4286
1847.5 37
1848.5 52.1429
1849.5 33.7143
1850.5 48.2857
1851.5 62.7143
1852.5 49.1429
1853.5 46.2857
1854.5 31.1429
1855.5 45
1856.5 55.2857
1857.5 63.7143
1858.5 45
1859.5 82
1860.5 74.1429
1861.5 79.8571
1862.5 67
1863.5 45.1429
1864.5 46.8571
1865.5 29.7143
1866.5 24.1429
1867.5 13.5714
1868.5 -1.14286
1869.5 57.8571
1870.5 76.7143
1871.5 29.1429
1872.5 61.7143
1873.5 57.4286
1874.5 42.7143
1875.5 60.8571
1876.5 31.1429
1877.5 44
1878.5 56.2857
1879.5 28.4286
1880.5 50.4286
1881.5 61.2857
1882.5 70.7143
1883.5 95
1884.5 224.857
1885.5 470.429
1886.5 800.857
1887.5 922.429
1888.5 562.857
1889.5 210.571
1890.5 65
1891.5 45.2857
1892.5 39.1429
1893.5 50.8571
1894.5 28.7143
1895.5 42.8571
1896.5 38.2857
1897.5 43.8571
1898.5 57.1429
1899.5 37.5714
1900.5 53.2857
1901.5 65.5714
1902.5 63.1429
1903.5 58
1904.5 61.7143
1905.5 53.1429
1906.5 73
1907.5 99
1908.5 30.4286
1909.5 58.8571
1910.5 64.4286
1911.5 115.857
1912.5 114.714
1913.5 77.5714
1914.5 49.7143
1915.5 66
1916.5 61.7143
1917.5 51.4286
1918.5 23.1429
1919.5 56
1920.5 42.1429
1921.5 83.1429
1922.5 58.8571
1923.5 93.7143
1924.5 136.429
1925.5 116.429
1926.5 134.286
1927.5 99
1928.5 53.8571
1929.5 41
1930.5 46
1931.5 40.5714
1932.5 21.7143
1933.5 41.7143
1934.5 48.5714
1935.5 30.4286
1936.5 37.2857
1937.5 60.2857
1938.5 44.5714
1939.5 60
1940.5 63.5714
1941.5 14.1429
1942.5 30.5714
1943.5 30.8571
1944.5 42.7143
1945.5 27.8571
1946.5 46.5714
1947.5 32.8571
1948.5 33.2857
1949.5 56.4286
1950.5 12.8571
1951.5 30.2857
1952.5 31.8571
1953.5 38.5714
1954.5 38.1429
1955.5 4
1956.5 29.4286
1957.5 34
1958.5 47.1429
1959.5 10.1429
1960.5 21.7143
1961.5 34.4286
1962.5 28.5714
1963.5 39.2857
1964.5 43
1965.5 28.5714
1966.5 40.8571
1967.5 54.4286
1968.5 48.2857
1969.5 30.7143
1970.5 32.8571
1971.5 51.4286
1972.5 45.2857
1973.5 74.8571
1974.5 18.1429
1975.5 26
1976.5 47.5714
1977.5 62
1978.5 33.2857
1979.5 63.8571
1980.5 35.2857
1981.5 37.4286
1982.5 26.2857
1983.5 76.1429
1984.5 53.2857
1985.5 54.7143
1986.5 49.1429
1987.5 46.4286
1988.5 47.4286
1989.5 49.1429
1990.5 47.1429
1991.5 51.1429
1992.5 74.2857
1993.5 55.7143
1994.5 106.429
1995.5 55.8571
1996.5 53.7143
1997.5 58
1998.5 43.8571
1999.5 48.5714
2000.5 38
2001.5 57.1429
2002.5 53.2857
2003.5 38.4286
2004.5 41.7143
2005.5 41
2006.5 13.2857
2007.5 49.1429
2008.5 35.7143
2009.5 61
2010.5 17
2011.5 32.1429
2012.5 28
2013.5 24
2014.5 26.4286
2015.5 39.7143
2016.5 17.2857
2017.5 27.4286
2018.5 26
2019.5 37.4286
2020.5 39.5714
2021.5 35
2022.5 38.7143
2023.5 66.5714
2024.5 45.4286
2025.5 81.5714
2026.5 19.4286
2027.5 20.7143
2028.5 25.8571
2029.5 57.5714
2030.5 45
2031.5 48.4286
2032.5 43.5714
2033.5 46.7143
2034.5 16
2035.5 17
2036.5 21.1429
2037.5 38.7143
2038.5 14.1429
2039.5 40.2857
2040.5 21.7143
2041.5 27.8571
2042.5 41.7143
2043.5 41.2857
2044.5 32.1429
2045.5 40.5714
2046.5 25.8571
2047.5 46.2857
2048.5 35.8571
2049.5 33.5714
2050.5 47
2051.5 41.1429
2052.5 26.8571
2053.5 12.8571
2054.5 12
2055.5 39.8571
2056.5 18.1429
2057.5 42.7143
2058.5 50.4286
2059.5 12.8571
2060.5 24.5714
2061.5 18.7143
2062.5 35.4286
2063.5 21.7143
2064.5 36.7143
2065.5 62
2066.5 35.5714
2067.5 31.7143
2068.5 32.1429
2069.5 31.7143
2070.5 14.8571
2071.5 31.4286
2072.5 40.7143
2073.5 32.8571
2074.5 9.14286
2075.5 19.2857
2076.5 21.8571
2077.5 26.4286
2078.5 53.8571
2079.5 35
2080.5 46
2081.5 50.1429
2082.5 30.7143
2083.5 25.2857
2084.5 32.8571
2085.5 56
2086.5 95.5714
2087.5 128.714
2088.5 36.1429
2089.5 49.1429
2090.5 35.5714
2091.5 33
2092.5 64.5714
2093.5 33
2094.5 29
2095.5 44.2857
2096.5 41.4286
2097.5 23.4286
2098.5 38.4286
2099.5 50.8571
2100.5 42.1429
2101.5 41.2857
2102.5 41.4286
2103.5 17
2104.5 15.7143
2105.5 46.4286
2106.5 46.4286
2107.5 39
2108.5 5
2109.5 33.4286
2110.5 50.8571
2111.5 44
2112.5 15.1429
2113.5 35.8571
2114.5 36.8571
2115.5 58.1429
2116.5 19.7143
2117.5 37.2857
2118.5 17.5714
2119.5 35.5714
2120.5 52.4286
2121.5 20.5714
2122.5 20
2123.5 24.8571
2124.5 24.2857
2125.5 19.2857
2126.5 27.4286
2127.5 37.2857
2128.5 18.1429
2129.5 8.42857
2130.5 50.7143
2131.5 26.2857
2132.5 28.7143
2133.5 21.5714
2134.5 31.7143
2135.5 20.2857
2136.5 27.5714
2137.5 21.5714
2138.5 16.4286
2139.5 43.4286
2140.5 46.7143
2141.5 61.7143
2142.5 139.714
2143.5 202.143
2144.5 228.286
2145.5 140.143
2146.5 74.1429
2147.5 79.1429
2148.5 165.143
2149.5 446.429
2150.5 648.714
2151.5 492.143
2152.5 230.714
2153.5 82.5714
2154.5 35
2155.5 42.4286
2156.5 34.5714
2157.5 76.1429
2158.5 27.2857
2159.5 33.8571
2160.5 49
2161.5 53.2857
2162.5 19.5714
2163.5 33.8571
2164.5 23
2165.5 21.1429
2166.5 17
2167.5 12.2857
2168.5 52.4286
2169.5 51.1429
2170.5 31.4286
2171.5 21.8571
2172.5 26.2857
2173.5 27.5714
2174.5 25
2175.5 28
2176.5 29
2177.5 26.2857
2178.5 24.7143
2179.5 25
2180.5 40.8571
2181.5 40.2857
2182.5 36.1429
2183.5 44.1429
2184.5 28
2185.5 8.14286
2186.5 26.8571
2187.5 12
2188.5 45.4286
2189.5 67.4286
2190.5 121.714
2191.5 152.143
2192.5 165.857
2193.5 113.714
2194.5 92.8571
2195.5 67.8571
2196.5 55
2197.5 57.8571
2198.5 58.5714
2199.5 90
2200.5 62.2857
2201.5 7.42857
2202.5 26.5714
2203.5 32.5714
2204.5 12
2205.5 31
2206.5 14.5714
2207.5 22
2208.5 38.8571
2209.5 8.85714
2210.5 21.1429
2211.5 12.2857
2212.5 23.7143
2213.5 22
2214.5 7.71428
2215.5 6.42857
2216.5 0.999999
2217.5 9.28571
2218.5 1.42857
2219.5 36.2857
2220.5 52.7143
2221.5 60.8571
2222.5 110.571
2223.5 157.714
2224.5 223.571
2225.5 187
2226.5 102.286
2227.5 185
2228.5 348.714
2229.5 435.286
2230.5 392.143
2231.5 198.143
2232.5 63.5714
2233.5 49.1429
2234.5 42
2235.5 32.2857
2236.5 29.7143
2237.5 17.5714
2238.5 31.4286
2239.5 30.7143
2240.5 38.8571
2241.5 19.2857
2242.5 10.1429
2243.5 27
2244.5 14.8571
2245.5 31.7143
2246.5 24.4286
2247.5 75
2248.5 105.857
2249.5 73.2857
2250.5 33.4286
2251.5 50.7143
2252.5 24.2857
2253.5 29.2857
2254.5 50.7143
2255.5 33.4286
2256.5 35.4286
2257.5 23.1429
2258.5 56.5714
2259.5 25.8571
2260.5 28.5714
2261.5 10
2262.5 24.8571
2263.5 17.1429
2264.5 -0.571429
2265.5 32.5714
2266.5 0.999999
2267.5 19.2857
2268.5 16.7143
2269.5 33.4286
2270.5 7
2271.5 24.8571
2272.5 37
2273.5 37.5714
2274.5 8.85714
2275.5 9.42857
2276.5 27.4286
2277.5 31.4286
2278.5 37.8571
2279.5 12.7143
2280.5 41.1429
2281.5 10
2282.5 34.8571
2283.5 36.5714
2284.5 18.1429
2285.5 49.2857
2286.5 37.8571
2287.5 56.8571
2288.5 56.1429
2289.5 57
2290.5 30
2291.5 57.8571
2292.5 51.4286
2293.5 14.8571
2294.5 49.8571
2295.5 41.2857
2296.5 20
2297.5 28.4286
2298.5 36.4286
2299.5 45.1429
2300.5 31.5714
2301.5 20.7143
2302.5 28.5714
2303.5 21
2304.5 18.2857
2305.5 53.2857
2306.5 17
2307.5 24
2308.5 18.7143
2309.5 36.2857
2310.5 29.1429
2311.5 45.4286
2312.5 11.8571
2313.5 18.8571
2314.5 27.8571
2315.5 47.7143
2316.5 32.2857
2317.5 38
2318.5 30.4286
2319.5 16.5714
2320.5 15.4286
2321.5 10.5714
2322.5 10.8571
2323.5 12.4286
2324.5 20.8571
2325.5 2.57143
2326.5 38
2327.5 22.5714
2328.5 17.7143
2329.5 25.2857
2330.5 25
2331.5 23.1429
2332.5 34.1429
2333.5 31.8571
2334.5 8.57143
2335.5 18.7143
2336.5 39.1429
2337.5 19.1429
2338.5 33
2339.5 26.7143
2340.5 37
2341.5 43.2857
2342.5 58.2857
2343.5 99.4286
2344.5 60.4286
2345.5 47.7143
2346.5 19.7143
2347.5 26.2857
2348.5 22.1429
2349.5 30.8571
2350.5 56.5714
2351.5 30.2857
2352.5 32.7143
2353.5 17.7143
2354.5 21.2857
2355.5 17.5714
2356.5 10.2857
2357.5 22.4286
2358.5 33.2857
2359.5 33.7143
2360.5 36
2361.5 29.1429
2362.5 23.8571
2363.5 29.7143
2364.5 36.5714
2365.5 56.2857
2366.5 16.1429
2367.5 27.7143
2368.5 23
2369.5 7.71429
2370.5 19
2371.5 19.2857
2372.5 41.7143
2373.5 31.8571
2374.5 1.71428
2375.5 7.57143
2376.5 19.2857
2377.5 28.7143
2378.5 21.4286
2379.5 30.2857
2380.5 55.5714
2381.5 0.428571
2382.5 23.1429
2383.5 24.7143
2384.5 2.57143
2385.5 19.5714
2386.5 28.8571
2387.5 29.5714
2388.5 21.8571
2389.5 23.1429
2390.5 16.1429
2391.5 26.1429
2392.5 4.42857
2393.5 34.4286
2394.5 28.5714
2395.5 18
2396.5 27
2397.5 44
2398.5 13.2857
2399.5 19
2400.5 24.8571
2401.5 30.4286
2402.5 24.4286
2403.5 11.1429
2404.5 22.1429
2405.5 2.71429
2406.5 9
2407.5 34.4286
2408.5 6
2409.5 29.8571
2410.5 27.8571
2411.5 37.1429
2412.5 61.4286
2413.5 94
2414.5 146
2415.5 172.429
2416.5 182.857
2417.5 150.571
2418.5 88.2857
2419.5 41
2420.5 6.85714
2421.5 12.8571
2422.5 21.8571
2423.5 14.7143
2424.5 30.2857
2425.5 34.7143
2426.5 42.2857
2427.5 18
2428.5 23.2857
2429.5 30.8571
2430.5 11
2431.5 15
2432.5 10.7143
2433.5 17.8571
2434.5 62.2857
2435.5 34.1429
2436.5 29.2857
2437.5 51.5714
2438.5 31.4286
2439.5 22.4286
2440.5 17.2857
2441.5 0.285714
2442.5 42.8571
2443.5 16.1429
2444.5 16.4286
2445.5 36.5714
2446.5 25.2857
2447.5 23.5714
2448.5 30.4286
2449.5 23.8571
2450.5 18.5714
2451.5 27.5714
2452.5 21.1429
2453.5 35.1429
2454.5 26.4286
2455.5 49.8571
2456.5 21.2857
2457.5 60.4286
2458.5 29.1429
2459.5 25.5714
2460.5 32.5714
2461.5 27.8571
2462.5 22
2463.5 17.8571
2464.5 5.71429
2465.5 50.7143
2466.5 21.7143
2467.5 27.2857
2468.5 35.8571
2469.5 42.7143
2470.5 38.4286
2471.5 30.4286
2472.5 15.8571
2473.5 32.8571
2474.5 37.5714
2475.5 28.7143
2476.5 34.1429
2477.5 12.8571
2478.5 23.1429
2479.5 26.7143
2480.5 7
2481.5 1.42857
2482.5 15.1429
2483.5 13.5714
2484.5 22.4286
2485.5 45
2486.5 31.2857
2487.5 28.1429
2488.5 9.42857
2489.5 33.7143
2490.5 20.2857
2491.5 35.7143
2492.5 34.2857
2493.5 26.8571
2494.5 41.7143
2495.5 21.7143
2496.5 0.714285
2497.5 13.1429
2498.5 0.571428
2499.5 34.5714
2500.5 13.8571
2501.5 23.5714
2502.5 26.8571
2503.5 22.4286
2504.5 18.1429
2505.5 29.2857
2506.5 21.1429
2507.5 1.85714
2508.5 32
2509.5 36.7143
2510.5 12.8571
2511.5 46.7143
2512.5 16.4286
2513.5 14.5714
2514.5 48.4286
2515.5 45.8571
2516.5 46.8571
2517.5 116
2518.5 217
2519.5 227.286
2520.5 204.286
2521.5 79.1429
2522.5 30.4286
2523.5 33.5714
2524.5 35
2525.5 30
2526.5 20.1429
2527.5 40.1429
2528.5 22.8571
2529.5 23.1429
2530.5 31.7143
2531.5 25
2532.5 26.4286
2533.5 7.42857
2534.5 10
2535.5 22.8571
2536.5 14.4286
2537.5 12.7143
2538.5 23.7143
2539.5 36.7143
2540.5 -0.285715
2541.5 0.142856
2542.5 22.4286
2543.5 14.8571
2544.5 35
2545.5 27.1429
2546.5 28.5714
2547.5 19.1429
2548.5 47.4286
2549.5 20.8571
2550.5 13.2857
2551.5 17.8571
2552.5 34.4286
2553.5 17
2554.5 26.7143
2555.5 13.8571
2556.5 38.5714
2557.5 18.7143
2558.5 13
2559.5 0.285714
2560.5 18.4286
2561.5 17
2562.5 4.85714
2563.5 23.1429
2564.5 36
2565.5 15.5714
2566.5 41.1429
2567.5 17.7143
2568.5 14
2569.5 17.1429
2570.5 18.4286
2571.5 25.7143
2572.5 30.1429
2573.5 39
2574.5 5.14286
2575.5 16.4286
2576.5 45.2857
2577.5 8
2578.5 22.4286
2579.5 0.428571
2580.5 18.5714
2581.5 23.8571
2582.5 22.5714
2583.5 38.2857
2584.5 34.2857
2585.5 41.1429
2586.5 14.2857
2587.5 13.8571
2588.5 19.7143
2589.5 25.7143
2590.5 34.4286
2591.5 25
2592.5 5.57143
2593.5 46.5714
2594.5 26.8571
2595.5 -2
2596.5 14.2857
2597.5 1.71429
2598.5 13.1429
2599.5 15.4286
2600.5 0.285714
2601.5 44.4286
2602.5 49.5714
2603.5 25.7143
2604.5 23.8571
2605.5 38.1429
2606.5 8.42857
2607.5 21.2857
2608.5 31.7143
2609.5 38
2610.5 26.5714
2611.5 24.8571
2612.5 21.1429
2613.5 21.5714
2614.5 34.1429
2615.5 56.4286
2616.5 47
2617.5 36.1429
2618.5 54.8571
2619.5 96
2620.5 75.1429
2621.5 38.7143
2622.5 39.1429
2623.5 22.2857
2624.5 25.4286
2625.5 32.5714
2626.5 27
2627.5 14.2857
2628.5 1.85714
2629.5 9.85714
2630.5 17.4286
2631.5 34.1429
2632.5 11.8571
2633.5 12.7143
2634.5 19.5714
2635.5 13.1429
2636.5 1.85714
2637.5 35
2638.5 30.8571
2639.5 13
2640.5 19.7143
2641.5 52.7143
2642.5 30.4286
2643.5 22.7143
2644.5 6
2645.5 12.5714
2646.5 25.5714
2647.5 39.2857
2648.5 7
2649.5 17.5714
2650.5 21.7143
2651.5 18.1429
2652.5 35.7143
2653.5 43.8571
2654.5 53.8571
2655.5 85.1429
2656.5 66.2857
2657.5 78
2658.5 60.4286
2659.5 58.7143
2660.5 14.4286
2661.5 28.8571
2662.5 33.2857
2663.5 21.5714
2664.5 12.2857
2665.5 40.4286
2666.5 34.1429
2667.5 27.5714
2668.5 65.8571
2669.5 77.2857
2670.5 106.714
2671.5 129
2672.5 85.2857
2673.5 62
2674.5 49
2675.5 -0.285715
2676.5 10.7143
2677.5 25.4286
2678.5 20.1429
2679.5 12.8571
2680.5 37.8571
2681.5 23.2857
2682.5 22.1429
2683.5 23.4286
2684.5 14.4286
2685.5 23.5714
2686.5 17
2687.5 29.4286
2688.5 -2
2689.5 19.4286
2690.5 25
2691.5 18.7143
2692.5 -3
2693.5 -11.2857
2694.5 6.28571
2695.5 7.71429
2696.5 15.1429
2697.5 8.28571
2698.5 10.2857
2699.5 10.8571
2700.5 14.5714
2701.5 15.2857
2702.5 21
2703.5 11.1429
2704.5 20.2857
2705.5 27.4286
2706.5 26.8571
2707.5 -3.57143
2708.5 22.4286
2709.5 19.4286
2710.5 13.5714
2711.5 19
2712.5 15.7143
2713.5 55.4286
2714.5 21.7143
2715.5 21.2857
2716.5 28.4286
2717.5 5.42857
2718.5 30.2857
2719.5 14.1429
2720.5 -4.71429
2721.5 17.1429
2722.5 45
2723.5 27
2724.5 9.71428
2725.5 33.8571
2726.5 21
2727.5 22.5714
2728.5 14.8571
2729.5 17.7143
2730.5 39.4286
2731.5 12.7143
2732.5 10.1429
2733.5 21
2734.5 1.71429
2735.5 25.4286
2736.5 26.7143
2737.5 4.57143
2738.5 25
2739.5 8.28571
2740.5 11.1429
2741.5 19.4286
2742.5 22.7143
2743.5 35.2857
2744.5 37.5714
2745.5 3.42857
2746.5 13.2857
2747.5 16.5714
2748.5 24.4286
2749.5 -1
2750.5 7.28571
2751.5 27
2752.5 12.8571
2753.5 19.1429
2754.5 16.5714
2755.5 14.4286
2756.5 29
2757.5 49
2758.5 30
2759.5 32.7143
2760.5 -0.285715
2761.5 7
2762.5 6.42857
2763.5 17.1429
2764.5 11.2857
2765.5 24.1429
2766.5 41.1429
2767.5 89.2857
2768.5 98.7143
2769.5 89.1429
2770.5 54.8571
2771.5 63.1429
2772.5 11.1429
2773.5 24.7143
2774.5 23.8571
2775.5 37.8571
2776.5 8.85714
2777.5 3.85714
2778.5 13.2857
2779.5 33.1429
2780.5 35.4286
2781.5 25
2782.5 46.4286
2783.5 35.2857
2784.5 30.5714
2785.5 18.2857
2786.5 -6.14286
2787.5 32.5714
2788.5 30.8571
2789.5 44.5714
2790.5 21.1429
2791.5 29.1429
2792.5 -1.71429
2793.5 26.8571
2794.5 31
2795.5 30.2857
2796.5 51.1429
2797.5 85.5714
2798.5 98.4286
2799.5 114.286
2800.5 143.714
2801.5 73
2802.5 56.5714
2803.5 52.4286
2804.5 27.7143
2805.5 12.8571
2806.5 21.8571
2807.5 -1.28571
2808.5 17
2809.5 15.1429
2810.5 9.57143
2811.5 23.8571
2812.5 22.4286
2813.5 53.2857
2814.5 37
2815.5 48.7143
2816.5 46
2817.5 20.2857
2818.5 13.5714
2819.5 22.1429
2820.5 12.2857
2821.5 17
2822.5 19.5714
2823.5 21.5714
2824.5 22.5714
2825.5 30.7143
2826.5 28.7143
2827.5 4.71429
2828.5 31.4286
2829.5 22.7143
2830.5 33.5714
2831.5 7
2832.5 40.1429
2833.5 19.5714
2834.5 9.28571
2835.5 11
2836.5 31.5714
2837.5 29.4286
2838.5 32.8571
2839.5 31.8571
2840.5 46.1429
2841.5 27.2857
2842.5 13.2857
2843.5 51
2844.5 37.1429
2845.5 61.8571
2846.5 68.2857
2847.5 55.1429
2848.5 42
2849.5 34.8571
2850.5 14.8571
2851.5 17.2857
2852.5 11.2857
2853.5 14.4286
2854.5 11.2857
2855.5 15.4286
2856.5 17.7143
2857.5 20.4286
2858.5 10.4286
2859.5 28.4286
2860.5 27.5714
2861.5 14.1429
2862.5 26.8571
2863.5 12.1429
2864.5 17.4286
2865.5 23.8571
2866.5 28.5714
2867.5 18.4286
2868.5 31.4286
2869.5 29.4286
2870.5 34.7143
2871.5 39.7143
2872.5 10.4286
2873.5 9.71429
2874.5 33.5714
2875.5 26.1429
2876.5 16.8571
2877.5 22.2857
2878.5 22.2857
2879.5 28.8571
2880.5 24
2881.5 29.1429
2882.5 18.7143
2883.5 14.1429
2884.5 32
2885.5 18.2857
2886.5 23.7143
2887.5 14.7143
2888.5 18
2889.5 22.5714
2890.5 30.4286
2891.5 19
2892.5 29
2893.5 13.1429
2894.5 18
2895.5 13.5714
2896.5 17.8571
2897.5 10.1429
2898.5 -2.85714
2899.5 12.1429
2900.5 14.7143
2901.5 3.57143
2902.5 21.5714
2903.5 25
2904.5 29.8571
2905.5 29
2906.5 26.7143
2907.5 19.4286
2908.5 14.2857
2909.5 30.5714
2910.5 22.2857
2911.5 26.5714
2912.5 22.4286
2913.5 13.7143
2914.5 45.5714
2915.5 17.8571
2916.5 29.1429
2917.5 14.4286
2918.5 39
2919.5 47.5714
2920.5 35.2857
2921.5 62.7143
2922.5 78.4286
2923.5 45.1429
2924.5 38.7143
2925.5 24
2926.5 9.85714
2927.5 38.8571
2928.5 29.1429
2929.5 3.14286
2930.5 23.7143
2931.5 29.2857
2932.5 3.85714
2933.5 27.4286
2934.5 8
2935.5 25.7143
2936.5 35
2937.5 25.7143
2938.5 28.2857
2939.5 35.4286
2940.5 40.1429
2941.5 28.7143
2942.5 22.2857
2943.5 33.7143
2944.5 57.2857
2945.5 33.8571
2946.5 15.2857
2947.5 48.1429
2948.5 10
2949.5 37.8571
2950.5 -2
2951.5 28.5714
2952.5 16.8571
2953.5 23.8571
2954.5 24.2857
2955.5 23.8571
2956.5 6.85714
2957.5 23.5714
2958.5 10.1429
2959.5 31.7143
2960.5 25.8571
2961.5 16.4286
2962.5 20.7143
2963.5 16.1429
2964.5 9.42857
2965.5 28.8571
2966.5 21.5714
2967.5 7.85714
2968.5 11.4286
2969.5 27
2970.5 18.7143
2971.5 23.4286
2972.5 17.1429
2973.5 44.5714
2974.5 16
2975.5 32.4286
2976.5 31
2977.5 29.4286
2978.5 19.1429
2979.5 11.4286
2980.5 35.2857
2981.5 34.1429
2982.5 27.2857
2983.5 22.7143
2984.5 20.4286
2985.5 22.4286
2986.5 20.4286
2987.5 28.2857
2988.5 32.4286
2989.5 24.8571
2990.5 34.7143
2991.5 18.1429
2992.5 28.4286
2993.5 29.7143
2994.5 27.5714
2995.5 17.7143
2996.5 33.2857
2997.5 38.7143
2998.5 41.2857
2999.5 22.7143
3000.5 23.4286
3001.5 9.14286
3002.5 32.2857
3003.5 25.5714
3004.5 16.4286
3005.5 21
3006.5 42.2857
3007.5 34.1429
3008.5 39
3009.5 21.5714
3010.5 22.2857
3011.5 15.2857
3012.5 19.7143
3013.5 33.2857
3014.5 32.8571
3015.5 36.2857
3016.5 16
3017.5 14.4286
3018.5 37.8571
3019.5 27.8571
3020.5 11.5714
3021.5 31.4286
3022.5 36.5714
3023.5 24
3024.5 25.1429
3025.5 15.8571
3026.5 19.4286
3027.5 38.8571
3028.5 11.5714
3029.5 26
3030.5 28.5714
3031.5 35.2857
3032.5 45.8571
3033.5 28.1429
3034.5 36.7143
3035.5 43.1429
3036.5 45
3037.5 59.8571
3038.5 83
3039.5 38.8571
3040.5 23.2857
3041.5 46.2857
3042.5 29
3043.5 24.2857
3044.5 40.2857
3045.5 39.2857
3046.5 24.5714
3047.5 23.5714
3048.5 8
3049.5 15.7143
3050.5 13.2857
3051.5 28.1429
3052.5 46.4286
3053.5 23.7143
3054.5 35.1429
3055.5 30.4286
3056.5 26.7143
3057.5 24
3058.5 46.8571
3059.5 6
3060.5 19.7143
3061.5 0.142857
3062.5 41.7143
3063.5 28.2857
3064.5 38
3065.5 37.7143
3066.5 34.8571
3067.5 15.5714
3068.5 29.7143
3069.5 34.5714
3070.5 14
3071.5 50.8571
3072.5 20.8571
3073.5 28.7143
3074.5 22.5714
3075.5 38.5714
3076.5 23.7143
3077.5 26.2857
3078.5 28
3079.5 40.2857
3080.5 13.8571
3081.5 30.7143
3082.5 27.5714
3083.5 4
3084.5 6.57143
3085.5 20.1429
3086.5 16.8571
3087.5 13.4286
3088.5 32.8571
3089.5 15.2857
3090.5 4.57143
3091.5 22.4286
3092.5 28.4286
3093.5 35.4286
3094.5 28.8571
3095.5 27.8571
3096.5 42.1429
3097.5 26.8571
3098.5 46.2857
3099.5 38.2857
3100.5 42.7143
3101.5 22.7143
3102.5 35.4286
3103.5 26.2857
3104.5 38.1429
3105.5 25.4286
3106.5 16.5714
3107.5 12.1429
3108.5 22.5714
3109.5 1.85714
3110.5 10.4286
3111.5 30.4286
3112.5 13.8571
3113.5 14.7143
3114.5 19
3115.5 24.8571
3116.5 34.2857
3117.5 36.7143
3118.5 19.2857
3119.5 5.57143
3120.5 27.5714
3121.5 15.2857
3122.5 22.5714
3123.5 41
3124.5 35.5714
3125.5 68.1429
3126.5 66.8571
3127.5 55.2857
3128.5 47
3129.5 29.4286
3130.5 33.1429
3131.5 27.7143
3132.5 29
3133.5 42.2857
3134.5 42.4286
3135.5 7.57143
3136.5 14
3137.5 31.4286
3138.5 10.8571
3139.5 23.1429
3140.5 41.5714
3141.5 16.4286
3142.5 12.2857
3143.5 29.1429
3144.5 7.85714
3145.5 3.42857
3146.5 31.5714
3147.5 32.7143
3148.5 25.8571
3149.5 31.2857
3150.5 13.4286
3151.5 46.4286
3152.5 37.8571
3153.5 27.2857
3154.5 7.28571
3155.5 17
3156.5 14.2857
3157.5 31.7143
3158.5 47.4286
3159.5 15.1429
3160.5 32.2857
3161.5 20.1429
3162.5 18.4286
3163.5 37.2857
3164.5 31.7143
3165.5 27.4286
3166.5 23.1429
3167.5 14.2857
3168.5 25
3169.5 12.2857
3170.5 12
3171.5 -1.71429
3172.5 13.2857
3173.5 7.71429
3174.5 39.4286
3175.5 13
3176.5 25.4286
3177.5 18.7143
3178.5 11.5714
3179.5 15.2857
3180.5 24.5714
3181.5 38.2857
3182.5 29.2857
3183.5 14
3184.5 -2.14286
3185.5 22.8571
3186.5 26
3187.5 21.5714
3188.5 30.5714
3189.5 40.8571
3190.5 15.8571
3191.5 22.4286
3192.5 2.14286
3193.5 18.8571
3194.5 15
3195.5 20.5714
3196.5 13.2857
3197.5 34.7143
3198.5 33.8571
3199.5 6.42857
3200.5 -4.57143
3201.5 7.14286
3202.5 23.1429
3203.5 7.42857
3204.5 7.57143
3205.5 21.8571
3206.5 14.4286
3207.5 31.1429
3208.5 16.2857
3209.5 33.7143
3210.5 9.42857
3211.5 8.28571
3212.5 16
3213.5 33.4286
3214.5 12.4286
3215.5 25
3216.5 19
3217.5 40
3218.5 28
3219.5 34.2857
3220.5 49
3221.5 12.5714
3222.5 22.5714
3223.5 0.857142
3224.5 8.14286
3225.5 8.42857
3226.5 24.5714
3227.5 24.1429
3228.5 6.85714
3229.5 20.2857
3230.5 8.28571
3231.5 26.5714
3232.5 6.28571
3233.5 22.7143
3234.5 25.8571
3235.5 19.4286
3236.5 21.7143
3237.5 23.1429
3238.5 50.1429
3239.5 31
3240.5 54.8571
3241.5 36.1429
3242.5 46.2857
3243.5 49.4286
3244.5 27.7143
3245.5 18.4286
3246.5 32.5714
3247.5 20.4286
3248.5 23.2857
3249.5 24
3250.5 18.1429
3251.5 11.8571
3252.5 11.1429
3253.5 24.2857
3254.5 24.5714
3255.5 18
3256.5 14
3257.5 3.71429
3258.5 11.2857
3259.5 0.428571
3260.5 31.5714
3261.5 21.4286
3262.5 16.7143
3263.5 18.1429
3264.5 25.2857
3265.5 20.5714
3266.5 34.1429
3267.5 6.14286
3268.5 10.5714
3269.5 20.1429
3270.5 14.7143
3271.5 18.5714
3272.5 22.2857
3273.5 -7.57143
3274.5 15.1429
3275.5 4.14286
3276.5 21.5714
3277.5 18.7143
3278.5 9.14286
3279.5 31.8571
3280.5 12.8571
3281.5 5.14286
3282.5 12.7143
3283.5 17.7143
3284.5 17.4286
3285.5 -5.14286
3286.5 11.2857
3287.5 2.71429
3288.5 12.5714
3289.5 6.28571
3290.5 19
3291.5 35.1429
3292.5 20
3293.5 24.4286
3294.5 7.57143
3295.5 12.4286
3296.5 6.85714
3297.5 2.71429
3298.5 30.8571
3299.5 47.4286
3300.5 53.4286
3301.5 69.4286
3302.5 64.1429
3303.5 47.8571
3304.5 37.5714
3305.5 48.5714
3306.5 82.4286
3307.5 202.286
3308.5 409
3309.5 626.571
3310.5 840.286
3311.5 710.286
3312.5 499.429
3313.5 166.143
3314.5 76
3315.5 29.5714
3316.5 41.5714
3317.5 14.8571
3318.5 11.1429
3319.5 16.8571
3320.5 11
3321.5 15.8571
3322.5 31
3323.5 12.7143
3324.5 28.4286
3325.5 12.2857
3326.5 43
3327.5 16.5714
3328.5 23.1429
3329.5 25.1429
3330.5 11
3331.5 11
3332.5 27.2857
3333.5 -3.71429
3334.5 -1.85714
3335.5 28.5714
3336.5 -4.71429
3337.5 24
3338.5 13.8571
3339.5 17.2857
3340.5 19.5714
3341.5 19.2857
3342.5 15.1429
3343.5 14.5714
3344.5 22.8571
3345.5 13.5714
3346.5 10.5714
3347.5 16.8571
3348.5 2.57143
3349.5 5
3350.5 15.1429
3351.5 18.1429
3352.5 21.2857
3353.5 25.7143
3354.5 19.2857
3355.5 17.1429
3356.5 3
3357.5 15.5714
3358.5 -0.857143
3359.5 -11.4286
3360.5 15.4286
3361.5 11.7143
3362.5 21.2857
3363.5 12.4286
3364.5 23.8571
3365.5 -12.1429
3366.5 20.5714
3367.5 20
3368.5 14.5714
3369.5 -2.28571
3370.5 15.7143
3371.5 19.4286
3372.5 16
3373.5 8.71429
3374.5 13.7143
3375.5 13.4286
3376.5 13.7143
3377.5 31.4286
3378.5 30.4286
3379.5 -0.714286
3380.5 21.8571
3381.5 24
3382.5 24
3383.5 8.28571
3384.5 17.4286
3385.5 17.2857
3386.5 18.2857
3387.5 6.71429
3388.5 8.42857
3389.5 13.8571
3390.5 -8.28571
3391.5 12.2857
3392.5 -0.142858
3393.5 17.4286
3394.5 34.4286
3395.5 33.4286
3396.5 37.2857
3397.5 19.1429
3398.5 12.4286
3399.5 1.14286
3400.5 -23
3401.5 -3.28571
3402.5 0.285714
3403.5 8.71429
3404.5 15
3405.5 -0.857143
3406.5 10.5714
3407.5 21.7143
3408.5 8.57143
3409.5 -6.57143
3410.5 9.14286
3411.5 16.5714
3412.5 21
3413.5 14
3414.5 6.42857
3415.5 17.5714
3416.5 12.7143
3417.5 18.1429
3418.5 16.8571
3419.5 11.5714
3420.5 5.14286
3421.5 20.4286
3422.5 37.7143
3423.5 22.4286
3424.5 18
3425.5 28.2857
3426.5 44.1429
3427.5 25.5714
3428.5 10.7143
3429.5 30.8571
3430.5 -4.17233e-07
3431.5 15.5714
3432.5 -0.714286
3433.5 14.2857
3434.5 5
3435.5 20.4286
3436.5 7.85714
3437.5 9.42857
3438.5 9.71429
3439.5 14.1429
3440.5 20.2857
3441.5 3.85714
3442.5 -2.85714
3443.5 7.14286
3444.5 11
3445.5 11.7143
3446.5 11.7143
3447.5 13.1429
3448.5 29.5714
3449.5 49.2857
3450.5 14.1429
3451.5 30.5714
3452.5 28.4286
3453.5 35
3454.5 20.8571
3455.5 35.1429
3456.5 17.1429
3457.5 -3.28571
3458.5 13
3459.5 24.8571
3460.5 17.2857
3461.5 8.42857
3462.5 42.1429
3463.5 22.5714
3464.5 14.4286
3465.5 25.5714
3466.5 3.14286
3467.5 20
3468.5 16.1429
3469.5 8.28571
3470.5 16.1429
3471.5 32.2857
3472.5 17.5714
3473.5 5.57143
3474.5 4.71429
3475.5 14
3476.5 21
3477.5 16.2857
3478.5 36.1429
3479.5 22.5714
3480.5 -2.57143
3481.5 15.5714
3482.5 17.7143
3483.5 23.4286
3484.5 17.8571
3485.5 21.5714
3486.5 19.7143
3487.5 7.28571
3488.5 20.4286
3489.5 6.14286
3490.5 14.1429
3491.5 33.5714
3492.5 28
3493.5 -2.85714
3494.5 25.7143
3495.5 -3.28571
3496.5 11.8571
3497.5 25.4286
3498.5 20
3499.5 17.5714
3500.5 13.8571
3501.5 30.2857
3502.5 19.7143
3503.5 27.7143
3504.5 39.8571
3505.5 49.7143
3506.5 66
3507.5 81.2857
3508.5 79.7143
3509.5 70.8571
3510.5 33.4286
3511.5 27.2857
3512.5 31
3513.5 14.7143
3514.5 18.8571
3515.5 19.5714
3516.5 24.5714
3517.5 19.1429
3518.5 18.4286
3519.5 19.4286
3520.5 25.8571
3521.5 25.2857
3522.5 22.2857
3523.5 31.8571
3524.5 30.7143
3525.5 16
3526.5 10.8571
3527.5 13
3528.5 -1
3529.5 -4.76837e-07
3530.5 4.71429
3531.5 -7.42857
3532.5 -16.4286
3533.5 -3.57143
3534.5 -18
3535.5 -6.57143
3536.5 14.1429
3537.5 3.85714
3538.5 6.57143
3539.5 21.2857
3540.5 20.8571
3541.5 34.5714
3542.5 54
3543.5 35.2857
3544.5 81.8571
3545.5 89.7143
3546.5 59.4286
3547.5 30.7143
3548.5 17.8571
3549.5 16.4286
3550.5 21.4286
3551.5 14.4286
3552.5 8.14286
3553.5 17
3554.5 21.5714
3555.5 6
3556.5 9.85714
3557.5 0.714285
3558.5 -4.14286
3559.5 15.8571
3560.5 2.71429
3561.5 7.57143
3562.5 14.2857
3563.5 9
3564.5 9.57143
3565.5 1.71429
3566.5 17
3567.5 18.7143
3568.5 19.2857
3569.5 5
3570.5 4.71429
3571.5 8
3572.5 16.2857
3573.5 18.7143
3574.5 21.4286
3575.5 12.5714
3576.5 6.57143
3577.5 15.2857
3578.5 23.5714
3579.5 23.2857
3580.5 11.2857
3581.5 24.8571
3582.5 19.1429
3583.5 21.5714
3584.5 15.5714
3585.5 -0.714286
3586.5 25.1429
3587.5 6.42857
3588.5 5.71429
3589.5 10.2857
3590.5 12.1429
3591.5 2
3592.5 19.1429
3593.5 16.1429
3594.5 17.8571
3595.5 11.1429
3596.5 9.57143
3597.5 18.4286
3598.5 9.14286
3599.5 15.7143
3600.5 4
3601.5 7.42857
3602.5 6.57143
3603.5 29.7143
3604.5 4
3605.5 31
3606.5 40
3607.5 58.1429
3608.5 107.857
3609.5 105.286
3610.5 112.571
3611.5 71.1429
3612.5 13.8571
3613.5 26.7143
3614.5 14.8571
3615.5 14.2857
3616.5 4.71429
3617.5 6.85714
3618.5 18.8571
3619.5 24.1429
3620.5 4.71429
3621.5 24.4286
3622.5 6.28571
3623.5 6.71429
3624.5 -4.85714
3625.5 15.2857
3626.5 22.8571
3627.5 38.1429
3628.5 17.5714
3629.5 13.8571
3630.5 13.2857
3631.5 15.7143
3632.5 11
3633.5 9
3634.5 4.28571
3635.5 12.1429
3636.5 6.14286
3637.5 5.28571
3638.5 4.28571
3639.5 20.7143
3640.5 8.14286
3641.5 42.2857
3642.5 33.7143
3643.5 37.8571
3644.5 59.1429
3645.5 88.2857
3646.5 58.8571
3647.5 41.4286
3648.5 30.1429
3649.5 22.4286
3650.5 14.5714
3651.5 11.4286
3652.5 20.7143
3653.5 23
3654.5 18.7143
3655.5 10.2857
3656.5 13.1429
3657.5 28
3658.5 30.8571
3659.5 48.5714
3660.5 52.4286
3661.5 36.2857
3662.5 42.2857
3663.5 14.1429
3664.5 26
3665.5 -1.14286
3666.5 10.1429
3667.5 -3.85714
3668.5 5.28571
3669.5 8.71429
3670.5 24.1429
3671.5 19.2857
3672.5 3.57143
3673.5 8.28571
3674.5 23
3675.5 18.7143
3676.5 27.8571
3677.5 0.428571
3678.5 18.1429
3679.5 17.5714
3680.5 9.42857
3681.5 16.7143
3682.5 12.7143
3683.5 3.28571
3684.5 10.1429
3685.5 13.1429
3686.5 27.1429
3687.5 9.28571
3688.5 7.14286
3689.5 12.5714
3690.5 13.5714
3691.5 3.85714
3692.5 15.5714
3693.5 8.14286
3694.5 9.14286
3695.5 22.4286
3696.5 9.71429
3697.5 31
3698.5 5.57143
3699.5 17.2857
3700.5 29.4286
3701.5 14
3702.5 6.57143
3703.5 13.5714
3704.5 15.7143
3705.5 24.4286
3706.5 14.2857
3707.5 8
3708.5 21.8571
3709.5 25.5714
3710.5 5.14286
3711.5 -0.142858
3712.5 13.7143
3713.5 18.1429
3714.5 10.4286
3715.5 15
3716.5 18.8571
3717.5 6
3718.5 26.4286
3719.5 11
3720.5 11.1429
3721.5 10.5714
3722.5 12.8571
3723.5 15
3724.5 22.7143
3725.5 11.4286
3726.5 19.1429
3727.5 11.8571
3728.5 -0.571429
3729.5 10.1429
3730.5 7.42857
3731.5 -6.71429
3732.5 8
3733.5 10
3734.5 9.42857
3735.5 16.8571
3736.5 9.42857
3737.5 6.71429
3738.5 9.57143
3739.5 18.8571
3740.5 8.28571
3741.5 16
3742.5 8.28571
3743.5 15.5714
3744.5 31.8571
3745.5 48.4286
3746.5 36.5714
3747.5 50.7143
3748.5 71.1429
3749.5 30.2857
3750.5 31.2857
3751.5 7.57143
3752.5 16.4286
3753.5 9
3754.5 25.5714
3755.5 20.2857
3756.5 25.4286
3757.5 3.71429
3758.5 16.8571
3759.5 17.7143
3760.5 27.5714
3761.5 32.2857
3762.5 20.4286
3763.5 44.8571
3764.5 34.8571
3765.5 60.4286
3766.5 44.7143
3767.5 35.7143
3768.5 29.1429
3769.5 18.7143
3770.5 18.7143
3771.5 4
3772.5 11.4286
3773.5 17.5714
3774.5 10.1429
3775.5 7.28571
3776.5 25.5714
3777.5 16.2857
3778.5 1.42857
3779.5 20.1429
3780.5 6.42857
3781.5 11.1429
3782.5 10.1429
3783.5 14.4286
3784.5 16
3785.5 9
3786.5 10.5714
3787.5 14
3788.5 22.5714
3789.5 3.28571
3790.5 24.5714
3791.5 16.2857
3792.5 7.42857
3793.5 9.28571
3794.5 11.7143
3795.5 7.28571
3796.5 17
3797.5 14.5714
3798.5 2.57143
3799.5 -5.71429
3800.5 5.71429
3801.5 -5.28571
3802.5 3.85714
3803.5 14.8571
3804.5 16.4286
3805.5 9.71429
3806.5 27.7143
3807.5 5.71429
3808.5 20.8571
3809.5 20.4286
3810.5 5.28571
3811.5 14.5714
3812.5 15.5714
3813.5 2
3814.5 22.5714
3815.5 16.8571
3816.5 -1.28571
3817.5 7.85714
3818.5 8
3819.5 8.42857
3820.5 14.7143
3821.5 10.1429
3822.5 33.2857
3823.5 3.14286
3824.5 10.8571
3825.5 4.28571
3826.5 10
3827.5 5.42857
3828.5 19.4286
3829.5 6
3830.5 12.5714
3831.5 14
3832.5 16.1429
3833.5 7.28571
3834.5 11
3835.5 5.14286
3836.5 11.4286
3837.5 14.4286
3838.5 10.7143
3839.5 21.4286
3840.5 24
3841.5 8.28571
3842.5 17.7143
3843.5 17.1429
3844.5 1
3845.5 5.71429
3846.5 10.2857
3847.5 2.85714
3848.5 -2.42857
3849.5 6.85714
3850.5 9.57143
3851.5 4.57143
3852.5 8
3853.5 8.85714
3854.5 6.28571
3855.5 25.1429
3856.5 2.14286
3857.5 19.8571
3858.5 8.14286
3859.5 9.57143
3860.5 4.28571
3861.5 12.4286
3862.5 8.42857
3863.5 10.7143
3864.5 7.28571
3865.5 22.5714
3866.5 17.1429
3867.5 -7.14286
3868.5 7.28571
3869.5 24.1429
3870.5 23.4286
3871.5 7.71429
3872.5 19.8571
3873.5 6.57143
3874.5 7.57143
3875.5 26.7143
3876.5 3.14286
3877.5 17.5714
3878.5 19.4286
3879.5 20
3880.5 12.7143
3881.5 24.2857
3882.5 9.42857
3883.5 14.4286
3884.5 10.1429
3885.5 8.28571
3886.5 9.71429
3887.5 8.57143
3888.5 4.71429
3889.5 18.7143
3890.5 9.28571
3891.5 17.2857
3892.5 3.42857
3893.5 12.7143
3894.5 8.85714
3895.5 12.8571
3896.5 4
3897.5 8.42857
3898.5 13.2857
3899.5 8.71429
3900.5 16
3901.5 4.28571
3902.5 -0.714286
3903.5 9.85714
3904.5 1.14286
3905.5 7
3906.5 -6.28571
3907.5 20.1429
3908.5 5.14286
3909.5 10.5714
3910.5 10.7143
3911.5 15.4286
3912.5 12.2857
3913.5 2.85714
3914.5 8
3915.5 17.2857
3916.5 15.5714
3917.5 10
3918.5 1
3919.5 9.42857
3920.5 15.5714
3921.5 11.7143
3922.5 19.2857
3923.5 2.71429
3924.5 9.85714
3925.5 25
3926.5 23.1429
3927.5 4.57143
3928.5 -1.14286
3929.5 10.5714
3930.5 4.71429
3931.5 12
3932.5 66.4286
3933.5 56.7143
3934.5 94
3935.5 77.7143
3936.5 51.1429
3937.5 37.1429
3938.5 16.7143
3939.5 13.8571
3940.5 8.28571
3941.5 19
3942.5 1.85714
3943.5 5.14286
3944.5 14.5714
3945.5 12.8571
3946.5 14
3947.5 13.8571
3948.5 8.14286
3949.5 -4.71429
3950.5 9.42857
3951.5 8.28571
3952.5 13.1429
3953.5 -2.42857
3954.5 7.71429
3955.5 -54.8571
3956.5 -26.1429
3957.5 -28.4286
3958.5 -30.8571
3959.5 1.14286
3960.5 20.5714
3961.5 73.7143
3962.5 74.4286
3963.5 89
3964.5 51.8571
3965.5 40
3966.5 17.7143
3967.5 18.4286
3968.5 15.4286
3969.5 18.5714
3970.5 28.1429
3971.5 21.4286
3972.5 -1.28572
3973.5 45.7143
3974.5 2.42857
3975.5 19.2857
3976.5 5.14286
3977.5 16.2857
3978.5 18
3979.5 15.1429
3980.5 21
3981.5 40.1429
3982.5 22.2857
3983.5 9.42857
3984.5 14.7143
3985.5 10.1429
3986.5 8
3987.5 4.14286
3988.5 16.5714
3989.5 5.28571
3990.5 9.71429
3991.5 11.8571
3992.5 13
3993.5 -0.428572
3994.5 10.4286
3995.5 12.8571
3996.5 2.57143
3997.5 6.57143
3998.5 20.5714
3999.5 22.1429
4000.5 6.28571
4001.5 6
4002.5 9.57143
4003.5 6.57143
4004.5 10
4005.5 6.71429
4006.5 11.5714
4007.5 29.1429
4008.5 22.2857
4009.5 23.2857
4010.5 10.8571
4011.5 30.2857
4012.5 44.1429
4013.5 65.8571
4014.5 63.8571
4015.5 45.2857
4016.5 71.8571
4017.5 62.7143
4018.5 58.8571
4019.5 64.7143
4020.5 87.2857
4021.5 57
4022.5 61
4023.5 22.4286
4024.5 26.5714
4025.5 16
4026.5 -2
4027.5 22.4286
4028.5 25.4286
4029.5 30.2857
4030.5 56.5714
4031.5 52.7143
4032.5 56.1429
4033.5 36.8571
4034.5 32
4035.5 12.8571
4036.5 23.2857
4037.5 16.5714
4038.5 13
4039.5 8.57143
4040.5 5.42857
4041.5 -0.428572
4042.5 4
4043.5 1.14286
4044.5 16.8571
4045.5 7.14286
4046.5 9
4047.5 7.71429
4048.5 17.5714
4049.5 14.8571
4050.5 11.7143
4051.5 10.8571
4052.5 -0.428572
4053.5 2.71429
4054.5 -0.857143
4055.5 10.4286
4056.5 9.28571
4057.5 8.42857
4058.5 13.5714
4059.5 4.42857
4060.5 3.71429
4061.5 7.85714
4062.5 12.8571
4063.5 0.142857
4064.5 9.71429
4065.5 10.4286
4066.5 19.5714
4067.5 11.1429
4068.5 22.2857
4069.5 16
4070.5 13.2857
4071.5 15
4072.5 3.14286
4073.5 10.8571
4074.5 3.57143
4075.5 13.2857
4076.5 18.4286
4077.5 17.7143
4078.5 4.42857
4079.5 16
4080.5 6
4081.5 15.7143
4082.5 12.2857
4083.5 7.42857
4084.5 8.85714
4085.5 5
4086.5 10.8571
4087.5 13.5714
4088.5 11.7143
4089.5 -8.71429
4090.5 0.857143
4091.5 13.5714
4092.5 8.71429
4093.5 6.42857
4094.5 12
4095.5 12.2857
4096.5 10
4097.5 6.42857
4098.5 -2.38419e-07
4099.5 21.8571
4100.5 9.28571
4101.5 7.57143
4102.5 2.57143
4103.5 7
4104.5 9.57143
4105.5 13.4286
4106.5 1.42857
4107.5 2.85714
4108.5 24.7143
4109.5 0.714285
4110.5 8.85714
4111.5 6.42857
4112.5 2.14286
4113.5 20
4114.5 11.1429
4115.5 15.8571
4116.5 6
4117.5 8.57143
4118.5 15
4119.5 12.2857
4120.5 -1.85714
4121.5 5.85714
4122.5 10.1429
4123.5 2.14286
4124.5 9.14286
4125.5 -3.14286
4126.5 11.7143
4127.5 13.2857
4128.5 15.1429
4129.5 16.2857
4130.5 11.1429
4131.5 0.857143
4132.5 13.1429
4133.5 17.7143
4134.5 3.57143
4135.5 6.71429
4136.5 9.42857
4137.5 3.28571
4138.5 12.2857
4139.5 23.7143
4140.5 10.1429
4141.5 20.4286
4142.5 8.14286
4143.5 15
4144.5 1.85714
4145.5 5.42857
4146.5 15.1429
4147.5 14.5714
4148.5 8.71429
4149.5 -2.14286
4150.5 12.8571
4151.5 23.2857
4152.5 13.8571
4153.5 28.1429
4154.5 35.2857
4155.5 22.4286
4156.5 8.57143
4157.5 15.5714
4158.5 11.4286
4159.5 11.4286
4160.5 -10.1429
4161.5 3.42857
4162.5 7.71429
4163.5 13
4164.5 0.285714
4165.5 11.1429
4166.5 6.28571
4167.5 19.8571
4168.5 15.5714
4169.5 8.28571
4170.5 11.2857
4171.5 3.42857
4172.5 -1
4173.5 -3.42857
4174.5 6.42857
4175.5 16.1429
4176.5 9.71429
4177.5 10.4286
4178.5 4.14286
4179.5 -4.28571
4180.5 10.1429
4181.5 16.4286
4182.5 10.2857
4183.5 10.7143
4184.5 8.71429
4185.5 11.7143
4186.5 12.5714
4187.5 9.71429
4188.5 10.1429
4189.5 14.2857
4190.5 6.85714
4191.5 8.57143
4192.5 6.42857
4193.5 8.28571
4194.5 5.14286
4195.5 12.1429
4196.5 4.57143
4197.5 11.2857
4198.5 22.1429
4199.5 10.8571
4200.5 2.14286
4201.5 4.71429
4202.5 11.4286
4203.5 8
4204.5 7
4205.5 18.5714
4206.5 2.14286
4207.5 26.2857
4208.5 18
4209.5 33.1429
4210.5 10.4286
4211.5 11.4286
4212.5 5.14286
4213.5 15.7143
4214.5 11.5714
4215.5 15.2857
4216.5 20.7143
4217.5 11.7143
4218.5 8.71429
4219.5 2.85714
4220.5 2.28571
4221.5 12.5714
4222.5 -6.42857
4223.5 -0.428572
4224.5 14.5714
4225.5 -1.78814e-07
4226.5 16.2857
4227.5 12.1429
4228.5 7
4229.5 15.4286
4230.5 5.42857
4231.5 12.2857
4232.5 11.1429
4233.5 11.1429
4234.5 8.85714
4235.5 15.7143
4236.5 7.28571
4237.5 4.71429
4238.5 1
4239.5 -1.14286
4240.5 16.4286
4241.5 -3.57143
4242.5 6
4243.5 1.42857
4244.5 12.4286
4245.5 -5.28571
4246.5 7.42857
4247.5 -1.28571
4248.5 10.2857
4249.5 11
4250.5 13.1429
4251.5 4.57143
4252.5 8.42857
4253.5 17.7143
4254.5 -0.142857
4255.5 4.42857
4256.5 3.28571
4257.5 11
4258.5 20.7143
4259.5 16.5714
4260.5 13.5714
4261.5 4.57143
4262.5 7.14286
4263.5 5.71429
4264.5 19.7143
4265.5 -11.7143
4266.5 19
4267.5 16.7143
4268.5 8.85714
4269.5 5.71429
4270.5 17.4286
4271.5 27.8571
4272.5 55.2857
4273.5 60.2857
4274.5 113.286
4275.5 150.857
4276.5 193.143
4277.5 174.429
4278.5 106
4279.5 75.7143
4280.5 65.4286
4281.5 30
4282.5 20.8571
4283.5 9.57143
4284.5 8.14286
4285.5 2.71429
4286.5 9.85714
4287.5 20.1429
4288.5 6.42857
4289.5 20.5714
4290.5 5.14286
4291.5 2.28571
4292.5 8.14286
4293.5 4
4294.5 2.57143
4295.5 -2.28571
4296.5 9.85714
4297.5 -5.28571
4298.5 6
4299.5 7.85714
4300.5 3.14286
4301.5 4.28571
4302.5 12.5714
4303.5 4.71429
4304.5 17.8571
4305.5 4.71429
4306.5 8.14286
4307.5 13
4308.5 4
4309.5 10.8571
4310.5 4.85714
4311.5 -6.71429
4312.5 8.42857
4313.5 5.85714
4314.5 16.8571
4315.5 5
4316.5 18.4286
4317.5 8.57143
4318.5 -1.71429
4319.5 12.5714
4320.5 4.28571
4321.5 16.2857
4322.5 -1.14286
4323.5 6
4324.5 11.1429
4325.5 -3
4326.5 5.57143
4327.5 24.4286
4328.5 13
4329.5 13
4330.5 5.42857
4331.5 6.85714
4332.5 2.57143
4333.5 6.85714
4334.5 11.2857
4335.5 5.42857
4336.5 12.2857
4337.5 8
4338.5 17.7143
4339.5 1.57143
4340.5 10.5714
4341.5 9.14286
4342.5 35
4343.5 28
4344.5 31.4286
4345.5 30.8571
4346.5 36.1429
4347.5 15.2857
4348.5 7.85714
4349.5 9.14286
4350.5 17.4286
4351.5 6.28571
4352.5 2.28571
4353.5 11.7143
4354.5 6.14286
4355.5 1.71429
4356.5 2.28571
4357.5 17.4286
4358.5 -1.19209e-07
4359.5 1.57143
4360.5 14.2857
4361.5 13.7143
4362.5 16.2857
4363.5 12.4286
4364.5 13.1429
4365.5 11.7143
4366.5 9.71429
4367.5 8
4368.5 6.14286
4369.5 4
4370.5 4.71429
4371.5 13
4372.5 12.4286
4373.5 10.1429
4374.5 8.57143
4375.5 7.28571
4376.5 0.428571
4377.5 3.28571
4378.5 -13.7143
4379.5 15
4380.5 -3.85714
4381.5 9.14286
4382.5 8.28571
4383.5 16.8571
4384.5 -0.428572
4385.5 0.142857
4386.5 2.28571
4387.5 6.71429
4388.5 6.28571
4389.5 -10.5714
4390.5 -3.85714
4391.5 6.57143
4392.5 9.42857
4393.5 6.28571
4394.5 1.28571
4395.5 -0.285715
4396.5 16.7143
4397.5 10.5714
4398.5 6.42857
4399.5 9.28571
4400.5 14.8571
4401.5 0.571428
4402.5 4.85714
4403.5 19.4286
4404.5 7
4405.5 -7
4406.5 3.28571
4407.5 -1
4408.5 6.71429
4409.5 4.85714
4410.5 15.4286
4411.5 17.5714
4412.5 8
4413.5 12.4286
4414.5 3.57143
4415.5 0.285714
4416.5 7.28571
4417.5 -4.71429
4418.5 -2.28571
4419.5 13.7143
4420.5 3.85714
4421.5 6
4422.5 5.42857
4423.5 22.2857
4424.5 10
4425.5 4.57143
4426.5 9.57143
4427.5 10.5714
4428.5 10.1429
4429.5 -2.85714
4430.5 10.2857
4431.5 9.85714
4432.5 7.28571
4433.5 1.85714
4434.5 -2
4435.5 2.28571
4436.5 14.2857
4437.5 12
4438.5 15.8571
4439.5 4.57143
4440.5 -5.42857
4441.5 12.7143
4442.5 1.14286
4443.5 7.85714
4444.5 6
4445.5 3.14286
4446.5 0.571428
4447.5 6.42857
4448.5 12.7143
4449.5 7.71429
4450.5 -0.857143
4451.5 13.8571
4452.5 3.28571
4453.5 11
4454.5 7.71429
4455.5 6.28571
4456.5 16.4286
4457.5 0.428571
4458.5 -7.14286
4459.5 22.8571
4460.5 17.4286
4461.5 8.14286
4462.5 4.14286
4463.5 -2
4464.5 9.28571
4465.5 7.85714
4466.5 15.8571
4467.5 7.71429
4468.5 2.14286
4469.5 11.1429
4470.5 -0.857143
4471.5 6.14286
4472.5 -4.71429
4473.5 11.8571
4474.5 20.7143
4475.5 2.28571
4476.5 5
4477.5 11.1429
4478.5 1.57143
4479.5 6.42857
4480.5 -2.42857
4481.5 -1.14286
4482.5 3.28571
4483.5 -0.428572
4484.5 9.42857
4485.5 7
4486.5 15
4487.5 -3
4488.5 2.57143
4489.5 11.1429
4490.5 9.71429
4491.5 8.71429
4492.5 11.7143
4493.5 18
4494.5 11.7143
4495.5 13.2857
4496.5 9.28571
4497.5 -0.142857
4498.5 1.57143
4499.5 8.71429
4500.5 12.2857
4501.5 3.57143
4502.5 13.5714
4503.5 4
4504.5 9.14286
4505.5 9.71429
4506.5 8.28571
4507.5 3.71429
4508.5 9.28571
4509.5 7.28571
4510.5 5.14286
4511.5 4
4512.5 6.57143
4513.5 10.2857
4514.5 5.57143
4515.5 11.1429
4516.5 4
4517.5 5.85714
4518.5 4.28571
4519.5 9
4520.5 12.2857
4521.5 19.8571
4522.5 37.8571
4523.5 42.1429
4524.5 57.1429
4525.5 68
4526.5 98.2857
4527.5 100.714
4528.5 124.286
4529.5 65.2857
4530.5 31
4531.5 53.7143
4532.5 29.1429
4533.5 9.42857
4534.5 9.14286
4535.5 10
4536.5 8.42857
4537.5 7.71429
4538.5 4.85714
4539.5 1.71429
4540.5 8.28571
4541.5 4.14286
4542.5 8.71429
4543.5 4.57143
4544.5 7.71429
4545.5 4.14286
4546.5 0.142857
4547.5 5.85714
4548.5 7.57143
4549.5 1
4550.5 19.4286
4551.5 5.14286
4552.5 8.85714
4553.5 12.7143
4554.5 10
4555.5 -1.57143
4556.5 13.7143
4557.5 -7.85714
4558.5 5.71429
4559.5 2
4560.5 5.71429
4561.5 17.8571
4562.5 3.14286
4563.5 13.5714
4564.5 11
4565.5 8.85714
4566.5 6.71429
4567.5 8.85714
4568.5 7.42857
4569.5 9
4570.5 3
4571.5 4.57143
4572.5 6.85714
4573.5 1.71429
4574.5 7.14286
4575.5 0.714286
4576.5 5.85714
4577.5 8.57143
4578.5 8
4579.5 7.42857
4580.5 -0.142857
4581.5 6.28571
4582.5 10.2857
4583.5 5.71429
4584.5 13
4585.5 7.57143
4586.5 -0.142857
4587.5 5.42857
4588.5 1.14286
4589.5 10.1429
4590.5 2.28571
4591.5 9.85714
4592.5 6.42857
4593.5 7
4594.5 5
4595.5 13.5714
4596.5 12.5714
4597.5 3.14286
4598.5 -1.85714
4599.5 10.1429
4600.5 7.14286
4601.5 12.1429
4602.5 9.71429
4603.5 3.57143
4604.5 -2.28571
4605.5 23.2857
4606.5 7.57143
4607.5 7
4608.5 1.57143
4609.5 11
4610.5 7.28571
4611.5 6.28571
4612.5 6
4613.5 13.1429
4614.5 15.4286
4615.5 6.85714
4616.5 3.42857
4617.5 7.42857
4618.5 -4.28571
4619.5 8.42857
4620.5 3.71429
4621.5 7.85714
4622.5 13.8571
4623.5 12.8571
4624.5 -2.14286
4625.5 20
4626.5 -1
4627.5 1.85714
4628.5 12.1429
4629.5 8
4630.5 10.7143
4631.5 5
4632.5 8.85714
4633.5 11.2857
4634.5 21
4635.5 6
4636.5 -10.8571
4637.5 -1.28571
4638.5 2.71429
4639.5 21.4286
4640.5 11.2857
4641.5 -7.28571
4642.5 16.5714
4643.5 13.8571
4644.5 12
4645.5 4.42857
4646.5 14.5714
4647.5 11.2857
4648.5 30.8571
4649.5 31.5714
4650.5 35.8571
4651.5 43.5714
4652.5 14
4653.5 15.5714
4654.5 0.571428
4655.5 11.7143
4656.5 2.14286
4657.5 4.71429
4658.5 3.71429
4659.5 1.14286
4660.5 22.5714
4661.5 30
4662.5 43.8571
4663.5 63.1429
4664.5 90.8571
4665.5 61.5714
4666.5 47.4286
4667.5 46.5714
4668.5 15.5714
4669.5 19.5714
4670.5 4.14286
4671.5 3.57143
4672.5 4.57143
4673.5 14.1429
4674.5 3.57143
4675.5 20
4676.5 12.4286
4677.5 12.5714
4678.5 3
4679.5 8.14286
4680.5 -7.14286
4681.5 8.42857
4682.5 15.4286
4683.5 8
4684.5 4
4685.5 5.57143
4686.5 7
4687.5 15.1429
4688.5 14.4286
4689.5 4.14286
4690.5 4.71429
4691.5 3.71429
4692.5 7.14286
4693.5 10.1429
4694.5 9.28571
4695.5 16
4696.5 4
4697.5 15.5714
4698.5 15.8571
4699.5 6.42857
4700.5 3.71429
4701.5 4.42857
4702.5 4.71429
4703.5 12.7143
4704.5 5
4705.5 15.5714
4706.5 5.28571
4707.5 10.7143
4708.5 7.85714
4709.5 9.57143
4710.5 15.8571
4711.5 13.7143
4712.5 10.5714
4713.5 6
4714.5 11.2857
4715.5 6.57143
4716.5 15
4717.5 12.1429
4718.5 6.28571
4719.5 6.28571
4720.5 1.85714
4721.5 -3
4722.5 13.4286
4723.5 -2.71429
4724.5 18.2857
4725.5 19.2857
4726.5 12.5714
4727.5 5.71429
4728.5 20.7143
4729.5 4.42857
4730.5 7.28571
4731.5 15.2857
4732.5 14.2857
4733.5 2.42857
4734.5 23
4735.5 4
4736.5 11.1429
4737.5 0.285714
4738.5 8.71429
4739.5 7.85714
4740.5 1.42857
4741.5 12.7143
4742.5 16.1429
4743.5 6.14286
4744.5 13
4745.5 5
4746.5 7.57143
4747.5 9.57143
4748.5 3.28571
4749.5 2
4750.5 9.85714
4751.5 10.4286
4752.5 3
4753.5 16.7143
4754.5 11.4286
4755.5 3.85714
4756.5 6.57143
4757.5 7.42857
4758.5 12.2857
4759.5 0.285714
4760.5 12.1429
4761.5 16.5714
4762.5 -0.857143
4763.5 12.1429
4764.5 11.5714
4765.5 11
4766.5 0.571428
4767.5 0.285714
4768.5 12.5714
4769.5 13.8571
4770.5 9.28571
4771.5 10.5714
4772.5 14
4773.5 11.8571
4774.5 14.4286
4775.5 14.8571
4776.5 12.2857
4777.5 7.14286
4778.5 13.8571
4779.5 20.4286
4780.5 7.42857
4781.5 0.714286
4782.5 11.2857
4783.5 5.57143
4784.5 3.14286
4785.5 4.42857
4786.5 -0.142857
4787.5 8.85714
4788.5 6.71429
4789.5 8.57143
4790.5 6.57143
4791.5 0.571428
4792.5 9.14286
4793.5 10.4286
4794.5 -1.85714
4795.5 14.4286
4796.5 12.2857
4797.5 17
4798.5 14.1429
4799.5 9.28571
4800.5 9.28571
4801.5 0.714286
4802.5 5.71429
4803.5 3.28571
4804.5 11.7143
4805.5 6.42857
4806.5 7.28571
4807.5 18.4286
4808.5 -9.71429
4809.5 7.42857
4810.5 2.28571
4811.5 0.285714
4812.5 2.71429
4813.5 11.7143
4814.5 -1.28571
4815.5 2
4816.5 5.42857
4817.5 1.85714
4818.5 7
4819.5 10.2857
4820.5 11.8571
4821.5 19.7143
4822.5 1.71429
4823.5 8.42857
4824.5 3.57143
4825.5 12.5714
4826.5 4.42857
4827.5 -1
4828.5 9.14286
4829.5 9.85714
4830.5 2.85714
4831.5 7
4832.5 13
4833.5 -5.28571
4834.5 7
4835.5 7.57143
4836.5 13
4837.5 0.714286
4838.5 3.28571
4839.5 7.57143
4840.5 17.7143
4841.5 -1.71429
4842.5 10.8571
4843.5 6.71429
4844.5 4.85714
4845.5 18
4846.5 9.14286
4847.5 4.57143
4848.5 4.57143
4849.5 10
4850.5 8.28571
4851.5 5.42857
4852.5 6.85714
4853.5 5.57143
4854.5 9.28571
4855.5 -4
4856.5 7.28571
4857.5 -0.428572
4858.5 13.1429
4859.5 10.2857
4860.5 16.8571
4861.5 3.85714
4862.5 4
4863.5 6
4864.5 0.142857
4865.5 12.4286
4866.5 11.7143
4867.5 5
4868.5 9.28571
4869.5 14.8571
4870.5 4.14286
4871.5 20.8571
4872.5 17.5714
4873.5 -1
4874.5 4.71429
4875.5 1.85714
4876.5 11.8571
4877.5 6.42857
4878.5 8.28571
4879.5 6.28571
4880.5 7.42857
4881.5 5.42857
4882.5 0.285714
4883.5 2.71429
4884.5 7
4885.5 5.28571
4886.5 7.42857
4887.5 11.8571
4888.5 -4.14286
4889.5 3
4890.5 -4.57143
4891.5 7
4892.5 1.57143
4893.5 10.4286
4894.5 6
4895.5 10
4896.5 -3.14286
4897.5 5.85714
4898.5 0.428571
4899.5 8
4900.5 11.1429
4901.5 10.1429
4902.5 8.85714
4903.5 3.42857
4904.5 12.1429
4905.5 9.57143
4906.5 -4.28571
4907.5 4.85714
4908.5 8.57143
4909.5 7.85714
4910.5 -0.285714
4911.5 6
4912.5 8.42857
4913.5 18.8571
4914.5 1.28571
4915.5 5.28571
4916.5 -5.14286
4917.5 -8.57143
4918.5 -6.85714
4919.5 6.85714
4920.5 4.85714
4921.5 5.85714
4922.5 16.8571
4923.5 8.28571
4924.5 6
4925.5 0.428571
4926.5 3.57143
4927.5 -3
4928.5 -0.428572
4929.5 1.85714
4930.5 4.57143
4931.5 -2
4932.5 3.57143
4933.5 8.85714
4934.5 8.71429
4935.5 3.14286
4936.5 -3
4937.5 10
4938.5 3.85714
4939.5 7.14286
4940.5 2.85714
4941.5 5
4942.5 7.28571
4943.5 10.1429
4944.5 16.8571
4945.5 5.85714
4946.5 4.14286
4947.5 2.85714
4948.5 8.14286
4949.5 6.42857
4950.5 -3.85714
4951.5 -6.28571
4952.5 7.42857
4953.5 9.85714
4954.5 -3.14286
4955.5 6.85714
4956.5 8.85714
4957.5 8.57143
4958.5 0.857143
4959.5 3
4960.5 0.285714
4961.5 -2.85714
4962.5 9.57143
4963.5 10
4964.5 4.28571
4965.5 14.2857
4966.5 1
4967.5 2.71429
4968.5 -0.142857
4969.5 -5.85714
4970.5 5
4971.5 5.42857
4972.5 17
4973.5 5.85714
4974.5 1.28571
4975.5 0.428571
4976.5 -1
4977.5 -5.71429
4978.5 -7.42857
4979.5 1.57143
4980.5 1
4981.5 -0.714286
4982.5 2
4983.5 0.714285
4984.5 7.57143
4985.5 9.14286
4986.5 21.4286
4987.5 4.85714
4988.5 7.42857
4989.5 -3.14286
4990.5 1.42857
4991.5 12.8571
4992.5 3.71429
4993.5 5.14286
4994.5 6.85714
4995.5 11.5714
4996.5 2.28571
4997.5 -1.14286
4998.5 -1.85714
4999.5 -0.142857
5000.5 2.71429
5001.5 11.8571
5002.5 6.85714
5003.5 -2.28571
5004.5 9.71429
5005.5 2.57143
5006.5 -1.85714
5007.5 8.28571
5008.5 -1.19209e-07
5009.5 1
5010.5 1.42857
5011.5 3.85714
5012.5 4.57143
5013.5 3.57143
5014.5 2.57143
5015.5 1.85714
5016.5 -2.14286
5017.5 2.42857
5018.5 -2.14286
5019.5 2.14286
5020.5 -6
5021.5 3.85714
5022.5 9.42857
5023.5 -4.71429
5024.5 3.42857
5025.5 6.57143
5026.5 1.57143
5027.5 5.57143
5028.5 0.428571
5029.5 3
5030.5 11.2857
5031.5 23.1429
5032.5 25.8571
5033.5 55.7143
5034.5 118.143
5035.5 144.857
5036.5 191.571
5037.5 240.714
5038.5 308.714
5039.5 235.286
5040.5 186.857
5041.5 111.143
5042.5 91
5043.5 67.7143
5044.5 22.1429
5045.5 3.85714
5046.5 10.2857
5047.5 -3
5048.5 -1.57143
5049.5 8.57143
5050.5 4.14286
5051.5 7.71429
5052.5 -2.85714
5053.5 -2.71429
5054.5 -0.571429
5055.5 -3
5056.5 -1
5057.5 2.85714
5058.5 -5.96046e-08
5059.5 1.42857
5060.5 6.85714
5061.5 3.14286
5062.5 3.14286
5063.5 1.14286
5064.5 0.857143
5065.5 -7
5066.5 -1.28571
5067.5 2.71429
5068.5 8.28571
5069.5 -0.285714
5070.5 1
5071.5 8.85714
5072.5 6.42857
5073.5 2.57143
5074.5 5.57143
5075.5 5.71429
5076.5 0.571428
5077.5 3.57143
5078.5 7.42857
5079.5 0.285714
5080.5 0.142857
5081.5 4.28571
5082.5 7.71429
5083.5 5.42857
5084.5 3.57143
5085.5 6.85714
5086.5 -4.57143
5087.5 -2
5088.5 -5.96046e-08
5089.5 7.28571
5090.5 3.42857
5091.5 -0.285714
5092.5 -1
5093.5 2.85714
5094.5 3
5095.5 2.28571
5096.5 5.57143
5097.5 2.42857
5098.5 -3.28571
5099.5 1.71429
5100.5 -1.28571
5101.5 -3.14286
5102.5 0.285714
5103.5 1.28571
5104.5 1.28571
5105.5 4.28571
5106.5 1.14286
5107.5 -1.57143
5108.5 -0.571429
5109.5 2.14286
5110.5 3.42857
5111.5 -1.85714
5112.5 0.285714
5113.5 5
5114.5 -1.14286
5115.5 -4
5116.5 9.57143
5117.5 -0.857143
5118.5 -3.42857
5119.5 6.28571
5120.5 -2.28571
5121.5 11.5714
5122.5 -0.428572
5123.5 0.571428
5124.5 7.57143
5125.5 -3.14286
5126.5 2.28571
5127.5 2
5128.5 11.8571
5129.5 2.42857
5130.5 4.28571
5131.5 0.285714
5132.5 -3.28571
5133.5 2.57143
5134.5 -4.71429
5135.5 -2.42857
5136.5 0.857143
5137.5 4.42857
5138.5 7
5139.5 11.4286
5140.5 13.8571
5141.5 13.7143
5142.5 13.5714
5143.5 10.2857
5144.5 8.42857
5145.5 15.1429
5146.5 14.1429
5147.5 -0.571429
5148.5 -2.42857
5149.5 6.28571
5150.5 4
5151.5 0.428571
5152.5 -5.96046e-08
5153.5 -0.857143
5154.5 -0.714286
5155.5 1
5156.5 -1.28571
5157.5 5.42857
5158.5 -0.714286
5159.5 -0.571429
5160.5 7.42857
5161.5 0.714286
5162.5 0.428571
5163.5 2.57143
5164.5 9.57143
5165.5 11.7143
5166.5 6.57143
5167.5 3.14286
5168.5 2
5169.5 -1.85714
5170.5 -0.285714
5171.5 1.14286
5172.5 7.14286
5173.5 -2.14286
5174.5 1.14286
5175.5 -6.85714
5176.5 1.42857
5177.5 -5.14286
5178.5 10
5179.5 0.571428
5180.5 2
5181.5 5.28571
5182.5 4.42857
5183.5 -8.71429
5184.5 1.42857
5185.5 1.71429
5186.5 1
5187.5 -4.14286
5188.5 -3.71429
5189.5 -2.71429
5190.5 -6
5191.5 3
5192.5 9
5193.5 -1.42857
5194.5 4.42857
5195.5 -0.714286
5196.5 -8
5197.5 1.85714
5198.5 -4.85714
5199.5 2.28571
5200.5 -1.42857
5201.5 4
5202.5 -0.285714
5203.5 5
5204.5 2.28571
5205.5 3.85714
5206.5 1.14286
5207.5 5.28571
5208.5 -2.57143
5209.5 3.14286
5210.5 -2.42857
5211.5 5.57143
5212.5 0.428571
5213.5 0.285714
5214.5 1
5215.5 -3.28571
5216.5 -6.85714
5217.5 -5.42857
5218.5 -0.428572
5219.5 -2
5220.5 3.28571
5221.5 2.14286
5222.5 -4.57143
5223.5 6.85714
5224.5 -3.14286
5225.5 1.28571
5226.5 4.14286
5227.5 3.71429
5228.5 0.714286
5229.5 2.57143
5230.5 2.28571
5231.5 7.57143
5232.5 7
5233.5 0.428571
5234.5 -3.85714
5235.5 -2.57143
5236.5 8.14286
5237.5 -3.42857
5238.5 4.42857
5239.5 7
5240.5 -5.42857
5241.5 6
5242.5 7.28571
5243.5 -4.85714
5244.5 8
5245.5 6.42857
5246.5 7.14286
5247.5 -2.85714
5248.5 6.42857
5249.5 1.71429
5250.5 -1.28571
5251.5 -2.57143
5252.5 -4.42857
5253.5 -5.28571
5254.5 -4
5255.5 4
5256.5 2.14286
5257.5 8.42857
5258.5 -4
5259.5 -5.96046e-08
5260.5 -0.571429
5261.5 8.71429
5262.5 11.7143
5263.5 6.71429
5264.5 2.14286
5265.5 15
5266.5 1.42857
5267.5 4.57143
5268.5 -0.285714
5269.5 -3.28571
5270.5 0.285714
5271.5 -2.28571
5272.5 4.71429
5273.5 -1.85714
5274.5 -4.71429
5275.5 8.71429
5276.5 -0.571429
5277.5 13.7143
5278.5 -2.71429
5279.5 2.42857
5280.5 -2.57143
5281.5 -3.85714
5282.5 4.14286
5283.5 -6
5284.5 1.57143
5285.5 0.857143
5286.5 -5.85714
5287.5 5.71429
5288.5 14
5289.5 -5.57143
5290.5 -5.57143
5291.5 3
5292.5 3.14286
5293.5 -5.14286
5294.5 4.85714
5295.5 2.85714
5296.5 3
5297.5 -2.85714
5298.5 2.14286
5299.5 -1.28571
5300.5 2.85714
5301.5 8.71429
5302.5 0.142857
5303.5 1.85714
5304.5 7
5305.5 8.57143
5306.5 1.28571
5307.5 2.14286
5308.5 -1.85714
5309.5 2.14286
5310.5 4.14286
5311.5 -2.14286
5312.5 1
5313.5 -2.57143
5314.5 9
5315.5 -3.28571
5316.5 6.28571
5317.5 10.1429
5318.5 -2.85714
5319.5 -1.28571
5320.5 5.14286
5321.5 2.14286
5322.5 -0.857143
5323.5 2.28571
5324.5 1.42857
5325.5 2.14286
5326.5 7.14286
5327.5 3.71429
5328.5 1.28571
5329.5 0.714286
5330.5 10.5714
5331.5 0.571428
5332.5 9.28571
5333.5 -0.714286
5334.5 7.85714
5335.5 4.71429
5336.5 -0.571429
5337.5 4
5338.5 1
5339.5 5.57143
5340.5 -1.71429
5341.5 2
5342.5 -2.28571
5343.5 2.71429
5344.5 8.42857
5345.5 1.14286
5346.5 -3.42857
5347.5 -5.14286
5348.5 4.85714
5349.5 5.57143
5350.5 -6
5351.5 -5.14286
5352.5 8.42857
5353.5 14.5714
5354.5 7.71429
5355.5 -3.71429
5356.5 17
5357.5 9.57143
5358.5 3.57143
5359.5 -2.14286
5360.5 2.42857
5361.5 1
5362.5 -4.28571
5363.5 0.428571
5364.5 1.14286
5365.5 8.14286
5366.5 -0.857143
5367.5 -0.142857
5368.5 1.71429
5369.5 8.85714
5370.5 7.42857
5371.5 -0.142857
5372.5 1
5373.5 -5
5374.5 2.42857
5375.5 4.42857
5376.5 5.14286
5377.5 2.71429
5378.5 -0.571429
5379.5 -4.42857
5380.5 2.57143
5381.5 5.71429
5382.5 0.857143
5383.5 0.285714
5384.5 8.42857
5385.5 3
5386.5 -8.42857
5387.5 4.57143
5388.5 2.71429
5389.5 -1.14286
5390.5 10.5714
5391.5 0.857143
5392.5 -0.857143
5393.5 2.57143
5394.5 -0.428572
5395.5 8.85714
5396.5 -1.57143
5397.5 -7.71429
5398.5 -2.38419e-07
5399.5 -4.57143
5400.5 -0.428572
5401.5 0.428571
5402.5 -0.857143
5403.5 1
5404.5 -4.28571
5405.5 -0.428572
5406.5 1.57143
5407.5 -0.142857
5408.5 2.85714
5409.5 7.85714
5410.5 -1.14286
5411.5 0.142857
5412.5 4.71429
5413.5 1.71429
5414.5 -1
5415.5 8
5416.5 4
5417.5 7
5418.5 0.142857
5419.5 3.85714
5420.5 5.85714
5421.5 1.85714
5422.5 3
5423.5 -1.42857
5424.5 4.14286
5425.5 -1.42857
5426.5 1.42857
5427.5 0.857143
5428.5 0.285714
5429.5 -3.42857
5430.5 6.42857
5431.5 0.571429
5432.5 5.57143
5433.5 3
5434.5 1
5435.5 -0.428572
5436.5 8.42857
5437.5 2.28571
5438.5 1.14286
5439.5 2.57143
5440.5 0.285714
5441.5 3.14286
5442.5 -3.71429
5443.5 8.42857
5444.5 -5.96046e-08
5445.5 1.28571
5446.5 4.85714
5447.5 8.57143
5448.5 6.57143
5449.5 1.85714
5450.5 -1.57143
5451.5 -2.14286
5452.5 4
5453.5 4.71429
5454.5 -2.42857
5455.5 9
5456.5 1.85714
5457.5 3.28571
5458.5 -1.57143
5459.5 2.85714
5460.5 -6.71429
5461.5 8.57143
5462.5 2.85714
5463.5 7.42857
5464.5 -1.85714
5465.5 0.714286
5466.5 9
5467.5 -2.28571
5468.5 -1.28571
5469.5 4.14286
5470.5 4.85714
5471.5 2
5472.5 -7.42857
5473.5 9.42857
5474.5 -4.42857
5475.5 8
5476.5 1
5477.5 3.85714
5478.5 1.57143
5479.5 1.28571
5480.5 -5.14286
5481.5 4
5482.5 3.42857
5483.5 8.71429
5484.5 1.71429
5485.5 8.14286
5486.5 7.28571
5487.5 2.42857
5488.5 9.85714
5489.5 8.57143
5490.5 -4.85714
5491.5 3
5492.5 5.57143
5493.5 -0.571429
5494.5 -3.71429
5495.5 -1.85714
5496.5 -2.42857
5497.5 6.71429
5498.5 3.71429
5499.5 6.85714
5500.5 -1.57143
5501.5 -2.57143
5502.5 1.42857
5503.5 2
5504.5 -1.42857
5505.5 3.28571
5506.5 3.85714
5507.5 3.85714
5508.5 2.14286
5509.5 5.57143
5510.5 11.2857
5511.5 -2.42857
5512.5 5.42857
5513.5 4.14286
5514.5 1.42857
5515.5 0.857143
5516.5 9.14286
5517.5 7.57143
5518.5 1
5519.5 12
5520.5 6
5521.5 7.85714
5522.5 12.5714
5523.5 2.71429
5524.5 -0.571429
5525.5 3.57143
5526.5 0.857143
5527.5 1.71429
5528.5 3.28571
5529.5 3.57143
5530.5 5
5531.5 2.14286
5532.5 2.57143
5533.5 2.42857
5534.5 9.71429
5535.5 10.2857
5536.5 11.2857
5537.5 8.85714
5538.5 -7.71429
5539.5 3.42857
5540.5 2.28571
5541.5 2.28571
5542.5 7.28571
5543.5 3.85714
5544.5 0.142857
5545.5 1
5546.5 3.71429
5547.5 3.28571
5548.5 5.14286
5549.5 5.85714
5550.5 6.28571
5551.5 8.71429
5552.5 2.71429
5553.5 1.57143
5554.5 2.57143
5555.5 9.57143
5556.5 -3.42857
5557.5 0.142857
5558.5 -2.71429
5559.5 0.571429
5560.5 1
5561.5 -3.42857
5562.5 5.71429
5563.5 4.57143
5564.5 -1.85714
5565.5 1.14286
5566.5 4.57143
5567.5 -4.42857
5568.5 9.85714
5569.5 2
5570.5 1
5571.5 7.57143
5572.5 3.85714
5573.5 8.71429
5574.5 4.14286
5575.5 4
5576.5 -3.14286
5577.5 1.42857
5578.5 6.14286
5579.5 5.85714
5580.5 4.14286
5581.5 0.285714
5582.5 3.28571
5583.5 3.28571
5584.5 8.28571
5585.5 -0.571429
5586.5 -1.42857
5587.5 -2.14286
5588.5 7.85714
5589.5 4.57143
5590.5 8.28571
5591.5 -0.428572
5592.5 4
5593.5 1.28571
5594.5 3.42857
5595.5 6.71429
5596.5 -3.42857
5597.5 6.71429
5598.5 -6.28571
5599.5 1.14286
5600.5 0.142857
5601.5 1
5602.5 3.14286
5603.5 5
5604.5 9.14286
5605.5 4.42857
5606.5 7.57143
5607.5 1
5608.5 9.57143
5609.5 8.28571
5610.5 4.71429
5611.5 2.28571
5612.5 4
5613.5 3.28571
5614.5 1.85714
5615.5 4.14286
5616.5 6.14286
5617.5 -5.96046e-08
5618.5 -6.71429
5619.5 2.42857
5620.5 4.85714
5621.5 1.85714
5622.5 3.71429
5623.5 3
5624.5 -3.42857
5625.5 2.71429
5626.5 -0.428572
5627.5 3.42857
5628.5 -6.71429
5629.5 -1.57143
5630.5 2
5631.5 3
5632.5 -0.285714
5633.5 2.71429
5634.5 1.71429
5635.5 5.85714
5636.5 4.42857
5637.5 -1.57143
5638.5 6
5639.5 -1.85714
5640.5 0.142857
5641.5 6.57143
5642.5 0.571429
5643.5 1
5644.5 0.857143
5645.5 7.28571
5646.5 4
5647.5 9.85714
5648.5 16.1429
5649.5 10.8571
5650.5 24.1429
5651.5 45.2857
5652.5 36.1429
5653.5 59.2857
5654.5 49.4286
5655.5 54.4286
5656.5 37.1429
5657.5 20.5714
5658.5 6.71429
5659.5 15.5714
5660.5 6
5661.5 3.42857
5662.5 3.85714
5663.5 2.28571
5664.5 0.571429
5665.5 3.57143
5666.5 -7.14286
5667.5 5.57143
5668.5 -2.28571
5669.5 0.285714
5670.5 7.57143
5671.5 -3.71429
5672.5 3
5673.5 6.28571
5674.5 3.14286
5675.5 2.28571
5676.5 4
5677.5 -1.57143
5678.5 4.71429
5679.5 3.14286
5680.5 2.42857
5681.5 -6.14286
5682.5 4.57143
5683.5 -2.14286
5684.5 -4.42857
5685.5 4.57143
5686.5 6.57143
5687.5 8.14286
5688.5 3.85714
5689.5 5.85714
5690.5 8.71429
5691.5 1.14286
5692.5 -1.85714
5693.5 0.857143
5694.5 1
5695.5 5.57143
5696.5 3.42857
5697.5 -3
5698.5 3.57143
5699.5 -1.57143
5700.5 -0.285714
5701.5 -2.71429
5702.5 5.71429
5703.5 5.57143
5704.5 2.85714
5705.5 0.285714
5706.5 8.57143
5707.5 -1.14286
5708.5 11
5709.5 5.57143
5710.5 4
5711.5 -5
5712.5 2.85714
5713.5 5
5714.5 1.85714
5715.5 5.14286
5716.5 4.14286
5717.5 -1.85714
5718.5 -6.28571
5719.5 3.85714
5720.5 4.57143
5721.5 5.57143
5722.5 2.28571
5723.5 0.142857
5724.5 3.42857
5725.5 2.57143
5726.5 4.71429
5727.5 6.28571
5728.5 3.85714
5729.5 4.85714
5730.5 -1.14286
5731.5 1.85714
5732.5 6.57143
5733.5 5
5734.5 8.42857
5735.5 -1.14286
5736.5 1.85714
5737.5 2.71429
5738.5 5.85714
5739.5 6.71429
5740.5 2.42857
5741.5 6.57143
5742.5 1.14286
5743.5 -5.96046e-08
5744.5 -3.28571
5745.5 -1.85714
5746.5 0.714286
5747.5 0.857143
5748.5 5.42857
5749.5 3.42857
5750.5 2.71429
5751.5 0.714286
5752.5 0.857143
5753.5 -4
5754.5 1.28571
5755.5 -0.571429
5756.5 9.14286
5757.5 3.57143
5758.5 5
5759.5 4
5760.5 4.28571
5761.5 6.71429
5762.5 1
5763.5 9.14286
5764.5 -2.28571
5765.5 1.71429
5766.5 0.714286
5767.5 6.14286
5768.5 6
5769.5 2.85714
5770.5 -3.28571
5771.5 0.142857
5772.5 -0.285714
5773.5 2.57143
5774.5 1.57143
5775.5 2.71429
5776.5 2.14286
5777.5 6.42857
5778.5 -2.28571
5779.5 -6.57143
5780.5 1.42857
5781.5 -1.14286
5782.5 -3
5783.5 -4
5784.5 8.71429
5785.5 -2.57143
5786.5 11.8571
5787.5 -4.14286
5788.5 2.28571
5789.5 5
5790.5 5.71429
5791.5 0.857143
5792.5 1.85714
5793.5 4.71429
5794.5 3.28571
5795.5 -1
5796.5 -0.285714
5797.5 -2.14286
5798.5 3.57143
5799.5 -0.285714
5800.5 -1.57143
5801.5 0.571429
5802.5 2.28571
5803.5 -0.142857
5804.5 -0.571429
5805.5 -5.96046e-08
5806.5 1
5807.5 0.714286
5808.5 7.28571
5809.5 5.71429
5810.5 3.42857
5811.5 4.85714
5812.5 1.28571
5813.5 4.42857
5814.5 3.71429
5815.5 1.57143
5816.5 -2
5817.5 3
5818.5 2.85714
5819.5 5.71429
5820.5 2.71429
5821.5 -3
5822.5 0.857143
5823.5 1.28571
5824.5 3
5825.5 4
5826.5 1.14286
5827.5 1.28571
5828.5 4.57143
5829.5 2.14286
5830.5 6
5831.5 -0.571429
5832.5 2.28571
5833.5 10.7143
5834.5 10
5835.5 6.71429
5836.5 1.28571
5837.5 -1
5838.5 4.85714
5839.5 -0.571429
5840.5 4.28571
5841.5 -0.285714
5842.5 -1
5843.5 -1.42857
5844.5 3
5845.5 1
5846.5 7.42857
5847.5 6.42857
5848.5 3.71429
5849.5 3.85714
5850.5 3.57143
5851.5 -0.142857
5852.5 6.28571
5853.5 4.14286
5854.5 6.71429
5855.5 10.2857
5856.5 2.28571
5857.5 1.71429
5858.5 -1.85714
5859.5 2.57143
5860.5 0.714286
5861.5 2.57143
5862.5 4.28571
5863.5 2.71429
5864.5 6.42857
5865.5 5.14286
5866.5 5.28571
5867.5 4.85714
5868.5 -0.285714
5869.5 0.714286
5870.5 0.571429
5871.5 4.28571
5872.5 3.71429
5873.5 2.57143
5874.5 4.42857
5875.5 -1.14286
5876.5 2.42857
5877.5 8.57143
5878.5 3.28571
5879.5 5.14286
5880.5 4.57143
5881.5 3.28571
5882.5 3.57143
5883.5 4.28571
5884.5 7.14286
5885.5 1.71429
5886.5 3.14286
5887.5 4.57143
5888.5 0.571429
5889.5 -2.28571
5890.5 3.57143
5891.5 4.57143
5892.5 -3.28571
5893.5 2.85714
5894.5 -3.85714
5895.5 -0.714286
5896.5 -2.71429
5897.5 -5.42857
5898.5 11.5714
5899.5 1.57143
5900.5 8.71429
5901.5 1.71429
5902.5 4.42857
5903.5 7.85714
5904.5 1
5905.5 -1
5906.5 7.85714
5907.5 8.57143
5908.5 10.5714
5909.5 1.71429
5910.5 2.71429
5911.5 1.71429
5912.5 7.42857
5913.5 5.14286
5914.5 4.14286
5915.5 2.71429
5916.5 0.714286
5917.5 3.42857
5918.5 -1.14286
5919.5 1.42857
5920.5 2
5921.5 4.42857
5922.5 4.57143
5923.5 -2
5924.5 3.42857
5925.5 6.28571
5926.5 3.42857
5927.5 0.857143
5928.5 -3
5929.5 -0.571429
5930.5 5.57143
5931.5 2.57143
5932.5 8.28571
5933.5 1.57143
5934.5 3.28571
5935.5 3.42857
5936.5 -0.857143
5937.5 0.571429
5938.5 -1
5939.5 7.28571
5940.5 1.42857
5941.5 3.42857
5942.5 -0.571429
5943.5 -0.571429
5944.5 0.714286
5945.5 -1.42857
5946.5 2.57143
5947.5 5.71429
5948.5 4.28571
5949.5 -1.28571
5950.5 4.14286
5951.5 0.714286
5952.5 0.714286
5953.5 2.42857
5954.5 0.285714
5955.5 1
5956.5 0.571429
5957.5 3.14286
5958.5 3.42857
5959.5 6.57143
5960.5 2.28571
5961.5 3.85714
5962.5 1.85714
5963.5 -5.96046e-08
5964.5 2.14286
5965.5 8.57143
5966.5 14.5714
5967.5 -2.57143
5968.5 17.8571
5969.5 0.571428
5970.5 2.28571
5971.5 1.71429
5972.5 -0.857143
5973.5 -0.857143
5974.5 7.42857
5975.5 1.71429
5976.5 1.42857
5977.5 -0.428571
5978.5 -1.42857
5979.5 4
5980.5 -2
5981.5 0.714286
5982.5 0.714286
5983.5 1.57143
5984.5 -0.285714
5985.5 5.14286
5986.5 0.571429
5987.5 2.28571
5988.5 0.285714
5989.5 1.42857
5990.5 0.571429
5991.5 2.85714
5992.5 1.85714
5993.5 0.142857
5994.5 -3.42857
5995.5 2.14286
5996.5 6.14286
5997.5 -1.57143
5998.5 -1.71429
5999.5 14.5714
6000.5 17.4286
6001.5 0.999999
6002.5 8.14286
6003.5 15.4286
6004.5 0.428571
6005.5 -1.14286
6006.5 1.57143
6007.5 2.14286
6008.5 0.857143
6009.5 -0.285714
6010.5 2.28571
6011.5 2.42857
6012.5 7.14286
6013.5 0.428571
6014.5 2.57143
6015.5 1.42857
6016.5 5.14286
6017.5 2.57143
6018.5 4.42857
6019.5 -0.428571
6020.5 1.42857
6021.5 2.42857
6022.5 2.14286
6023.5 2.14286
6024.5 4.42857
6025.5 2.14286
6026.5 1.28571
6027.5 1.14286
6028.5 3.14286
6029.5 3.14286
6030.5 4.14286
6031.5 1.42857
6032.5 1.71429
6033.5 1.42857
6034.5 1.57143
6035.5 2.85714
6036.5 3.71429
6037.5 0.857143
6038.5 -2.71429
6039.5 0.142857
6040.5 9.28571
6041.5 3.42857
6042.5 2.28571
6043.5 1.28571
6044.5 2.14286
6045.5 4
6046.5 5.14286
6047.5 1.14286
6048.5 0
6049.5 -0.428571
6050.5 1.14286
6051.5 3.42857
6052.5 -1
6053.5 3
6054.5 1.28571
6055.5 1.28571
6056.5 5
6057.5 -0.714286
6058.5 2
6059.5 -3.28571
6060.5 -0.428571
6061.5 -0.428571
6062.5 -2.28571
6063.5 2.28571
6064.5 -0.428571
6065.5 6
6066.5 -1.57143
6067.5 0.428571
6068.5 2.42857
6069.5 -4.85714
6070.5 -2.42857
6071.5 1.42857
6072.5 2.42857
6073.5 -0.428571
6074.5 -2.42857
6075.5 0.714286
6076.5 0.142857
6077.5 0.142857
6078.5 4.14286
6079.5 -0.428571
6080.5 -0.857143
6081.5 0.142857
6082.5 1
6083.5 1.42857
6084.5 -1.57143
6085.5 3.28571
6086.5 3.14286
6087.5 1.85714
6088.5 1.28571
6089.5 1.28571
6090.5 -0.571429
6091.5 1.14286
6092.5 1.28571
6093.5 -1.57143
6094.5 2.14286
6095.5 2.14286
6096.5 4
6097.5 3.14286
6098.5 2.28571
6099.5 1.57143
6100.5 2.57143
6101.5 1
6102.5 4.85714
6103.5 2.42857
6104.5 3.28571
6105.5 3.42857
6106.5 0.857143
6107.5 3.71429
6108.5 8.14286
6109.5 -0.285714
6110.5 -1.42857
6111.5 2.71429
6112.5 5.28571
6113.5 0.142857
6114.5 0.857143
6115.5 -6.57143
6116.5 -0.142857
6117.5 3.42857
6118.5 -0.142857
6119.5 3.42857
6120.5 4.57143
6121.5 -0.857143
6122.5 -1
6123.5 -3
6124.5 0.285714
6125.5 5.14286
6126.5 0.142857
6127.5 1.28571
6128.5 -0.285714
6129.5 1.57143
6130.5 -1.42857
6131.5 1.14286
6132.5 0.285714
6133.5 0.571429
6134.5 2.28571
6135.5 -3.28571
6136.5 2.14286
6137.5 0.285714
6138.5 1.42857
6139.5 0.285714
6140.5 1.42857
6141.5 3
6142.5 2.28571
6143.5 0.285714
6144.5 1.57143
6145.5 0.571429
6146.5 0.285714
6147.5 1.57143
6148.5 -1.42857
6149.5 -3.42857
6150.5 -0.714286
6151.5 -4
6152.5 4
6153.5 -3.28571
6154.5 3
6155.5 0.571429
6156.5 7
6157.5 11.1429
6158.5 14.2857
6159.5 24
6160.5 27.8571
6161.5 47.7143
6162.5 74.1429
6163.5 58.7143
6164.5 86.2857
6165.5 85
6166.5 61.4286
6167.5 44.7143
6168.5 27.7143
6169.5 4.57143
6170.5 6.14286
6171.5 6.42857
6172.5 0.142857
6173.5 -2.57143
6174.5 0.428571
6175.5 1.14286
6176.5 -3.28571
6177.5 -0.714286
6178.5 -0.857143
6179.5 3.14286
6180.5 1.28571
6181.5 0.142857
6182.5 0.142857
6183.5 0.285714
6184.5 2
6185.5 3.14286
6186.5 1.14286
6187.5 -0.714286
6188.5 0.285714
6189.5 1.42857
6190.5 -3.28571
6191.5 2.28571
6192.5 0.285714
6193.5 3.14286
6194.5 -1.42857
6195.5 0.285714
6196.5 1.28571
6197.5 1.42857
6198.5 -1.71429
6199.5 1.14286
6200.5 0.285714
6201.5 1.14286
6202.5 0.428571
6203.5 -4.28571
6204.5 2.28571
6205.5 -0.714286
6206.5 -1.57143
6207.5 -1.57143
6208.5 0.142857
6209.5 2
6210.5 0.428571
6211.5 -0.571429
6212.5 1.28571
6213.5 -1.71429
6214.5 -0.857143
6215.5 1.14286
6216.5 1.28571
6217.5 -0.714286
6218.5 -4.28571
6219.5 -2.42857
6220.5 0.142857
6221.5 -1.28571
6222.5 4.14286
6223.5 0.285714
6224.5 1.57143
6225.5 0.428571
6226.5 -0.571429
6227.5 -1.71429
6228.5 -1.71429
6229.5 0.142857
6230.5 0.142857
6231.5 -1.57143
6232.5 0.142857
6233.5 -0.571429
6234.5 1.14286
6235.5 -1.42857
6236.5 0
6237.5 -0.714286
6238.5 2
6239.5 3.28571
6240.5 -0.571429
6241.5 1.28571
6242.5 2
6243.5 1
6244.5 1.28571
6245.5 -5.14286
6246.5 0.285714
6247.5 -0.714286
6248.5 1.14286
6249.5 -0.857143
6250.5 -1.42857
6251.5 -2.57143
6252.5 0.285714
6253.5 -0.571429
6254.5 3.28571
6255.5 3
6256.5 1.14286
6257.5 -1.42857
6258.5 0.285714
6259.5 0.285714
6260.5 1.28571
6261.5 -0.714286
6262.5 -0.857143
6263.5 -0.714286
6264.5 -1.71429
6265.5 1.14286
6266.5 -0.571429
6267.5 1.14286
6268.5 -0.714286
6269.5 -0.857143
6270.5 -0.857143
6271.5 1.14286
6272.5 1
6273.5 2.14286
6274.5 0.142857
6275.5 1
6276.5 1.14286
6277.5 -2.42857
6278.5 -0.714286
6279.5 2
6280.5 1.28571
6281.5 -2.57143
6282.5 -0.857143
6283.5 0.142857
6284.5 -2.57143
6285.5 0
6286.5 1
6287.5 1
6288.5 -1.71429
6289.5 0.142857
6290.5 -1.57143
6291.5 1.28571
6292.5 -0.714286
6293.5 -0.857143
6294.5 0.285714
6295.5 2
6296.5 1.14286
6297.5 2.14286
6298.5 5
6299.5 2.14286
6300.5 1.14286
6301.5 3.28571
6302.5 0.285714
6303.5 1.28571
6304.5 3
6305.5 0
6306.5 2.14286
6307.5 2.14286
6308.5 2.14286
6309.5 0.142857
6310.5 2
6311.5 -0.714286
6312.5 0
6313.5 -3.42857
6314.5 4.14286
6315.5 3.14286
6316.5 2.14286
6317.5 1.14286
6318.5 0.142857
6319.5 0.285714
6320.5 1.28571
6321.5 -0.428571
6322.5 3.28571
6323.5 2.28571
6324.5 1.57143
6325.5 2.14286
6326.5 0.428571
6327.5 3.57143
6328.5 -0.571429
6329.5 0.428571
6330.5 -1.57143
6331.5 1
6332.5 1.42857
6333.5 -0.857143
6334.5 3
6335.5 0.142857
6336.5 -0.857143
6337.5 -1.42857
6338.5 0.285714
6339.5 0
6340.5 2
6341.5 -1.71429
6342.5 0.142857
6343.5 0
6344.5 1.14286
6345.5 1
6346.5 -0.714286
6347.5 2.14286
6348.5 -1.71429
6349.5 -2.57143
6350.5 3
6351.5 -1.57143
6352.5 0
6353.5 0.142857
6354.5 -2.57143
6355.5 1.14286
6356.5 -1.71429
6357.5 0
6358.5 0.142857
6359.5 0.142857
6360.5 1
6361.5 0.142857
6362.5 0.142857
6363.5 -0.714286
6364.5 1
6365.5 0
6366.5 -0.857143
6367.5 2.14286
6368.5 1
6369.5 1
6370.5 0
6371.5 1.28571
6372.5 4.28571
6373.5 2.14286
6374.5 0.142857
6375.5 2
6376.5 0
6377.5 0.142857
6378.5 -1.71429
6379.5 -1.57143
6380.5 -1.71429
6381.5 0.142857
6382.5 2.14286
6383.5 0.142857
6384.5 0.142857
6385.5 2
6386.5 -2.42857
6387.5 -0.857143
6388.5 2.28571
6389.5 -0.714286
6390.5 -0.714286
6391.5 2
6392.5 1.14286
6393.5 2
6394.5 1.28571
6395.5 0.142857
6396.5 -0.857143
6397.5 0.285714
6398.5 0.285714
6399.5 -0.857143
6400.5 0
6401.5 1
6402.5 0.142857
6403.5 3
6404.5 0
6405.5 -1.71429
6406.5 2
6407.5 0
6408.5 0
6409.5 -2.57143
6410.5 -0.857143
6411.5 1
6412.5 0.142857
6413.5 0
6414.5 -0.857143
6415.5 0.285714
6416.5 0.142857
6417.5 -1.42857
6418.5 1.14286
6419.5 4.14286
6420.5 6
6421.5 2.28571
6422.5 1.14286
6423.5 0.142857
6424.5 -0.857143
6425.5 -0.714286
6426.5 0.142857
6427.5 -1.71429
6428.5 -0.571429
6429.5 0.285714
6430.5 1
6431.5 1
6432.5 0
6433.5 -2.57143
6434.5 -1.71429
6435.5 -0.857143
6436.5 2.14286
6437.5 -0.714286
6438.5 1.14286
6439.5 -2.42857
6440.5 0.142857
6441.5 -2.57143
6442.5 0
6443.5 0.142857
6444.5 1
6445.5 -0.857143
6446.5 1
6447.5 0
6448.5 4
6449.5 0.142857
6450.5 -0.714286
6451.5 0.142857
6452.5 0.285714
6453.5 -0.714286
6454.5 0
6455.5 0
6456.5 -2.42857
6457.5 1
6458.5 0
6459.5 1.14286
6460.5 0
6461.5 3
6462.5 0.142857
6463.5 1
6464.5 1
6465.5 0.142857
6466.5 -0.857143
6467.5 0.142857
6468.5 2
6469.5 2
6470.5 -2.28571
6471.5 2.28571
6472.5 -0.571429
6473.5 0.428571
6474.5 -1.85714
6475.5 3
6476.5 7.42857
6477.5 -6.14286
6478.5 5
6479.5 -9
6480.5 9
6481.5 -3.85714
6482.5 1.57143
6483.5 6.28571
6484.5 -1
6485.5 2.14286
6486.5 1.14286
6487.5 -2.57143
6488.5 1.28571
6489.5 -0.857143
6490.5 2
6491.5 -3.42857
6492.5 -2.42857
6493.5 -1.71429
6494.5 0.142857
6495.5 0
6496.5 0.142857
6497.5 2
6498.5 1
6499.5 0
6500.5 -0.857143
6501.5 1
6502.5 0
6503.5 0
6504.5 -1.71429
6505.5 -0.857143
6506.5 1.14286
6507.5 0.142857
6508.5 0.142857
6509.5 -0.857143
6510.5 1
6511.5 1.14286
6512.5 1.28571
6513.5 1
6514.5 -1.71429
6515.5 -0.857143
6516.5 -0.857143
6517.5 -2.57143
6518.5 0
6519.5 0
6520.5 -0.857143
6521.5 0
6522.5 0
6523.5 1
6524.5 1
6525.5 -0.857143
6526.5 2
6527.5 1.14286
6528.5 1
6529.5 0
6530.5 0
6531.5 0.142857
6532.5 2
6533.5 -1.71429
6534.5 2
6535.5 -0.857143
6536.5 2.14286
6537.5 2
6538.5 0
6539.5 0
6540.5 0.142857
6541.5 0
6542.5 1.14286
6543.5 -0.714286
6544.5 3.14286
6545.5 1.14286
6546.5 4
6547.5 -1.42857
6548.5 0.428571
6549.5 -1.71429
6550.5 -0.857143
6551.5 -0.857143
6552.5 0
6553.5 0.142857
6554.5 0.142857
6555.5 1
6556.5 1
6557.5 0.142857
6558.5 0.142857
6559.5 0.142857
6560.5 1
6561.5 1
6562.5 -0.857143
6563.5 -0.857143
6564.5 0
6565.5 1.14286
6566.5 1.14286
6567.5 1
6568.5 -0.857143
6569.5 1
6570.5 -1.71429
6571.5 1
6572.5 0
6573.5 0
6574.5 1
6575.5 1
6576.5 0.142857
6577.5 1
6578.5 -1.71429
6579.5 0.142857
6580.5 1
6581.5 0
6582.5 1.14286
6583.5 0.142857
6584.5 -0.857143
6585.5 2
6586.5 0
6587.5 1.14286
6588.5 1
6589.5 2
6590.5 0
6591.5 1
6592.5 0.285714
6593.5 -0.857143
6594.5 1
6595.5 0
6596.5 0
6597.5 -0.857143
6598.5 1.14286
6599.5 -1.57143
6600.5 1.14286
6601.5 -2.42857
6602.5 0
6603.5 1
6604.5 -0.857143
6605.5 1.14286
6606.5 -0.857143
6607.5 0
6608.5 -1.71429
6609.5 0
6610.5 0.142857
6611.5 -0.857143
6612.5 0
6613.5 0
6614.5 1
6615.5 0
6616.5 -0.857143
6617.5 0
6618.5 0
6619.5 0.142857
6620.5 -0.857143
6621.5 0
6622.5 2
6623.5 1.14286
6624.5 0
6625.5 1
6626.5 1
6627.5 1.28571
6628.5 2
6629.5 -2.57143
6630.5 1
6631.5 1.14286
6632.5 1.14286
6633.5 1
6634.5 1.14286
6635.5 0
6636.5 1
6637.5 0
6638.5 0
6639.5 1
6640.5 -0.857143
6641.5 -0.857143
6642.5 -0.857143
6643.5 3
6644.5 0
6645.5 0
6646.5 1
6647.5 -2.42857
6648.5 1
6649.5 0
6650.5 -0.857143
6651.5 -0.714286
6652.5 2
6653.5 1
6654.5 0.142857
6655.5 -0.857143
6656.5 0
6657.5 1
6658.5 0
6659.5 1.14286
6660.5 1
6661.5 0
6662.5 -0.857143
6663.5 0.142857
6664.5 0
6665.5 0
6666.5 1
6667.5 0.142857
6668.5 0.142857
6669.5 1
6670.5 0
6671.5 0
6672.5 0
6673.5 1
6674.5 1
6675.5 -0.857143
6676.5 -0.857143
6677.5 0.142857
6678.5 0
6679.5 -0.857143
6680.5 1
6681.5 -0.857143
6682.5 -1.71429
6683.5 1
6684.5 1
6685.5 1
6686.5 0.142857
6687.5 -0.857143
6688.5 -0.857143
6689.5 -2.57143
6690.5 1
6691.5 1.14286
6692.5 1
6693.5 -0.857143
6694.5 0.285714
6695.5 3
6696.5 0.142857
6697.5 0
6698.5 0.142857
6699.5 0
6700.5 1.14286
6701.5 3
6702.5 -0.857143
6703.5 1
6704.5 1
6705.5 1
6706.5 2
6707.5 -1.71429
6708.5 0
6709.5 0
6710.5 0
6711.5 0
6712.5 1.14286
6713.5 -0.714286
6714.5 -1.71429
6715.5 0
6716.5 0.142857
6717.5 -0.857143
6718.5 0
6719.5 2
6720.5 1
6721.5 1
6722.5 0
6723.5 1
6724.5 0
6725.5 0
6726.5 2
6727.5 1
6728.5 0
6729.5 -0.857143
6730.5 2
6731.5 1
6732.5 0
6733.5 -2.57143
6734.5 0
6735.5 -1.71429
6736.5 0
6737.5 2
6738.5 0
6739.5 1
6740.5 -0.857143
6741.5 2
6742.5 0
6743.5 0
6744.5 -0.714286
6745.5 0
6746.5 1
6747.5 0
6748.5 -0.857143
6749.5 0
6750.5 -1.71429
6751.5 0
6752.5 0
6753.5 0.142857
6754.5 0
6755.5 0.142857
6756.5 -0.714286
6757.5 -0.857143
6758.5 1.14286
6759.5 0
6760.5 -0.857143
6761.5 -0.857143
6762.5 1
6763.5 -1.71429
6764.5 0
6765.5 0
6766.5 -1.71429
6767.5 -1.71429
6768.5 -1.71429
6769.5 1
6770.5 1
6771.5 0.285714
6772.5 0.285714
6773.5 1
6774.5 0.142857
6775.5 0
6776.5 -0.857143
6777.5 2
6778.5 0
6779.5 0.142857
6780.5 0.142857
6781.5 1.28571
6782.5 0.142857
6783.5 0
6784.5 -0.714286
6785.5 1.14286
6786.5 1
6787.5 -1.71429
6788.5 1
6789.5 2
6790.5 0
6791.5 2
6792.5 0.142857
6793.5 -0.857143
6794.5 -0.857143
6795.5 1
6796.5 0.142857
6797.5 0.142857
6798.5 0
6799.5 0
6800.5 1.42857
6801.5 2
6802.5 0.142857
6803.5 0
6804.5 -1.71429
6805.5 0.142857
6806.5 -0.857143
6807.5 1
6808.5 2
6809.5 2
6810.5 3
6811.5 0
6812.5 2
6813.5 2
6814.5 0
6815.5 1
6816.5 0
6817.5 1
6818.5 0
6819.5 0.142857
6820.5 -0.857143
6821.5 0
6822.5 1
6823.5 1
6824.5 -1.71429
6825.5 0
6826.5 1
6827.5 1
6828.5 0.142857
6829.5 0
6830.5 0
6831.5 1
6832.5 5.14286
6833.5 2
6834.5 1.14286
6835.5 3
6836.5 1
6837.5 -0.857143
6838.5 1
6839.5 -0.714286
6840.5 0
6841.5 0
6842.5 -0.857143
6843.5 0
6844.5 1
6845.5 -0.857143
6846.5 0
6847.5 -2.57143
6848.5 1
6849.5 1
6850.5 -0.857143
6851.5 0.142857
6852.5 0
6853.5 -0.857143
6854.5 3
6855.5 0
6856.5 0
6857.5 0
6858.5 2
6859.5 1
6860.5 0
6861.5 -0.857143
6862.5 0
6863.5 -0.857143
6864.5 -0.857143
6865.5 -0.857143
6866.5 1
6867.5 1
6868.5 0.142857
6869.5 2
6870.5 -0.857143
6871.5 0
6872.5 0
6873.5 0
6874.5 -1.71429
6875.5 0.142857
6876.5 0
6877.5 -0.857143
6878.5 -0.857143
6879.5 0
6880.5 -0.857143
6881.5 0
6882.5 -1.71429
6883.5 0
6884.5 0.142857
6885.5 1
6886.5 -0.857143
6887.5 1
6888.5 0
6889.5 -1.71429
6890.5 0
6891.5 -0.857143
6892.5 -0.714286
6893.5 1
6894.5 1
6895.5 -0.857143
6896.5 -0.857143
6897.5 -0.857143
6898.5 -0.857143
6899.5 0
6900.5 1
6901.5 0
6902.5 -0.857143
6903.5 -0.857143
6904.5 0.142857
6905.5 0
6906.5 0.142857
6907.5 1
6908.5 -1.71429
6909.5 -0.857143
6910.5 0
6911.5 -0.857143
6912.5 0
6913.5 0.142857
6914.5 0
6915.5 -0.857143
6916.5 -0.857143
6917.5 1
6918.5 -0.857143
6919.5 1
6920.5 1
6921.5 -0.857143
6922.5 1
6923.5 0
6924.5 0
6925.5 0
6926.5 0.142857
6927.5 0
6928.5 1
6929.5 0
6930.5 0.142857
6931.5 -0.714286
6932.5 1
6933.5 1.14286
6934.5 1
6935.5 0.285714
6936.5 -0.857143
6937.5 2
6938.5 0.142857
6939.5 -0.857143
6940.5 1
6941.5 0.142857
6942.5 0
6943.5 3
6944.5 -0.857143
6945.5 1
6946.5 0
6947.5 0.142857
6948.5 0
6949.5 -0.857143
6950.5 1
6951.5 1
6952.5 1
6953.5 1
6954.5 -0.857143
6955.5 1
6956.5 1
6957.5 0
6958.5 -1.57143
6959.5 -0.857143
6960.5 0
6961.5 3.14286
6962.5 -0.857143
6963.5 1
6964.5 1
6965.5 -0.857143
6966.5 0.142857
6967.5 1
6968.5 1
6969.5 -1.57143
6970.5 0
6971.5 0
6972.5 0
6973.5 0
6974.5 0
6975.5 -0.857143
6976.5 0
6977.5 1
6978.5 -0.857143
6979.5 1
6980.5 -0.857143
6981.5 0
6982.5 2
6983.5 0
6984.5 0
6985.5 1.14286
6986.5 0.142857
6987.5 0
6988.5 2
6989.5 -1.71429
6990.5 0
6991.5 0
6992.5 1.14286
6993.5 0
6994.5 -0.857143
6995.5 -2.57143
6996.5 0.142857
6997.5 -0.857143
6998.5 -0.857143
6999.5 -0.857143
7000.5 0
7001.5 0.142857
7002.5 0
7003.5 0
7004.5 0
7005.5 2
7006.5 2
7007.5 0
7008.5 0
7009.5 0
7010.5 -0.857143
7011.5 1
7012.5 -0.857143
7013.5 -1.71429
7014.5 0
7015.5 1
7016.5 0.142857
7017.5 0
7018.5 1
7019.5 3
7020.5 0
7021.5 0
7022.5 0
7023.5 0
7024.5 0
7025.5 0
7026.5 0
7027.5 0
7028.5 0
7029.5 -0.857143
7030.5 0
7031.5 0
7032.5 -0.857143
7033.5 -0.857143
7034.5 0
7035.5 0
7036.5 0
7037.5 0
7038.5 1
7039.5 2
7040.5 0.142857
7041.5 0
7042.5 0.142857
7043.5 1
7044.5 -0.857143
7045.5 1
7046.5 1
7047.5 -0.857143
7048.5 1
7049.5 -2.57143
7050.5 2
7051.5 0
7052.5 2
7053.5 1
7054.5 -0.857143
7055.5 0
7056.5 0
7057.5 0
7058.5 1
7059.5 0
7060.5 -0.857143
7061.5 1
7062.5 0
7063.5 0
7064.5 1
7065.5 2
7066.5 0
7067.5 1
7068.5 -0.857143
7069.5 0
7070.5 -0.857143
7071.5 0
7072.5 0
7073.5 0.142857
7074.5 0.142857
7075.5 -0.857143
7076.5 -1.71429
7077.5 0
7078.5 0
7079.5 2
7080.5 -0.857143
7081.5 -0.857143
7082.5 0
7083.5 0.142857
7084.5 -0.857143
7085.5 0
7086.5 2
7087.5 -0.857143
7088.5 0
7089.5 1
7090.5 1
7091.5 0
7092.5 0.142857
7093.5 -0.857143
7094.5 0
7095.5 0
7096.5 0
7097.5 1
7098.5 0
7099.5 0
7100.5 0
7101.5 0
7102.5 0
7103.5 1
7104.5 -0.857143
7105.5 0
7106.5 0
7107.5 0
7108.5 0.142857
7109.5 -0.857143
7110.5 0
7111.5 2
7112.5 -1.71429
7113.5 -0.857143
7114.5 0
7115.5 1
7116.5 0
7117.5 0
7118.5 0
7119.5 -0.714286
7120.5 1
7121.5 1
7122.5 0
7123.5 -1.71429
7124.5 -0.857143
7125.5 0
7126.5 0
7127.5 0
7128.5 -0.857143
7129.5 -0.857143
7130.5 -0.857143
7131.5 0
7132.5 2
7133.5 3
7134.5 0.142857
7135.5 0.142857
7136.5 2
7137.5 2
7138.5 0
7139.5 0
7140.5 0
7141.5 -0.857143
7142.5 0
7143.5 0
7144.5 0
7145.5 -0.857143
7146.5 2
7147.5 2
7148.5 0
7149.5 0
7150.5 0
7151.5 1
7152.5 0
7153.5 1
7154.5 -0.857143
7155.5 0
7156.5 0
7157.5 0
7158.5 0
7159.5 0
7160.5 1
7161.5 -0.857143
7162.5 2
7163.5 0.142857
7164.5 0
7165.5 -0.857143
7166.5 1
7167.5 0
7168.5 0
7169.5 -0.857143
7170.5 1
7171.5 -0.857143
7172.5 1
7173.5 0
7174.5 -0.857143
7175.5 0
7176.5 0
7177.5 2
7178.5 1.14286
7179.5 0
7180.5 -0.714286
7181.5 1
7182.5 0
7183.5 0
7184.5 -0.857143
7185.5 0
7186.5 2
7187.5 0
7188.5 -0.857143
7189.5 1
7190.5 1
7191.5 0
7192.5 1
7193.5 0
7194.5 0
7195.5 0
7196.5 0
7197.5 0
7198.5 0
7199.5 0
7200.5 0
7201.5 0
7202.5 -0.857143
7203.5 0
7204.5 -1.71429
7205.5 0
7206.5 0.142857
7207.5 0.142857
7208.5 0
7209.5 0.142857
7210.5 0.142857
7211.5 3
7212.5 -0.857143
7213.5 1
7214.5 -0.857143
7215.5 1
7216.5 -0.857143
7217.5 -0.857143
7218.5 -0.857143
7219.5 0
7220.5 0
7221.5 0
7222.5 0
7223.5 -0.857143
7224.5 1
7225.5 0
7226.5 0
7227.5 0
7228.5 0
7229.5 1
7230.5 1
7231.5 0
7232.5 0
7233.5 -1.71429
7234.5 0
7235.5 0
7236.5 0
7237.5 -0.714286
7238.5 0.142857
7239.5 0.142857
7240.5 1
7241.5 0
7242.5 1
7243.5 0
7244.5 0
7245.5 2
7246.5 -0.857143
7247.5 0
7248.5 0
7249.5 -0.857143
7250.5 0
7251.5 0.142857
7252.5 0
7253.5 -0.857143
7254.5 0
7255.5 2
7256.5 0
7257.5 0.142857
7258.5 2
7259.5 -0.857143
7260.5 0.142857
7261.5 2.28571
7262.5 0.142857
7263.5 -0.714286
7264.5 0.142857
7265.5 0
7266.5 -2.57143
7267.5 -0.857143
7268.5 0
7269.5 -0.857143
7270.5 -0.857143
7271.5 -0.857143
7272.5 0
7273.5 0
7274.5 2
7275.5 1
7276.5 1
7277.5 0
7278.5 0
7279.5 -0.857143
7280.5 0.142857
7281.5 -0.857143
7282.5 0
7283.5 -0.857143
7284.5 0
7285.5 0
7286.5 0
7287.5 1
7288.5 -0.857143
7289.5 0
7290.5 1
7291.5 2
7292.5 0
7293.5 1
7294.5 0
7295.5 -0.714286
7296.5 1
7297.5 0
7298.5 -0.857143
7299.5 0
7300.5 0
7301.5 0
7302.5 2
7303.5 0
7304.5 2
7305.5 1
7306.5 -0.857143
7307.5 -0.857143
7308.5 1.14286
7309.5 1
7310.5 0
7311.5 -0.857143
7312.5 1
7313.5 0
7314.5 0
7315.5 1
7316.5 0.142857
7317.5 1
7318.5 3
7319.5 1
7320.5 1
7321.5 0
7322.5 -0.857143
7323.5 -1.71429
7324.5 1
7325.5 1
7326.5 1
7327.5 2
7328.5 0
7329.5 0
7330.5 0
7331.5 -0.857143
7332.5 0
7333.5 1
7334.5 1
7335.5 0
7336.5 1
7337.5 1
7338.5 -0.857143
7339.5 1
7340.5 0
7341.5 0
7342.5 0
7343.5 0
7344.5 0
7345.5 2
7346.5 1
7347.5 0
7348.5 0
7349.5 -1.71429
7350.5 1
7351.5 0
7352.5 -0.857143
7353.5 0
7354.5 -0.857143
7355.5 0
7356.5 1
7357.5 0
7358.5 0
7359.5 0
7360.5 1
7361.5 0
7362.5 0
7363.5 1
7364.5 0
7365.5 0
7366.5 1
7367.5 1
7368.5 0
7369.5 1.14286
7370.5 0
7371.5 1
7372.5 0
7373.5 0
7374.5 0
7375.5 0
7376.5 0
7377.5 0
7378.5 -0.857143
7379.5 0
7380.5 0
7381.5 1
7382.5 0
7383.5 -0.857143
7384.5 0
7385.5 0
7386.5 0
7387.5 0
7388.5 0
7389.5 2
7390.5 -0.857143
7391.5 0
7392.5 0
7393.5 -0.857143
7394.5 0
7395.5 1
7396.5 1
7397.5 -0.857143
7398.5 0
7399.5 -1.71429
7400.5 0
7401.5 2
7402.5 -0.857143
7403.5 1
7404.5 0
7405.5 0
7406.5 1
7407.5 0
7408.5 -0.857143
7409.5 1
7410.5 -1.71429
7411.5 1
7412.5 -0.857143
7413.5 -0.857143
7414.5 1
7415.5 -0.857143
7416.5 3
7417.5 3
7418.5 -0.857143
7419.5 -0.857143
7420.5 -0.857143
7421.5 1
7422.5 -0.857143
7423.5 0.142857
7424.5 0
7425.5 1
7426.5 1
7427.5 1
7428.5 -0.857143
7429.5 1
7430.5 0
7431.5 0
7432.5 0
7433.5 0
7434.5 0
7435.5 0
7436.5 1
7437.5 0
7438.5 0
7439.5 0
7440.5 0
7441.5 0
7442.5 0
7443.5 0
7444.5 0
7445.5 -1.71429
7446.5 -0.857143
7447.5 0.142857
7448.5 1
7449.5 0
7450.5 -0.857143
7451.5 1
7452.5 0
7453.5 -0.857143
7454.5 1
7455.5 0
7456.5 0
7457.5 0.142857
7458.5 1
7459.5 -0.857143
7460.5 0
7461.5 0
7462.5 0
7463.5 -0.857143
7464.5 0
7465.5 0
7466.5 0
7467.5 0
7468.5 1
7469.5 -0.857143
7470.5 -0.857143
7471.5 -0.857143
7472.5 0
7473.5 0
7474.5 0
7475.5 0.142857
7476.5 1
7477.5 0
7478.5 1
7479.5 0
7480.5 0
7481.5 -0.857143
7482.5 0
7483.5 0
7484.5 0
7485.5 0
7486.5 0
7487.5 0
7488.5 -0.857143
7489.5 -0.857143
7490.5 2
7491.5 1
7492.5 0
7493.5 0
7494.5 0
7495.5 0
7496.5 0
7497.5 0
7498.5 0
7499.5 0
7500.5 0
7501.5 0
7502.5 1
7503.5 0.142857
7504.5 0
7505.5 -0.857143
7506.5 -0.857143
7507.5 -0.857143
7508.5 -0.857143
7509.5 0
7510.5 1
7511.5 1
7512.5 0
7513.5 0
7514.5 0
7515.5 -0.857143
7516.5 0.142857
7517.5 0
7518.5 0
7519.5 0
7520.5 0
7521.5 0
7522.5 0
7523.5 0
7524.5 0
7525.5 0
7526.5 0
7527.5 0
7528.5 0
7529.5 -0.857143
7530.5 1
7531.5 0
7532.5 1
7533.5 -0.857143
7534.5 1
7535.5 0
7536.5 1
7537.5 1
7538.5 1
7539.5 1
7540.5 -0.857143
7541.5 -0.857143
7542.5 -0.857143
7543.5 0
7544.5 0
7545.5 0
7546.5 0
7547.5 0
7548.5 0
7549.5 0
7550.5 0
7551.5 0
7552.5 0
7553.5 0
7554.5 1
7555.5 0
7556.5 0
7557.5 0
7558.5 0
7559.5 0
7560.5 1
7561.5 0
7562.5 -0.857143
7563.5 0
7564.5 0
7565.5 1
7566.5 1
7567.5 -0.857143
7568.5 -0.857143
7569.5 -0.857143
7570.5 0.142857
7571.5 0.142857
7572.5 0
7573.5 0.142857
7574.5 0
7575.5 -1.71429
7576.5 1
7577.5 0.142857
7578.5 0
7579.5 3
7580.5 1
7581.5 -0.857143
7582.5 1
7583.5 -0.857143
7584.5 0
7585.5 0
7586.5 0
7587.5 0
7588.5 0
7589.5 0
7590.5 0
7591.5 -0.857143
7592.5 -0.857143
7593.5 0
7594.5 1
7595.5 0
7596.5 0
7597.5 0.142857
7598.5 2
7599.5 0
7600.5 0
7601.5 0
7602.5 1
7603.5 0.142857
7604.5 1
7605.5 0
7606.5 0
7607.5 0
7608.5 -0.857143
7609.5 -0.857143
7610.5 0
7611.5 -0.857143
7612.5 0
7613.5 0
7614.5 -0.857143
7615.5 -1.57143
7616.5 0
7617.5 0
7618.5 0
7619.5 0
7620.5 0
7621.5 -0.857143
7622.5 0
7623.5 0
7624.5 1
7625.5 0
7626.5 0
7627.5 0
7628.5 0
7629.5 1
7630.5 1
7631.5 1.14286
7632.5 1
7633.5 0
7634.5 -0.857143
7635.5 -0.857143
7636.5 1
7637.5 0.142857
7638.5 0
7639.5 -0.857143
7640.5 2
7641.5 0
7642.5 0
7643.5 1
7644.5 -0.857143
7645.5 -1.71429
7646.5 0
7647.5 0
7648.5 1
7649.5 1
7650.5 2
7651.5 -0.857143
7652.5 -1.71429
7653.5 0
7654.5 -0.857143
7655.5 0
7656.5 0
7657.5 0
7658.5 0
7659.5 0
7660.5 0
7661.5 -0.857143
7662.5 1
7663.5 0
7664.5 0
7665.5 0
7666.5 0
7667.5 0
7668.5 0
7669.5 0
7670.5 0
7671.5 0
7672.5 -0.857143
7673.5 0
7674.5 0
7675.5 0
7676.5 1
7677.5 0
7678.5 0
7679.5 2
7680.5 0
7681.5 0
7682.5 0
7683.5 0
7684.5 1
7685.5 -0.857143
7686.5 0
7687.5 -1.71429
7688.5 0
7689.5 0
7690.5 0
7691.5 0
7692.5 0
7693.5 0
7694.5 1
7695.5 0
7696.5 0
7697.5 0
7698.5 1
7699.5 0
7700.5 0
7701.5 0
7702.5 0
7703.5 0
7704.5 0
7705.5 0
7706.5 0
7707.5 0.142857
7708.5 0
7709.5 -0.857143
7710.5 0
7711.5 -0.857143
7712.5 0
7713.5 1
7714.5 -0.857143
7715.5 0
7716.5 0
7717.5 -0.857143
7718.5 0.142857
7719.5 0
7720.5 0
7721.5 0
7722.5 1
7723.5 -0.857143
7724.5 1
7725.5 0
7726.5 -0.857143
7727.5 1
7728.5 -0.857143
7729.5 0
7730.5 -0.857143
7731.5 0
7732.5 0
7733.5 0
7734.5 0
7735.5 0
7736.5 0
7737.5 0
7738.5 0
7739.5 -0.857143
7740.5 0
7741.5 0
7742.5 -0.857143
7743.5 0
7744.5 0
7745.5 0
7746.5 0
7747.5 0
7748.5 0
7749.5 1
7750.5 0
7751.5 0
7752.5 0
7753.5 0
7754.5 1
7755.5 0
7756.5 0
7757.5 0
7758.5 1
7759.5 -0.857143
7760.5 0
7761.5 0
7762.5 0
7763.5 0
7764.5 1
7765.5 1
7766.5 1
7767.5 1
7768.5 -0.714286
7769.5 0.142857
7770.5 0
7771.5 2
7772.5 -0.571429
7773.5 2
7774.5 0
7775.5 -0.714286
7776.5 1
7777.5 0
7778.5 0
7779.5 0
7780.5 0
7781.5 1
7782.5 0
7783.5 -0.857143
7784.5 1
7785.5 1
7786.5 1
7787.5 -0.857143
7788.5 0
7789.5 0
7790.5 1
7791.5 0
7792.5 0
7793.5 2
7794.5 0
7795.5 0
7796.5 -0.857143
7797.5 0
7798.5 0
7799.5 0
7800.5 0
7801.5 0
7802.5 -0.857143
7803.5 0
7804.5 1
7805.5 0
7806.5 0
7807.5 0
7808.5 0
7809.5 1
7810.5 0
7811.5 0
7812.5 0
7813.5 0
7814.5 0
7815.5 0
7816.5 1
7817.5 0
7818.5 0
7819.5 0
7820.5 0
7821.5 0
7822.5 0
7823.5 0
7824.5 0.142857
7825.5 1
7826.5 1
7827.5 0
7828.5 1
7829.5 1
7830.5 -0.714286
7831.5 0
7832.5 0
7833.5 0
7834.5 0
7835.5 0
7836.5 1
7837.5 0
7838.5 0
7839.5 0
7840.5 1
7841.5 0
7842.5 1
7843.5 0
7844.5 0
7845.5 0
7846.5 0
7847.5 0
7848.5 0
7849.5 0
7850.5 0
7851.5 0
7852.5 0
7853.5 -0.857143
7854.5 -0.857143
7855.5 0
7856.5 0
7857.5 1
7858.5 0
7859.5 0
7860.5 0
7861.5 1
7862.5 -0.857143
7863.5 -0.857143
7864.5 0
7865.5 0
7866.5 0
7867.5 0
7868.5 0
7869.5 0
7870.5 0
7871.5 0
7872.5 0
7873.5 1
7874.5 0
7875.5 0
7876.5 0
7877.5 0
7878.5 1
7879.5 0
7880.5 -0.857143
7881.5 0
7882.5 0
7883.5 0
7884.5 0
7885.5 0
7886.5 0
7887.5 0
7888.5 0
7889.5 0
7890.5 0
7891.5 0
7892.5 1
7893.5 0
7894.5 1
7895.5 0
7896.5 0
7897.5 0
7898.5 0
7899.5 -0.857143
7900.5 0
7901.5 0
7902.5 0
7903.5 -0.857143
7904.5 0
7905.5 0
7906.5 0
7907.5 0
7908.5 0
7909.5 0
7910.5 1
7911.5 0
7912.5 0
7913.5 0
7914.5 0
7915.5 0
7916.5 1
7917.5 1
7918.5 0
7919.5 0
7920.5 0
7921.5 -0.857143
7922.5 0
7923.5 0
7924.5 0
7925.5 0
7926.5 0
7927.5 -0.857143
7928.5 0
7929.5 0
7930.5 0
7931.5 0
7932.5 -1.71429
7933.5 0
7934.5 1
7935.5 -0.857143
7936.5 0
7937.5 0
7938.5 -0.857143
7939.5 1
7940.5 1
7941.5 0
7942.5 -0.857143
7943.5 0
7944.5 0
7945.5 0
7946.5 0
7947.5 0
7948.5 0
7949.5 0
7950.5 1
7951.5 -0.857143
7952.5 0
7953.5 0
7954.5 0
7955.5 1
7956.5 0
7957.5 0
7958.5 -0.857143
7959.5 0
7960.5 0
7961.5 0
7962.5 0
7963.5 0
7964.5 0
7965.5 0
7966.5 0
7967.5 0
7968.5 -0.857143
7969.5 0
7970.5 0
7971.5 0
7972.5 0
7973.5 0
7974.5 0
7975.5 0
7976.5 0
7977.5 0
7978.5 0
7979.5 1
7980.5 0
7981.5 0
7982.5 -0.857143
7983.5 1
7984.5 0
7985.5 -0.857143
7986.5 0.142857
7987.5 0
7988.5 0
7989.5 0
7990.5 0
7991.5 1
7992.5 0
7993.5 0
7994.5 -0.857143
7995.5 0
7996.5 0
7997.5 0
7998.5 0
7999.5 -0.857143
8000.5 0
8001.5 0
8002.5 0
8003.5 0
8004.5 0
8005.5 1
8006.5 0
8007.5 0
8008.5 0
8009.5 0
8010.5 -0.857143
8011.5 0
8012.5 0
8013.5 0
8014.5 0
8015.5 0
8016.5 -0.857143
8017.5 0
8018.5 0
8019.5 0
8020.5 0
8021.5 1
8022.5 0
8023.5 0
8024.5 0
8025.5 0
8026.5 1
8027.5 0
8028.5 0
8029.5 0
8030.5 0
8031.5 0
8032.5 0
8033.5 0
8034.5 -1.71429
8035.5 0
8036.5 0
8037.5 0
8038.5 0
8039.5 0
8040.5 0
8041.5 0
8042.5 0
8043.5 0
8044.5 0
8045.5 0
8046.5 0
8047.5 0
8048.5 0
8049.5 0
8050.5 0
8051.5 -0.857143
8052.5 -0.857143
8053.5 0
8054.5 0
8055.5 0
8056.5 0
8057.5 0
8058.5 0
8059.5 0
8060.5 0
8061.5 0
8062.5 0
8063.5 0
8064.5 -0.857143
8065.5 0
8066.5 0
8067.5 0
8068.5 0
8069.5 0
8070.5 0
8071.5 -0.857143
8072.5 1
8073.5 0
8074.5 0
8075.5 0
8076.5 0
8077.5 -1.71429
8078.5 0
8079.5 0
8080.5 0
8081.5 -0.857143
8082.5 1
8083.5 0
8084.5 -0.857143
8085.5 0
8086.5 0
8087.5 -0.857143
8088.5 0
8089.5 0
8090.5 0
8091.5 0
8092.5 -0.857143
8093.5 0
8094.5 0
8095.5 0
8096.5 0
8097.5 0
8098.5 2
8099.5 0
8100.5 0
8101.5 -0.857143
8102.5 0
8103.5 0
8104.5 0
8105.5 0
8106.5 0
8107.5 0
8108.5 1
8109.5 0
8110.5 0
8111.5 0
8112.5 2
8113.5 0
8114.5 1
8115.5 0
8116.5 0
8117.5 0
8118.5 -0.857143
8119.5 0
8120.5 0
8121.5 0
8122.5 0
8123.5 0
8124.5 0
8125.5 0
8126.5 0
8127.5 -0.857143
8128.5 0
8129.5 0
8130.5 0
8131.5 0
8132.5 0
8133.5 0
8134.5 0
8135.5 0
8136.5 1
8137.5 0
8138.5 0
8139.5 0
8140.5 1
8141.5 0
8142.5 1
8143.5 0
8144.5 0
8145.5 0
8146.5 0
8147.5 0
8148.5 0
8149.5 0
8150.5 0
8151.5 0
8152.5 0
8153.5 0
8154.5 0
8155.5 0
8156.5 0
8157.5 1
8158.5 0
8159.5 0
8160.5 0
8161.5 -0.857143
8162.5 1
8163.5 0
8164.5 -0.857143
8165.5 0
8166.5 0
8167.5 0
8168.5 0
8169.5 1
8170.5 0
8171.5 0
8172.5 0
8173.5 0
8174.5 1
8175.5 1
8176.5 0
8177.5 0
8178.5 -0.857143
8179.5 0
8180.5 -0.857143
8181.5 0
8182.5 0
8183.5 0
8184.5 0
8185.5 0
8186.5 0
8187.5 -1.71429
8188.5 1
8189.5 -0.857143
8190.5 0
8191.5 0
8192.5 0
8193.5 -0.857143
8194.5 0
8195.5 0
8196.5 0
8197.5 0
8198.5 0
8199.5 0
8200.5 0
8201.5 0
8202.5 0
8203.5 0
8204.5 1
8205.5 0
8206.5 0
8207.5 0
8208.5 0
8209.5 0
8210.5 0
8211.5 1
8212.5 0
8213.5 0
8214.5 0
8215.5 0
8216.5 0
8217.5 0
8218.5 0
8219.5 0
8220.5 0
8221.5 -1.71429
8222.5 0
8223.5 0
8224.5 0
8225.5 0
8226.5 0
8227.5 0
8228.5 0
8229.5 0
8230.5 0
8231.5 0
8232.5 0
8233.5 0
8234.5 0
8235.5 0
8236.5 0
8237.5 1
8238.5 0
8239.5 0
8240.5 0
8241.5 -0.857143
8242.5 0
8243.5 0
8244.5 0
8245.5 0
8246.5 -0.857143
8247.5 0
8248.5 0
8249.5 0
8250.5 0
8251.5 0
8252.5 0
8253.5 0.142857
8254.5 0
8255.5 0
8256.5 0
8257.5 0
8258.5 0
8259.5 0
8260.5 0
8261.5 0
8262.5 0
8263.5 0
8264.5 0
8265.5 0
8266.5 0
8267.5 0
8268.5 -0.857143
8269.5 0
8270.5 0
8271.5 0
8272.5 0
8273.5 -0.714286
8274.5 0
8275.5 0
8276.5 0
8277.5 0
8278.5 0
8279.5 -0.857143
8280.5 0
8281.5 0
8282.5 0
8283.5 0
8284.5 0
8285.5 0
8286.5 0
8287.5 0
8288.5 0
8289.5 0
8290.5 1
8291.5 0
8292.5 0
8293.5 -1.71429
8294.5 0
8295.5 0
8296.5 0
8297.5 0
8298.5 0
8299.5 -0.857143
8300.5 -0.857143
8301.5 0
8302.5 0
8303.5 0
8304.5 0
8305.5 0
8306.5 0
8307.5 1
8308.5 0
8309.5 0
8310.5 0
8311.5 0
8312.5 0
8313.5 0
8314.5 0
8315.5 0
8316.5 -0.857143
8317.5 0
8318.5 0
8319.5 1
8320.5 1
8321.5 0
8322.5 0
8323.5 1
8324.5 0
8325.5 0
8326.5 0
8327.5 0
8328.5 0
8329.5 0
8330.5 -0.857143
8331.5 0
8332.5 1
8333.5 -0.857143
8334.5 -0.857143
8335.5 -0.857143
8336.5 1
8337.5 0.142857
8338.5 0
8339.5 -0.857143
8340.5 0
8341.5 0
8342.5 0
8343.5 0
8344.5 -0.857143
8345.5 0
8346.5 0
8347.5 -0.857143
8348.5 -0.857143
8349.5 0
8350.5 -0.857143
8351.5 1
8352.5 -0.857143
8353.5 0
8354.5 1
8355.5 0
8356.5 0
8357.5 0
8358.5 0
8359.5 1
8360.5 0
8361.5 0
8362.5 0
8363.5 0
8364.5 0
8365.5 0
8366.5 0
8367.5 0
8368.5 0
8369.5 1
8370.5 0
8371.5 -0.857143
8372.5 0
8373.5 0
8374.5 0
8375.5 0
8376.5 0
8377.5 0
8378.5 0
8379.5 0
8380.5 0
8381.5 0
8382.5 0
8383.5 0.142857
8384.5 0
8385.5 0
8386.5 -0.857143
8387.5 0
8388.5 0
8389.5 0
8390.5 0
8391.5 0
8392.5 1
8393.5 1
8394.5 0
8395.5 0
8396.5 0
8397.5 0.142857
8398.5 0
8399.5 0
8400.5 0
8401.5 0
8402.5 0
8403.5 0
8404.5 0
8405.5 0
8406.5 0
8407.5 0
8408.5 0
8409.5 0
8410.5 -0.714286
8411.5 0
8412.5 0
8413.5 0
8414.5 0
8415.5 0
8416.5 0
8417.5 -0.857143
8418.5 0
8419.5 -0.857143
8420.5 0
8421.5 0
8422.5 0
8423.5 0
8424.5 0
8425.5 0
8426.5 0
8427.5 0
8428.5 0
8429.5 0
8430.5 1
8431.5 0
8432.5 0
8433.5 0
8434.5 0
8435.5 0.142857
8436.5 0
8437.5 0
8438.5 0
8439.5 0
8440.5 0
8441.5 -0.857143
8442.5 0
8443.5 0
8444.5 0
8445.5 0
8446.5 1
8447.5 0
8448.5 -0.857143
8449.5 -1.71429
8450.5 0
8451.5 0
8452.5 0
8453.5 0
8454.5 0
8455.5 -0.857143
8456.5 0
8457.5 0
8458.5 0
8459.5 0
8460.5 1
8461.5 0
8462.5 0
8463.5 0
8464.5 0
8465.5 0
8466.5 0
8467.5 0
8468.5 1
8469.5 0
8470.5 0
8471.5 1
8472.5 0
8473.5 0
8474.5 0
8475.5 0
8476.5 0
8477.5 0
8478.5 1
8479.5 1
8480.5 0
8481.5 1
8482.5 0
8483.5 1
8484.5 0
8485.5 -0.857143
8486.5 1
8487.5 1
8488.5 0
8489.5 0
8490.5 1
8491.5 0
8492.5 0
8493.5 0
8494.5 0
8495.5 0
8496.5 1
8497.5 1
8498.5 0
8499.5 0
8500.5 1
8501.5 1
8502.5 1
8503.5 0
8504.5 0
8505.5 0
8506.5 0
8507.5 0
8508.5 0
8509.5 0
8510.5 0
8511.5 0
8512.5 1
8513.5 0
8514.5 0
8515.5 0
8516.5 0
8517.5 0
8518.5 0
8519.5 0
8520.5 0
8521.5 0
8522.5 0
8523.5 0
8524.5 0
8525.5 0
8526.5 0
8527.5 0
8528.5 0
8529.5 1
8530.5 0
8531.5 0
8532.5 -0.857143
8533.5 0
8534.5 0
8535.5 1
8536.5 0
8537.5 0
8538.5 0
8539.5 -0.857143
8540.5 0
8541.5 0
8542.5 0
8543.5 0
8544.5 1
8545.5 0
8546.5 -0.857143
8547.5 0
8548.5 -0.857143
8549.5 0
8550.5 -0.857143
8551.5 0
8552.5 0
8553.5 0
8554.5 -0.857143
8555.5 0
8556.5 0
8557.5 0
8558.5 0
8559.5 1
8560.5 0
8561.5 0
8562.5 0
8563.5 0
8564.5 0
8565.5 0
8566.5 0
8567.5 0
8568.5 0
8569.5 0
8570.5 0
8571.5 0
8572.5 0
8573.5 0
8574.5 0
8575.5 0
8576.5 0
8577.5 0
8578.5 0
8579.5 0
8580.5 -0.857143
8581.5 -0.857143
8582.5 0
8583.5 0
8584.5 -0.857143
8585.5 0
8586.5 0
8587.5 0
8588.5 0
8589.5 0
8590.5 0
8591.5 0
8592.5 0
8593.5 0
8594.5 0
8595.5 0
8596.5 0
8597.5 0
8598.5 0
8599.5 -0.857143
8600.5 0
8601.5 0
8602.5 0
8603.5 -0.857143
8604.5 0
8605.5 0
8606.5 0
8607.5 0
8608.5 0
8609.5 0
8610.5 0
8611.5 0
8612.5 0
8613.5 0
8614.5 1
8615.5 0
8616.5 0
8617.5 0
8618.5 0
8619.5 -0.857143
8620.5 0
8621.5 0
8622.5 0
8623.5 0
8624.5 0
8625.5 0
8626.5 0
8627.5 0
8628.5 0
8629.5 0
8630.5 0
8631.5 0
8632.5 0
8633.5 0
8634.5 0
8635.5 0
8636.5 0
8637.5 0
8638.5 0
8639.5 0
8640.5 0
8641.5 0
8642.5 0
8643.5 0
8644.5 0
8645.5 -0.857143
8646.5 0
8647.5 0
8648.5 0
8649.5 0
8650.5 -0.857143
8651.5 0
8652.5 0
8653.5 0
8654.5 0
8655.5 0
8656.5 0
8657.5 0
8658.5 0
8659.5 -0.857143
8660.5 0
8661.5 0
8662.5 0
8663.5 0
8664.5 -0.857143
8665.5 0
8666.5 0
8667.5 0
8668.5 0
8669.5 0
8670.5 0
8671.5 0
8672.5 0
8673.5 0
8674.5 0
8675.5 0
8676.5 0
8677.5 -0.857143
8678.5 0
8679.5 0
8680.5 -0.857143
8681.5 0
8682.5 0
8683.5 0
8684.5 0
8685.5 0
8686.5 0
8687.5 0
8688.5 0
8689.5 0
8690.5 1
8691.5 -0.857143
8692.5 0
8693.5 0
8694.5 0
8695.5 0
8696.5 0
8697.5 0
8698.5 0
8699.5 0
8700.5 -0.857143
8701.5 0
8702.5 0
8703.5 0
8704.5 0
8705.5 -0.857143
8706.5 0
8707.5 0
8708.5 -0.857143
8709.5 0
8710.5 0
8711.5 0
8712.5 0
8713.5 0
8714.5 0
8715.5 0
8716.5 0
8717.5 0
8718.5 0
8719.5 0
8720.5 0
8721.5 0
8722.5 0
8723.5 0
8724.5 0
8725.5 0
8726.5 0
8727.5 0
8728.5 0
8729.5 0
8730.5 0
8731.5 0
8732.5 1
8733.5 0
8734.5 0
8735.5 0
8736.5 0
8737.5 0
8738.5 0
8739.5 -0.857143
8740.5 1
8741.5 0
8742.5 0
8743.5 0
8744.5 0
8745.5 0
8746.5 0
8747.5 0
8748.5 0
8749.5 0
8750.5 0
8751.5 0
8752.5 0
8753.5 0
8754.5 0
8755.5 0
8756.5 0
8757.5 0
8758.5 0
8759.5 1
8760.5 0
8761.5 0
8762.5 0
8763.5 0
8764.5 0.142857
8765.5 0
8766.5 0
8767.5 0
8768.5 -0.857143
8769.5 0
8770.5 0
8771.5 0
8772.5 0
8773.5 -0.857143
8774.5 0
8775.5 0
8776.5 0
8777.5 0
8778.5 0
8779.5 0
8780.5 0
8781.5 0
8782.5 0
8783.5 0
8784.5 0
8785.5 1
8786.5 0
8787.5 0
8788.5 0
8789.5 0
8790.5 0
8791.5 0
8792.5 1
8793.5 0
8794.5 0
8795.5 0
8796.5 0
8797.5 0
8798.5 0
8799.5 0
8800.5 0
8801.5 0
8802.5 0
8803.5 0
8804.5 0
8805.5 0
8806.5 0
8807.5 0
8808.5 0
8809.5 0
8810.5 1
8811.5 0
8812.5 0
8813.5 0
8814.5 0
8815.5 0
8816.5 0
8817.5 0
8818.5 0
8819.5 0
8820.5 0
8821.5 1
8822.5 0
8823.5 -0.857143
8824.5 0
8825.5 0
8826.5 0
8827.5 1
8828.5 0
8829.5 0
8830.5 0
8831.5 0
8832.5 0
8833.5 0
8834.5 1
8835.5 0
8836.5 -0.857143
8837.5 0
8838.5 1
8839.5 0
8840.5 1
8841.5 1
8842.5 0
8843.5 0
8844.5 0
8845.5 1
8846.5 -1.71429
8847.5 0
8848.5 0
8849.5 0
8850.5 0
8851.5 2
8852.5 0
8853.5 0
8854.5 0
8855.5 0
8856.5 0
8857.5 0
8858.5 0
8859.5 0
8860.5 0
8861.5 0
8862.5 0
8863.5 0
8864.5 0
8865.5 0
8866.5 0
8867.5 0
8868.5 1
8869.5 0
8870.5 0
8871.5 0
8872.5 0
8873.5 0
8874.5 0
8875.5 0
8876.5 0
8877.5 0
8878.5 0
8879.5 0
8880.5 0
8881.5 0
8882.5 0
8883.5 0
8884.5 -0.857143
8885.5 0
8886.5 0
8887.5 -0.857143
8888.5 0
8889.5 0
8890.5 0.142857
8891.5 -0.857143
8892.5 0
8893.5 1
8894.5 0
8895.5 -0.857143
8896.5 0
8897.5 0
8898.5 0
8899.5 0
8900.5 0
8901.5 0
8902.5 0
8903.5 0
8904.5 0
8905.5 0
8906.5 0
8907.5 0
8908.5 0
8909.5 0
8910.5 0
8911.5 0
8912.5 0
8913.5 1
8914.5 0
8915.5 0
8916.5 0
8917.5 1
8918.5 0
8919.5 0
8920.5 0
8921.5 0
8922.5 0
8923.5 0
8924.5 0
8925.5 0
8926.5 0
8927.5 0
8928.5 1
8929.5 0
8930.5 0
8931.5 0
8932.5 0
8933.5 1
8934.5 0
8935.5 0
8936.5 0
8937.5 0
8938.5 0
8939.5 0
8940.5 0
8941.5 0
8942.5 0
8943.5 1
8944.5 0
8945.5 0
8946.5 0
8947.5 -0.857143
8948.5 0
8949.5 0
8950.5 0
8951.5 0
8952.5 0
8953.5 0
8954.5 0
8955.5 0
8956.5 1
8957.5 0
8958.5 0
8959.5 0
8960.5 0
8961.5 0
8962.5 0
8963.5 0
8964.5 0
8965.5 0
8966.5 0
8967.5 0
8968.5 0
8969.5 0
8970.5 0
8971.5 0
8972.5 0
8973.5 0
8974.5 0
8975.5 0
8976.5 0
8977.5 0
8978.5 0
8979.5 1
8980.5 -0.857143
8981.5 0.142857
8982.5 0
8983.5 0
8984.5 0
8985.5 0
8986.5 0
8987.5 0
8988.5 0
8989.5 0
8990.5 0
8991.5 0
8992.5 0
8993.5 0
8994.5 0
8995.5 0
8996.5 0
8997.5 0
8998.5 0
8999.5 1
9000.5 0
9001.5 1
9002.5 0
9003.5 0
9004.5 0
9005.5 0
9006.5 0
9007.5 -0.857143
9008.5 0
9009.5 0
9010.5 -0.857143
9011.5 0
9012.5 0
9013.5 0
9014.5 0
9015.5 0
9016.5 0
9017.5 0
9018.5 0
9019.5 0
9020.5 0
9021.5 0
9022.5 0
9023.5 1
9024.5 0
9025.5 0
9026.5 0
9027.5 0
9028.5 0
9029.5 0
9030.5 0
9031.5 0
9032.5 0
9033.5 0
9034.5 1
9035.5 0
9036.5 0
9037.5 0
9038.5 0
9039.5 0
9040.5 0
9041.5 0
9042.5 1
9043.5 0
9044.5 0
9045.5 -0.857143
9046.5 0
9047.5 0
9048.5 0
9049.5 0
9050.5 0
9051.5 0
9052.5 -0.857143
9053.5 0
9054.5 0
9055.5 0
9056.5 0
9057.5 0
9058.5 0
9059.5 0
9060.5 0
9061.5 0
9062.5 0
9063.5 -0.857143
9064.5 0
9065.5 -0.857143
9066.5 1
9067.5 0
9068.5 0
9069.5 0
9070.5 0
9071.5 0
9072.5 0
9073.5 0
9074.5 0
9075.5 0
9076.5 0
9077.5 0
9078.5 0
9079.5 0
9080.5 0
9081.5 0
9082.5 0
9083.5 0
9084.5 1
9085.5 0
9086.5 0
9087.5 0
9088.5 0
9089.5 0
9090.5 0
9091.5 -0.857143
9092.5 0
9093.5 0
9094.5 0
9095.5 0
9096.5 0
9097.5 0
9098.5 0
9099.5 0
9100.5 0
9101.5 1
9102.5 0
9103.5 0
9104.5 0
9105.5 0
9106.5 0
9107.5 0
9108.5 0
9109.5 1
9110.5 0
9111.5 0
9112.5 0
9113.5 0
9114.5 1
9115.5 0
9116.5 0
9117.5 0
9118.5 0
9119.5 0
9120.5 0
9121.5 0
9122.5 0
9123.5 0
9124.5 0
9125.5 0
9126.5 0
9127.5 -0.857143
9128.5 0
9129.5 0
9130.5 1
9131.5 1
9132.5 0
9133.5 1
9134.5 0
9135.5 0
9136.5 -0.857143
9137.5 0
9138.5 0
9139.5 0
9140.5 0
9141.5 0
9142.5 0
9143.5 0
9144.5 0
9145.5 0
9146.5 0
9147.5 0
9148.5 -0.857143
9149.5 0
9150.5 1
9151.5 0
9152.5 -0.857143
9153.5 0
9154.5 0
9155.5 0
9156.5 0
9157.5 0
9158.5 0
9159.5 0
9160.5 1
9161.5 0
9162.5 0
9163.5 0
9164.5 -0.857143
9165.5 0
9166.5 0
9167.5 0
9168.5 0
9169.5 0
9170.5 0
9171.5 0
9172.5 0
9173.5 0
9174.5 1
9175.5 0
9176.5 0
9177.5 0
9178.5 0
9179.5 0
9180.5 -0.857143
9181.5 0
9182.5 0
9183.5 0
9184.5 0
9185.5 0
9186.5 0
9187.5 0
9188.5 0
9189.5 0
9190.5 1
9191.5 0
9192.5 0
9193.5 -0.857143
9194.5 0
9195.5 1
9196.5 0
9197.5 0
9198.5 0
9199.5 0
9200.5 0
9201.5 0
9202.5 0
9203.5 0
9204.5 1
9205.5 0
9206.5 0
9207.5 0
9208.5 0
9209.5 0
9210.5 0
9211.5 0
9212.5 0
9213.5 0
9214.5 0
9215.5 0
9216.5 0
9217.5 0
9218.5 0
9219.5 0
9220.5 0
9221.5 0
9222.5 0
9223.5 0
9224.5 0
9225.5 1
9226.5 -0.857143
9227.5 0
9228.5 0
9229.5 0
9230.5 0
9231.5 0
9232.5 0
9233.5 0
9234.5 1
9235.5 0
9236.5 0
9237.5 -0.857143
9238.5 0
9239.5 0
9240.5 0
9241.5 0
9242.5 0
9243.5 0
9244.5 0
9245.5 0
9246.5 0
9247.5 0
9248.5 0
9249.5 0
9250.5 0
9251.5 0
9252.5 0
9253.5 0
9254.5 1
9255.5 0
9256.5 0
9257.5 0
9258.5 0
9259.5 0
9260.5 0
9261.5 0
9262.5 0
9263.5 0
9264.5 0
9265.5 0
9266.5 0
9267.5 0
9268.5 0
9269.5 0
9270.5 0
9271.5 0
9272.5 0
9273.5 0
9274.5 0
9275.5 0
9276.5 0
9277.5 0
9278.5 0
9279.5 0
9280.5 0
9281.5 0
9282.5 0
9283.5 0
9284.5 0
9285.5 0
9286.5 1
9287.5 0
9288.5 1
9289.5 1
9290.5 0
9291.5 0
9292.5 0
9293.5 1
9294.5 0
9295.5 0
9296.5 0
9297.5 -0.857143
9298.5 0
9299.5 0
9300.5 0
9301.5 0
9302.5 0
9303.5 0
9304.5 0
9305.5 0
9306.5 -0.857143
9307.5 0
9308.5 0
9309.5 0
9310.5 0
9311.5 0
9312.5 0
9313.5 0
9314.5 0
9315.5 0
9316.5 1
9317.5 0
9318.5 0
9319.5 0
9320.5 0
9321.5 0
9322.5 0
9323.5 -0.857143
9324.5 0
9325.5 0
9326.5 0
9327.5 0
9328.5 0
9329.5 -0.857143
9330.5 0
9331.5 0
9332.5 0
9333.5 0
9334.5 1
9335.5 0
9336.5 0
9337.5 0
9338.5 0
9339.5 0
9340.5 0
9341.5 0
9342.5 0
9343.5 0
9344.5 0
9345.5 0
9346.5 0
9347.5 0
9348.5 0
9349.5 0
9350.5 0
9351.5 0
9352.5 0
9353.5 0
9354.5 1
9355.5 0
9356.5 0
9357.5 0
9358.5 0
9359.5 1
9360.5 0
9361.5 0
9362.5 0
9363.5 -0.857143
9364.5 0
9365.5 0
9366.5 0
9367.5 0
9368.5 0
9369.5 0
9370.5 0
9371.5 0
9372.5 0
9373.5 0
9374.5 0
9375.5 0
9376.5 0
9377.5 0
9378.5 0
9379.5 0
9380.5 0
9381.5 0
9382.5 0
9383.5 0
9384.5 0
9385.5 -0.857143
9386.5 0
9387.5 0
9388.5 0
9389.5 0
9390.5 0
9391.5 0
9392.5 0
9393.5 -1.71429
9394.5 0
9395.5 0
9396.5 0
9397.5 1
9398.5 0
9399.5 0
9400.5 0
9401.5 0
9402.5 1
9403.5 -0.857143
9404.5 0
9405.5 0
9406.5 0
9407.5 0
9408.5 0
9409.5 0
9410.5 0
9411.5 0
9412.5 0
9413.5 0
9414.5 1
9415.5 0
9416.5 0
9417.5 0
9418.5 0
9419.5 0
9420.5 0
9421.5 0
9422.5 0
9423.5 0
9424.5 1
9425.5 0
9426.5 0
9427.5 0
9428.5 0
9429.5 0
9430.5 0
9431.5 0
9432.5 0
9433.5 0
9434.5 0
9435.5 0
9436.5 0
9437.5 0
9438.5 0
9439.5 0
9440.5 0
9441.5 0
9442.5 0
9443.5 0
9444.5 0
9445.5 0
9446.5 0
9447.5 0
9448.5 0
9449.5 0
9450.5 0
9451.5 0
9452.5 -0.857143
9453.5 0
9454.5 0
9455.5 0
9456.5 0
9457.5 0
9458.5 0
9459.5 -0.857143
9460.5 -0.857143
9461.5 0
9462.5 0
9463.5 0
9464.5 0
9465.5 0
9466.5 0.142857
9467.5 0
9468.5 0
9469.5 0
9470.5 0
9471.5 0
9472.5 0
9473.5 0
9474.5 0
9475.5 0
9476.5 0
9477.5 0
9478.5 0
9479.5 0
9480.5 0
9481.5 -0.857143
9482.5 0
9483.5 0
9484.5 0
9485.5 0
9486.5 0
9487.5 -0.857143
9488.5 0
9489.5 0
9490.5 0
9491.5 0
9492.5 0
9493.5 0
9494.5 0
9495.5 0
9496.5 0
9497.5 0
9498.5 0
9499.5 0
9500.5 0
9501.5 0
9502.5 0
9503.5 1
9504.5 0
9505.5 0
9506.5 0
9507.5 0
9508.5 0
9509.5 0
9510.5 0
9511.5 0
9512.5 1
9513.5 0
9514.5 0
9515.5 0
9516.5 0
9517.5 0
9518.5 0
9519.5 0
9520.5 0
9521.5 1
9522.5 0
9523.5 0
9524.5 0
9525.5 0
9526.5 0
9527.5 0
9528.5 0
9529.5 0
9530.5 0
9531.5 0
9532.5 0
9533.5 0
9534.5 0
9535.5 0
9536.5 0
9537.5 0
9538.5 0
9539.5 0
9540.5 0
9541.5 0
9542.5 0
9543.5 0
9544.5 0
9545.5 0
9546.5 0
9547.5 0
9548.5 0
9549.5 0
9550.5 0
9551.5 0
9552.5 0
9553.5 -0.857143
9554.5 0
9555.5 0
9556.5 1
9557.5 -0.857143
9558.5 0
9559.5 0
9560.5 1
9561.5 0
9562.5 0
9563.5 0
9564.5 0
9565.5 0
9566.5 0
9567.5 0
9568.5 -0.857143
9569.5 0
9570.5 0
9571.5 0
9572.5 0
9573.5 -0.857143
9574.5 0
9575.5 0
9576.5 0
9577.5 0
9578.5 1
9579.5 0
9580.5 0
9581.5 0
9582.5 0
9583.5 0
9584.5 0
9585.5 0
9586.5 1
9587.5 -0.857143
9588.5 0
9589.5 0
9590.5 0
9591.5 0
9592.5 0
9593.5 0
9594.5 -0.857143
9595.5 0
9596.5 0
9597.5 0
9598.5 0
9599.5 0
9600.5 0
9601.5 0
9602.5 0
9603.5 0
9604.5 0
9605.5 0
9606.5 0
9607.5 0
9608.5 0
9609.5 1
9610.5 -0.857143
9611.5 0
9612.5 0
9613.5 0
9614.5 0
9615.5 0
9616.5 0
9617.5 0
9618.5 0
9619.5 0
9620.5 0
9621.5 1
9622.5 0
9623.5 0
9624.5 0
9625.5 0
9626.5 0
9627.5 0
9628.5 0
9629.5 1
9630.5 0
9631.5 0
9632.5 0
9633.5 0
9634.5 0
9635.5 0
9636.5 0
9637.5 0
9638.5 0
9639.5 0
9640.5 0
9641.5 0
9642.5 0
9643.5 0
9644.5 0
9645.5 0
9646.5 -0.857143
9647.5 0
9648.5 0
9649.5 0
9650.5 0
9651.5 0
9652.5 1
9653.5 0
9654.5 0
9655.5 0
9656.5 -0.857143
9657.5 0
9658.5 0
9659.5 0
9660.5 0
9661.5 0
9662.5 0
9663.5 0
9664.5 0
9665.5 0
9666.5 0
9667.5 0
9668.5 0
9669.5 -0.857143
9670.5 0
9671.5 0
9672.5 0
9673.5 0
9674.5 0
9675.5 0
9676.5 0
9677.5 0
9678.5 0
9679.5 0
9680.5 -0.857143
9681.5 0
9682.5 0
9683.5 0
9684.5 0
9685.5 0
9686.5 1
9687.5 0
9688.5 0
9689.5 -0.857143
9690.5 0
9691.5 0
9692.5 0
9693.5 0
9694.5 1
9695.5 0
9696.5 0
9697.5 0
9698.5 0
9699.5 0
9700.5 -0.857143
9701.5 0
9702.5 0
9703.5 0
9704.5 0
9705.5 0
9706.5 0
9707.5 0
9708.5 0
9709.5 0
9710.5 0
9711.5 0
9712.5 0
9713.5 0
9714.5 0
9715.5 0
9716.5 0
9717.5 0
9718.5 0
9719.5 0
9720.5 0
9721.5 0
9722.5 0
9723.5 0
9724.5 0
9725.5 0
9726.5 0
9727.5 0
9728.5 0
9729.5 0
9730.5 0
9731.5 0
9732.5 0
9733.5 0
9734.5 0
9735.5 0
9736.5 0
9737.5 0
9738.5 0
9739.5 0
9740.5 0
9741.5 0
9742.5 0
9743.5 0
9744.5 0
9745.5 0
9746.5 0
9747.5 0
9748.5 0
9749.5 0
9750.5 0
9751.5 0
9752.5 0
9753.5 0
9754.5 0
9755.5 0
9756.5 1
9757.5 0
9758.5 0
9759.5 0
9760.5 0
9761.5 0
9762.5 0
9763.5 0
9764.5 0
9765.5 1
9766.5 0
9767.5 0
9768.5 0
9769.5 0
9770.5 0
9771.5 0
9772.5 0
9773.5 1
9774.5 0
9775.5 0
9776.5 0
9777.5 0
9778.5 0
9779.5 0
9780.5 0
9781.5 -0.857143
9782.5 0
9783.5 0
9784.5 0
9785.5 0
9786.5 0
9787.5 0
9788.5 0
9789.5 0
9790.5 0
9791.5 0
9792.5 0
9793.5 0
9794.5 0
9795.5 0
9796.5 0
9797.5 0
9798.5 0
9799.5 0
9800.5 0
9801.5 0
9802.5 0
9803.5 0
9804.5 0
9805.5 0
9806.5 0
9807.5 0
9808.5 0
9809.5 0
9810.5 0
9811.5 0
9812.5 0
9813.5 0
9814.5 -0.857143
9815.5 0
9816.5 0
9817.5 0
9818.5 0
9819.5 0
9820.5 0
9821.5 0
9822.5 0
9823.5 0
9824.5 0
9825.5 0
9826.5 0
9827.5 0
9828.5 0
9829.5 0
9830.5 0
9831.5 0
9832.5 0
9833.5 0
9834.5 0
9835.5 0
9836.5 0
9837.5 0
9838.5 0
9839.5 0
9840.5 0
9841.5 0
9842.5 0
9843.5 0
9844.5 0
9845.5 0
9846.5 -0.857143
9847.5 0
9848.5 0
9849.5 0
9850.5 0
9851.5 0
9852.5 0
9853.5 0
9854.5 0
9855.5 0
9856.5 -0.857143
9857.5 0
9858.5 0
9859.5 0
9860.5 0
9861.5 0
9862.5 0
9863.5 0
9864.5 0
9865.5 0
9866.5 0
9867.5 0
9868.5 0
9869.5 0
9870.5 0
9871.5 0
9872.5 0
9873.5 0
9874.5 0
9875.5 0
9876.5 0
9877.5 0
9878.5 0
9879.5 0
9880.5 0
9881.5 0
9882.5 0
9883.5 0
9884.5 0
9885.5 0
9886.5 0
9887.5 0
9888.5 0
9889.5 0
9890.5 0
9891.5 0
9892.5 0
9893.5 1
9894.5 0
9895.5 0
9896.5 1
9897.5 0
9898.5 1
9899.5 0
9900.5 0
9901.5 0
9902.5 0
9903.5 0
9904.5 0
9905.5 0
9906.5 0
9907.5 0
9908.5 0
9909.5 0
9910.5 0
9911.5 0
9912.5 0
9913.5 0
9914.5 0
9915.5 1
9916.5 0
9917.5 0
9918.5 0
9919.5 0
9920.5 0
9921.5 0
9922.5 0
9923.5 0
9924.5 0
9925.5 0
9926.5 0
9927.5 0
9928.5 0
9929.5 0
9930.5 0
9931.5 0
9932.5 0
9933.5 0
9934.5 0
9935.5 0
9936.5 0
9937.5 0
9938.5 0
9939.5 0
9940.5 0
9941.5 0
9942.5 0
9943.5 0
9944.5 0
9945.5 0
9946.5 0
9947.5 0
9948.5 0
9949.5 0
9950.5 0
9951.5 0
9952.5 0
9953.5 0
9954.5 0
9955.5 0
9956.5 0
9957.5 0
9958.5 -0.857143
9959.5 0
9960.5 0
9961.5 0
9962.5 0
9963.5 0
9964.5 0
9965.5 0
9966.5 0
9967.5 0
9968.5 0
9969.5 0
9970.5 1
9971.5 0
9972.5 0
9973.5 0
9974.5 0
9975.5 0
9976.5 0
9977.5 0
9978.5 0
9979.5 0
9980.5 0
9981.5 0
9982.5 0
9983.5 0
9984.5 0
9985.5 0
9986.5 0
9987.5 0
9988.5 0
9989.5 0
9990.5 0
9991.5 0
9992.5 0
9993.5 0
9994.5 0
9995.5 0
9996.5 0
9997.5 0
9998.5 0
9999.5 0
10000.5 0
10001.5 0
10002.5 0
10003.5 0
10004.5 0
10005.5 0
10006.5 0
10007.5 0
10008.5 0
10009.5 0
10010.5 0
10011.5 0
10012.5 0
10013.5 0
10014.5 0
10015.5 0
10016.5 0
10017.5 0
10018.5 0
10019.5 0
10020.5 0
10021.5 0
10022.5 0
10023.5 0
10024.5 0
10025.5 0
10026.5 0
10027.5 0
10028.5 0
10029.5 0
10030.5 0
10031.5 0
10032.5 0
10033.5 0
10034.5 0
10035.5 0
10036.5 0
10037.5 0
10038.5 0
10039.5 0
10040.5 0
10041.5 0
10042.5 0
10043.5 0
10044.5 0
10045.5 0
10046.5 0
10047.5 0
10048.5 0
10049.5 0
10050.5 0
10051.5 1
10052.5 0
10053.5 0
10054.5 0
10055.5 0
10056.5 0
10057.5 0
10058.5 0
10059.5 0
10060.5 0
10061.5 0
10062.5 0
10063.5 0
10064.5 1
10065.5 0
10066.5 0
10067.5 0
10068.5 0
10069.5 0
10070.5 0
10071.5 0
10072.5 0
10073.5 0
10074.5 0
10075.5 0
10076.5 0
10077.5 0
10078.5 0
10079.5 0
10080.5 0
10081.5 0
10082.5 0
10083.5 0
10084.5 0
10085.5 0
10086.5 0
10087.5 0
10088.5 0
10089.5 0
10090.5 0
10091.5 0
10092.5 0
10093.5 0
10094.5 0
10095.5 0
10096.5 0
10097.5 0
10098.5 0
10099.5 0
10100.5 0
10101.5 0
10102.5 0
10103.5 0
10104.5 0
10105.5 0
10106.5 0
10107.5 0
10108.5 0
10109.5 0
10110.5 0
10111.5 0
10112.5 0
10113.5 0
10114.5 0
10115.5 0
10116.5 0
10117.5 0
10118.5 0
10119.5 0
10120.5 0
10121.5 0
10122.5 0
10123.5 0
10124.5 0
10125.5 0
10126.5 0
10127.5 0
10128.5 0
10129.5 0
10130.5 0
10131.5 0
10132.5 0
10133.5 0
10134.5 0
10135.5 0
10136.5 1
10137.5 0
10138.5 0
10139.5 0
10140.5 0
10141.5 0
10142.5 0
10143.5 0
10144.5 0
10145.5 0
10146.5 0
10147.5 0
10148.5 0
10149.5 0
10150.5 0
10151.5 0
10152.5 0
10153.5 0
10154.5 0
10155.5 0
10156.5 0
10157.5 0
10158.5 0
10159.5 0
10160.5 0
10161.5 0
10162.5 0
10163.5 0
10164.5 0
10165.5 0
10166.5 0
10167.5 0
10168.5 0
10169.5 0
10170.5 0
10171.5 0
10172.5 0
10173.5 0
10174.5 0
10175.5 0
10176.5 0
10177.5 0
10178.5 0
10179.5 0
10180.5 0
10181.5 0
10182.5 0
10183.5 0
10184.5 0
10185.5 0
10186.5 0
10187.5 0
10188.5 0
10189.5 0
10190.5 0
10191.5 0
10192.5 0
10193.5 0
10194.5 0
10195.5 -0.857143
10196.5 0
10197.5 0
10198.5 0
10199.5 0
10200.5 0
10201.5 0
10202.5 0
10203.5 0
10204.5 0
10205.5 0
10206.5 0
10207.5 0
10208.5 0
10209.5 -0.857143
10210.5 0
10211.5 0
10212.5 0
10213.5 0
10214.5 0
10215.5 0
10216.5 0
10217.5 0
10218.5 0
10219.5 0
10220.5 0
10221.5 0
10222.5 0
10223.5 0
10224.5 0
10225.5 0
10226.5 0
10227.5 0
10228.5 0
10229.5 0
10230.5 0
10231.5 0
10232.5 0
10233.5 0
10234.5 0
10235.5 0
10236.5 0
10237.5 0
10238.5 0
10239.5 0
10240.5 0
10241.5 0
10242.5 0
10243.5 0
10244.5 0
10245.5 0
10246.5 0
10247.5 0
10248.5 0
10249.5 0
10250.5 0
10251.5 1
10252.5 0
10253.5 0
10254.5 0
10255.5 0
10256.5 0
10257.5 0
10258.5 0
10259.5 0
10260.5 0
10261.5 0
10262.5 0
10263.5 0
10264.5 0
10265.5 0
10266.5 0
10267.5 0
10268.5 0
10269.5 0
10270.5 0
10271.5 0
10272.5 0
10273.5 0
10274.5 0
10275.5 0
10276.5 0
10277.5 0
10278.5 0
10279.5 0
10280.5 0
10281.5 0
10282.5 0
10283.5 0
10284.5 0
10285.5 0
10286.5 0
10287.5 0
10288.5 0
10289.5 0
10290.5 0
10291.5 0
10292.5 0
10293.5 0
10294.5 0
10295.5 0
10296.5 0
10297.5 0
10298.5 0
10299.5 0
10300.5 0
10301.5 0
10302.5 0
10303.5 0
10304.5 0
10305.5 0
10306.5 0
10307.5 0
10308.5 -0.857143
10309.5 0
10310.5 0
10311.5 0
10312.5 0
10313.5 0
10314.5 0
10315.5 0
10316.5 0
10317.5 0
10318.5 0
10319.5 0
10320.5 0
10321.5 0
10322.5 0
10323.5 0
10324.5 0
10325.5 0
10326.5 0
10327.5 0
10328.5 0
10329.5 0
10330.5 0
10331.5 0
10332.5 0
10333.5 0
10334.5 0
10335.5 0
10336.5 0
10337.5 0
10338.5 0
10339.5 0
10340.5 0
10341.5 0
10342.5 0
10343.5 0
10344.5 0
10345.5 0
10346.5 0
10347.5 0
10348.5 0
10349.5 0
10350.5 0
10351.5 0
10352.5 0
10353.5 0
10354.5 0
10355.5 0
10356.5 0
10357.5 0
10358.5 0
10359.5 0
10360.5 0
10361.5 0
10362.5 0
10363.5 0
10364.5 0
10365.5 0
10366.5 0
10367.5 0
10368.5 0
10369.5 0
10370.5 0
10371.5 0
10372.5 0
10373.5 0
10374.5 0
10375.5 0
10376.5 0
10377.5 0
10378.5 0
10379.5 0
10380.5 0
10381.5 0
10382.5 0
10383.5 0
10384.5 0
10385.5 0
10386.5 0
10387.5 0
10388.5 0
10389.5 0
10390.5 0
10391.5 0
10392.5 0
10393.5 0
10394.5 0
10395.5 0
10396.5 0
10397.5 0
10398.5 0
10399.5 0
10400.5 0
10401.5 0
10402.5 0
10403.5 0
10404.5 0
10405.5 0
10406.5 0
10407.5 0
10408.5 1
10409.5 0
10410.5 0
10411.5 0
10412.5 0
10413.5 0
10414.5 0
10415.5 0
10416.5 0
10417.5 0
10418.5 0
10419.5 0
10420.5 0
10421.5 0
10422.5 0
10423.5 0
10424.5 0
10425.5 0
10426.5 0
10427.5 0
10428.5 0
10429.5 0
10430.5 0
10431.5 0
10432.5 0
10433.5 0
10434.5 0
10435.5 0
10436.5 0
10437.5 0
10438.5 0
10439.5 0
10440.5 0
10441.5 0
10442.5 0
10443.5 0
10444.5 0
10445.5 0
10446.5 0
10447.5 0
10448.5 0
10449.5 0
10450.5 0
10451.5 0
10452.5 1
10453.5 0
10454.5 0
10455.5 0
10456.5 0
10457.5 0
10458.5 0
10459.5 0
10460.5 0
10461.5 0
10462.5 0
10463.5 0
10464.5 0
10465.5 0
10466.5 0
10467.5 0
10468.5 0
10469.5 0
10470.5 0
10471.5 0
10472.5 0
10473.5 0
10474.5 0
10475.5 0
10476.5 0
10477.5 0
10478.5 0
10479.5 0
10480.5 0
10481.5 0
10482.5 0
10483.5 0
10484.5 0
10485.5 0
10486.5 0
10487.5 0
10488.5 0
10489.5 0
10490.5 0
10491.5 0
10492.5 0
10493.5 0
10494.5 0
10495.5 0
10496.5 0
10497.5 0
10498.5 0
10499.5 0
10500.5 0
10501.5 0
10502.5 0
10503.5 0
10504.5 0
10505.5 -0.857143
10506.5 0
10507.5 0
10508.5 0
10509.5 0
10510.5 0
10511.5 0
10512.5 0
10513.5 0
10514.5 0
10515.5 0
10516.5 0
10517.5 0
10518.5 0
10519.5 0
10520.5 0
10521.5 0
10522.5 0
10523.5 0
10524.5 0
10525.5 0
10526.5 0
10527.5 0
10528.5 0
10529.5 0
10530.5 0
10531.5 0
10532.5 0
10533.5 0
10534.5 0
10535.5 0
10536.5 0
10537.5 0
10538.5 0
10539.5 0
10540.5 0
10541.5 0
10542.5 0
10543.5 0
10544.5 0
10545.5 0
10546.5 0
10547.5 0
10548.5 0
10549.5 0
10550.5 0
10551.5 0
10552.5 0
10553.5 0
10554.5 0
10555.5 0
10556.5 0
10557.5 0
10558.5 0
10559.5 0
10560.5 0
10561.5 0
10562.5 0
10563.5 0
10564.5 0
10565.5 0
10566.5 0
10567.5 0
10568.5 0
10569.5 0
10570.5 0
10571.5 0
10572.5 0
10573.5 0
10574.5 0
10575.5 0
10576.5 0
10577.5 0
10578.5 0
10579.5 0
10580.5 0
10581.5 0
10582.5 0
10583.5 0
10584.5 0
10585.5 0
10586.5 0
10587.5 0
10588.5 0
10589.5 0
10590.5 0
10591.5 0
10592.5 0
10593.5 0
10594.5 0
10595.5 0
10596.5 0
10597.5 0
10598.5 0
10599.5 0
10600.5 0
10601.5 0
10602.5 0
10603.5 1
10604.5 0
10605.5 0
10606.5 0
10607.5 0
10608.5 0
10609.5 0
10610.5 0
10611.5 0
10612.5 0
10613.5 0
10614.5 0
10615.5 0
10616.5 0
10617.5 0
10618.5 0
10619.5 1
10620.5 0
10621.5 0
10622.5 0
10623.5 0
10624.5 0
10625.5 0
10626.5 0
10627.5 0
10628.5 0
10629.5 0
10630.5 0
10631.5 0
10632.5 0
10633.5 0
10634.5 0
10635.5 0
10636.5 0
10637.5 0
10638.5 0
10639.5 0
10640.5 0
10641.5 0
10642.5 0
10643.5 0
10644.5 0
10645.5 0
10646.5 0
10647.5 -0.857143
10648.5 0
10649.5 0
10650.5 0
10651.5 0
10652.5 0
10653.5 0
10654.5 0
10655.5 0
10656.5 0
10657.5 0
10658.5 0
10659.5 0
10660.5 0
10661.5 0
10662.5 0
10663.5 0
10664.5 0
10665.5 0
10666.5 0
10667.5 0
10668.5 0
10669.5 0
10670.5 0
10671.5 0
10672.5 0
10673.5 0
10674.5 0
10675.5 0
10676.5 0
10677.5 0
10678.5 0
10679.5 0
10680.5 0
10681.5 0
10682.5 0
10683.5 0
10684.5 0
10685.5 0
10686.5 0
10687.5 0
10688.5 0
10689.5 0
10690.5 0
10691.5 0
10692.5 0
10693.5 0
10694.5 0
10695.5 0
10696.5 0
10697.5 0
10698.5 0
10699.5 0
10700.5 0
10701.5 0
10702.5 0
10703.5 0
10704.5 0
10705.5 0
10706.5 0
10707.5 0
10708.5 0
10709.5 0
10710.5 0
10711.5 0
10712.5 0
10713.5 0
10714.5 0
10715.5 0
10716.5 0
10717.5 0
10718.5 0
10719.5 0
10720.5 0
10721.5 0
10722.5 0
10723.5 0
10724.5 0
10725.5 0
10726.5 0
10727.5 0
10728.5 0
10729.5 0
10730.5 0
10731.5 0
10732.5 0
10733.5 0
10734.5 0
10735.5 0
10736.5 0
10737.5 0
10738.5 0
10739.5 0
10740.5 0
10741.5 0
10742.5 0
10743.5 0
10744.5 0
10745.5 0
10746.5 0
10747.5 0
10748.5 0
10749.5 0
10750.5 0
10751.5 0
10752.5 0
10753.5 0
10754.5 -0.857143
10755.5 0
10756.5 0
10757.5 0
10758.5 0
10759.5 0
10760.5 0
10761.5 0
10762.5 0
10763.5 0
10764.5 0
10765.5 0
10766.5 0
10767.5 0
10768.5 0
10769.5 0
10770.5 0
10771.5 0
10772.5 0
10773.5 0
10774.5 0
10775.5 0
10776.5 0
10777.5 0
10778.5 0
10779.5 0
10780.5 0
10781.5 0
10782.5 0
10783.5 0
10784.5 0
10785.5 0
10786.5 0
10787.5 0
10788.5 0
10789.5 0
10790.5 0
10791.5 0
10792.5 0
10793.5 0
10794.5 0
10795.5 0
10796.5 0
10797.5 0
10798.5 0
10799.5 0
10800.5 0
10801.5 0
10802.5 0
10803.5 0
10804.5 0
10805.5 0
10806.5 0
10807.5 0
10808.5 0
10809.5 0
10810.5 0
10811.5 0
10812.5 0
10813.5 0
10814.5 0
10815.5 0
10816.5 0
10817.5 0
10818.5 0
10819.5 0
10820.5 0
10821.5 0
10822.5 0
10823.5 0
10824.5 0
10825.5 0
10826.5 0
10827.5 0
10828.5 0
10829.5 0
10830.5 0
10831.5 0
10832.5 0
10833.5 0
10834.5 0
10835.5 0
10836.5 0
10837.5 0
10838.5 0
10839.5 0
10840.5 0
10841.5 0
10842.5 0
10843.5 0
10844.5 0
10845.5 0
10846.5 0
10847.5 0
10848.5 0
10849.5 0
10850.5 0
10851.5 0
10852.5 0
10853.5 0
10854.5 0
10855.5 0
10856.5 0
10857.5 0
10858.5 0
10859.5 0
10860.5 0
10861.5 0
10862.5 0
10863.5 0
10864.5 0
10865.5 0
10866.5 0
10867.5 0
10868.5 0
10869.5 0
10870.5 0
10871.5 0
10872.5 0
10873.5 0
10874.5 0
10875.5 0
10876.5 0
10877.5 0
10878.5 0
10879.5 0
10880.5 0
10881.5 0
10882.5 0
10883.5 0
10884.5 0
10885.5 0
10886.5 0
10887.5 0
10888.5 0
10889.5 0
10890.5 0
10891.5 0
10892.5 0
10893.5 0
10894.5 0
10895.5 0
10896.5 0
10897.5 0
10898.5 0
10899.5 0
10900.5 0
10901.5 0
10902.5 0
10903.5 0
10904.5 0
10905.5 0
10906.5 0
10907.5 0
10908.5 0
10909.5 0
10910.5 0
10911.5 0
10912.5 0
10913.5 0
10914.5 0
10915.5 0
10916.5 0
10917.5 0
10918.5 0
10919.5 0
10920.5 0
10921.5 0
10922.5 0
10923.5 0
10924.5 0
10925.5 0
10926.5 0
10927.5 0
10928.5 0
10929.5 0
10930.5 0
10931.5 0
10932.5 0
10933.5 0
10934.5 0
10935.5 0
10936.5 0
10937.5 0
10938.5 0
10939.5 0
10940.5 0
10941.5 0
10942.5 0
10943.5 0
10944.5 0
10945.5 0
10946.5 0
10947.5 0
10948.5 0
10949.5 0
10950.5 0
10951.5 0
10952.5 0
10953.5 0
10954.5 0
10955.5 0
10956.5 0
10957.5 0
10958.5 0
10959.5 0
10960.5 0
10961.5 0
10962.5 0
10963.5 0
10964.5 0
10965.5 0
10966.5 0
10967.5 0
10968.5 0
10969.5 0
10970.5 0
10971.5 0
10972.5 0
10973.5 0
10974.5 0
10975.5 0
10976.5 0
10977.5 0
10978.5 0
10979.5 0
10980.5 0
10981.5 0
10982.5 0
10983.5 0
10984.5 0
10985.5 0
10986.5 0
10987.5 0
10988.5 0
10989.5 0
10990.5 0
10991.5 0
10992.5 0
10993.5 0
10994.5 0
10995.5 0
10996.5 0
10997.5 0
10998.5 0
10999.5 0
11000.5 0
11001.5 0
11002.5 0
11003.5 0
11004.5 0
11005.5 0
11006.5 0
11007.5 0
11008.5 0
11009.5 0
11010.5 0
11011.5 0
11012.5 0
11013.5 0
11014.5 0
11015.5 0
11016.5 0
11017.5 0
11018.5 0
11019.5 0
11020.5 0
11021.5 0
11022.5 0
11023.5 0
11024.5 0
11025.5 0
11026.5 0
11027.5 0
11028.5 0
11029.5 0
11030.5 0
11031.5 0
11032.5 0
11033.5 0
11034.5 0
11035.5 0
11036.5 0
11037.5 0
11038.5 0
11039.5 0
11040.5 0
11041.5 0
11042.5 0
11043.5 0
11044.5 0
11045.5 0
11046.5 0
11047.5 0
11048.5 0
11049.5 0
11050.5 0
11051.5 0
11052.5 0
11053.5 0
11054.5 0
11055.5 0
11056.5 0
11057.5 0
11058.5 0
11059.5 0
11060.5 0
11061.5 0
11062.5 0
11063.5 0
11064.5 0
11065.5 0
11066.5 0
11067.5 0
11068.5 0
11069.5 0
11070.5 0
11071.5 0
11072.5 0
11073.5 0
11074.5 0
11075.5 0
11076.5 0
11077.5 0
11078.5 0
11079.5 0
11080.5 0
11081.5 0
11082.5 0
11083.5 0
11084.5 0
11085.5 0
11086.5 0
11087.5 0
11088.5 0
11089.5 0
11090.5 0
11091.5 0
11092.5 0
11093.5 0
11094.5 0
11095.5 0
11096.5 0
11097.5 0
11098.5 0
11099.5 0
11100.5 0
11101.5 0
11102.5 0
11103.5 0
11104.5 0
11105.5 0
11106.5 0
11107.5 0
11108.5 0
11109.5 0
11110.5 0
11111.5 0
11112.5 0
11113.5 0
11114.5 0
11115.5 0
11116.5 0
11117.5 0
11118.5 0
11119.5 0
11120.5 0
11121.5 0
11122.5 0
11123.5 0
11124.5 0
11125.5 0
11126.5 0
11127.5 0
11128.5 0
11129.5 0
11130.5 0
11131.5 0
11132.5 0
11133.5 0
11134.5 0
11135.5 0
11136.5 0
11137.5 0
11138.5 0
11139.5 0
11140.5 0
11141.5 0
11142.5 0
11143.5 0
11144.5 0
11145.5 0
11146.5 0
11147.5 0
11148.5 0
11149.5 0
11150.5 1
11151.5 0
11152.5 0
11153.5 0
11154.5 0
11155.5 0
11156.5 0
11157.5 0
11158.5 0
11159.5 0
11160.5 0
11161.5 0
11162.5 0
11163.5 0
11164.5 0
11165.5 0
11166.5 0
11167.5 0
11168.5 0
11169.5 0
11170.5 0
11171.5 0
11172.5 0
11173.5 0
11174.5 0
11175.5 0
11176.5 0
11177.5 0
11178.5 0
11179.5 0
11180.5 0
11181.5 0
11182.5 0
11183.5 0
11184.5 0
11185.5 0
11186.5 0
11187.5 0
11188.5 0
11189.5 0
11190.5 0
11191.5 0
11192.5 0
11193.5 0
11194.5 0
11195.5 0
11196.5 0
11197.5 0
11198.5 0
11199.5 0
11200.5 0
11201.5 0
11202.5 0
11203.5 0
11204.5 0
11205.5 0
11206.5 0
11207.5 0
11208.5 0
11209.5 0
11210.5 0
11211.5 0
11212.5 0
11213.5 0
11214.5 0
11215.5 0
11216.5 0
11217.5 0
11218.5 0
11219.5 0
11220.5 0
11221.5 0
11222.5 0
11223.5 0
11224.5 0
11225.5 0
11226.5 0
11227.5 0
11228.5 0
11229.5 0
11230.5 0
11231.5 0
11232.5 0
11233.5 0
11234.5 0
11235.5 0
11236.5 0
11237.5 0
11238.5 0
11239.5 0
11240.5 0
11241.5 0
11242.5 0
11243.5 0
11244.5 0
11245.5 0
11246.5 0
11247.5 0
11248.5 0
11249.5 0
11250.5 0
11251.5 0
11252.5 0
11253.5 0
11254.5 0
11255.5 0
11256.5 0
11257.5 0
11258.5 0
11259.5 0
11260.5 0
11261.5 0
11262.5 0
11263.5 0
11264.5 0
11265.5 0
11266.5 0
11267.5 0
11268.5 0
11269.5 0
11270.5 0
11271.5 0
11272.5 0
11273.5 0
11274.5 0
11275.5 0
11276.5 0
11277.5 0
11278.5 0
11279.5 0
11280.5 0
11281.5 0
11282.5 0
11283.5 0
11284.5 0
11285.5 0
11286.5 0
11287.5 0
11288.5 0
11289.5 0
11290.5 0
11291.5 0
11292.5 0
11293.5 0
11294.5 0
11295.5 0
11296.5 0
11297.5 0
11298.5 0
11299.5 0
11300.5 0
11301.5 0
11302.5 0
11303.5 0
11304.5 0
11305.5 0
11306.5 0
11307.5 0
11308.5 0
11309.5 0
11310.5 0
11311.5 0
11312.5 0
11313.5 0
11314.5 0
11315.5 0
11316.5 0
11317.5 0
11318.5 0
11319.5 0
11320.5 0
11321.5 0
11322.5 0
11323.5 0
11324.5 0
11325.5 0
11326.5 0
11327.5 0
11328.5 0
11329.5 0
11330.5 0
11331.5 -0.857143
11332.5 -0.857143
11333.5 0
11334.5 0
11335.5 0
11336.5 0
11337.5 0
11338.5 0
11339.5 0
11340.5 0
11341.5 0
11342.5 0
11343.5 0
11344.5 0
11345.5 0
11346.5 0
11347.5 0
11348.5 0
11349.5 0
11350.5 0
11351.5 0
11352.5 0
11353.5 0
11354.5 0
11355.5 0
11356.5 0
11357.5 0
11358.5 0
11359.5 0
11360.5 0
11361.5 0
11362.5 0
11363.5 0
11364.5 0
11365.5 0
11366.5 0
11367.5 0
11368.5 0
11369.5 0
11370.5 0
11371.5 0
11372.5 0
11373.5 0
11374.5 0
11375.5 0
11376.5 0
11377.5 0
11378.5 0
11379.5 0
11380.5 0
11381.5 0
11382.5 0
11383.5 0
11384.5 0
11385.5 0
11386.5 0
11387.5 0
11388.5 0
11389.5 0
11390.5 0
11391.5 0
11392.5 0
11393.5 0
11394.5 0
11395.5 0
11396.5 0
11397.5 0
11398.5 0
11399.5 0
11400.5 0
11401.5 1
11402.5 0
11403.5 0
11404.5 0
11405.5 0
11406.5 0
11407.5 0
11408.5 0
11409.5 0
11410.5 0
11411.5 0
11412.5 0
11413.5 0
11414.5 0
11415.5 0
11416.5 0
11417.5 0
11418.5 0
11419.5 0
11420.5 0
11421.5 0
11422.5 0
11423.5 0
11424.5 0
11425.5 0
11426.5 0
11427.5 0
11428.5 0
11429.5 0
11430.5 0
11431.5 0
11432.5 0
11433.5 0
11434.5 0
11435.5 0
11436.5 0
11437.5 0
11438.5 0
11439.5 0
11440.5 0
11441.5 0
11442.5 0
11443.5 0
11444.5 0
11445.5 0
11446.5 0
11447.5 0
11448.5 0
11449.5 0
11450.5 0
11451.5 0
11452.5 0
11453.5 0
11454.5 0
11455.5 0
11456.5 0
11457.5 0
11458.5 0
11459.5 0
11460.5 0
11461.5 0
11462.5 0
11463.5 0
11464.5 0
11465.5 0
11466.5 0
11467.5 0
11468.5 0
11469.5 0
11470.5 0
11471.5 0
11472.5 0
11473.5 0
11474.5 0
11475.5 0
11476.5 0
11477.5 0
11478.5 0
11479.5 0
11480.5 0
11481.5 0
11482.5 0
11483.5 0
11484.5 0
11485.5 0
11486.5 0
11487.5 0
11488.5 0
11489.5 0
11490.5 0
11491.5 0
11492.5 0
11493.5 0
11494.5 0
11495.5 0
11496.5 0
11497.5 0
11498.5 0
11499.5 0
11500.5 0
11501.5 0
11502.5 0
11503.5 0
11504.5 0
11505.5 0
11506.5 0
11507.5 0
11508.5 0
11509.5 0
11510.5 0
11511.5 0
11512.5 0
11513.5 0
11514.5 0
11515.5 0
11516.5 0
11517.5 0
11518.5 0
11519.5 0
11520.5 0
11521.5 0
11522.5 0
11523.5 1
11524.5 0
11525.5 0
11526.5 0
11527.5 0
11528.5 0
11529.5 0
11530.5 0
11531.5 0
11532.5 0
11533.5 0
11534.5 0
11535.5 0
11536.5 0
11537.5 0
11538.5 0
11539.5 0
11540.5 0
11541.5 0
11542.5 0
11543.5 0
11544.5 0
11545.5 0
11546.5 0
11547.5 0
11548.5 0
11549.5 0
11550.5 0
11551.5 0
11552.5 0
11553.5 0
11554.5 0
11555.5 0
11556.5 0
11557.5 0
11558.5 0
11559.5 0
11560.5 0
11561.5 0
11562.5 0
11563.5 0
11564.5 0
11565.5 0
11566.5 0
11567.5 0
11568.5 0
11569.5 0
11570.5 0
11571.5 0
11572.5 0
11573.5 0
11574.5 0
11575.5 0
11576.5 0
11577.5 0
11578.5 0
11579.5 0
11580.5 0
11581.5 0
11582.5 0
11583.5 0
11584.5 0
11585.5 0
11586.5 0
11587.5 0
11588.5 0
11589.5 0
11590.5 0
11591.5 0
11592.5 0
11593.5 0
11594.5 0
11595.5 0
11596.5 0
11597.5 0
11598.5 0
11599.5 0
11600.5 0
11601.5 0
11602.5 0
11603.5 0
11604.5 0
11605.5 0
11606.5 0
11607.5 0
11608.5 0
11609.5 0
11610.5 0
11611.5 0
11612.5 0
11613.5 0
11614.5 0
11615.5 0
11616.5 0
11617.5 0
11618.5 0
11619.5 0
11620.5 0
11621.5 0
11622.5 0
11623.5 0
11624.5 0
11625.5 0
11626.5 0
11627.5 0
11628.5 0
11629.5 0
11630.5 0
11631.5 0
11632.5 0
11633.5 0
11634.5 0
11635.5 0
11636.5 0
11637.5 0
11638.5 0
11639.5 0
11640.5 0
11641.5 0
11642.5 0
11643.5 0
11644.5 0
11645.5 0
11646.5 0
11647.5 0
11648.5 0
11649.5 0
11650.5 0
11651.5 0
11652.5 0
11653.5 0
11654.5 0
11655.5 0
11656.5 0
11657.5 0
11658.5 0
11659.5 0
11660.5 0
11661.5 0
11662.5 0
11663.5 0
11664.5 0
11665.5 0
11666.5 0
11667.5 0
11668.5 0
11669.5 0
11670.5 0
11671.5 0
11672.5 0
11673.5 0
11674.5 0
11675.5 0
11676.5 0
11677.5 0
11678.5 0
11679.5 0
11680.5 0
11681.5 0
11682.5 0
11683.5 0
11684.5 0
11685.5 0
11686.5 0
11687.5 0
11688.5 0
11689.5 0
11690.5 0
11691.5 0
11692.5 0
11693.5 0
11694.5 0
11695.5 0
11696.5 0
11697.5 0
11698.5 0
11699.5 0
11700.5 0
11701.5 0
11702.5 0
11703.5 0
11704.5 0
11705.5 0
11706.5 0
11707.5 0
11708.5 0
11709.5 0
11710.5 0
11711.5 0
11712.5 0
11713.5 0
11714.5 0
11715.5 0
11716.5 0
11717.5 0
11718.5 0
11719.5 0
11720.5 0
11721.5 0
11722.5 0
11723.5 0
11724.5 0
11725.5 0
11726.5 0
11727.5 0
11728.5 0
11729.5 0
11730.5 0
11731.5 0
11732.5 0
11733.5 0
11734.5 0
11735.5 0
11736.5 0
11737.5 0
11738.5 0
11739.5 0
11740.5 0
11741.5 0
11742.5 0
11743.5 0
11744.5 0
11745.5 0
11746.5 0
11747.5 0
11748.5 0
11749.5 0
11750.5 0
11751.5 0
11752.5 0
11753.5 0
11754.5 0
11755.5 0
11756.5 0
11757.5 0
11758.5 0
11759.5 0
11760.5 0
11761.5 0
11762.5 0
11763.5 0
11764.5 0
11765.5 0
11766.5 0
11767.5 0
11768.5 0
11769.5 0
11770.5 0
11771.5 0
11772.5 0
11773.5 0
11774.5 0
11775.5 0
11776.5 0
11777.5 0
11778.5 0
11779.5 0
11780.5 0
11781.5 0
11782.5 0
11783.5 0
11784.5 0
11785.5 0
11786.5 0
11787.5 0
11788.5 0
11789.5 0
11790.5 0
11791.5 0
11792.5 0
11793.5 0
11794.5 0
11795.5 0
11796.5 0
11797.5 0
11798.5 0
11799.5 0
11800.5 0
11801.5 0
11802.5 0
11803.5 0
11804.5 0
11805.5 0
11806.5 0
11807.5 0
11808.5 0
11809.5 0
11810.5 0
11811.5 0
11812.5 0
11813.5 0
11814.5 0
11815.5 0
11816.5 0
11817.5 0
11818.5 0
11819.5 0
11820.5 0
11821.5 0
11822.5 0
11823.5 0
11824.5 0
11825.5 0
11826.5 0
11827.5 0
11828.5 0
11829.5 0
11830.5 0
11831.5 0
11832.5 0
11833.5 0
11834.5 0
11835.5 0
11836.5 0
11837.5 0
11838.5 0
11839.5 0
11840.5 0
11841.5 0
11842.5 0
11843.5 0
11844.5 0
11845.5 0
11846.5 0
11847.5 0
11848.5 0
11849.5 0
11850.5 0
11851.5 0
11852.5 0
11853.5 0
11854.5 0
11855.5 0
11856.5 0
11857.5 0
11858.5 0
11859.5 0
11860.5 0
11861.5 0
11862.5 0
11863.5 0
11864.5 0
11865.5 0
11866.5 0
11867.5 0
11868.5 0
11869.5 0
11870.5 0
11871.5 0
11872.5 0
11873.5 0
11874.5 0
11875.5 0
11876.5 0
11877.5 0
11878.5 0
11879.5 0
11880.5 0
11881.5 0
11882.5 0
11883.5 0
11884.5 0
11885.5 0
11886.5 0
11887.5 0
11888.5 0
11889.5 0
11890.5 0
11891.5 0
11892.5 0
11893.5 0
11894.5 0
11895.5 0
11896.5 0
11897.5 0
11898.5 0
11899.5 0
11900.5 0
11901.5 0
11902.5 0
11903.5 0
11904.5 0
11905.5 0
11906.5 0
11907.5 0
11908.5 0
11909.5 0
11910.5 0
11911.5 0
11912.5 0
11913.5 0
11914.5 0
11915.5 0
11916.5 0
11917.5 0
11918.5 0
11919.5 0
11920.5 0
11921.5 0
11922.5 0
11923.5 0
11924.5 0
11925.5 1
11926.5 0
11927.5 0
11928.5 0
11929.5 0
11930.5 0
11931.5 0
11932.5 0
11933.5 0
11934.5 0
11935.5 0
11936.5 0
11937.5 0
11938.5 0
11939.5 0
11940.5 0
11941.5 0
11942.5 0
11943.5 0
11944.5 0
11945.5 0
11946.5 0
11947.5 0
11948.5 0
11949.5 0
11950.5 0
11951.5 0
11952.5 0
11953.5 0
11954.5 0
11955.5 0
11956.5 0
11957.5 0
11958.5 0
11959.5 0
11960.5 0
11961.5 0
11962.5 0
11963.5 0
11964.5 0
11965.5 0
11966.5 0
11967.5 0
11968.5 0
11969.5 0
11970.5 0
11971.5 0
11972.5 0
11973.5 0
11974.5 0
11975.5 0
11976.5 0
11977.5 0
11978.5 0
11979.5 0
11980.5 0
11981.5 0
11982.5 0
11983.5 0
11984.5 0
11985.5 0
11986.5 0
11987.5 0
11988.5 0
11989.5 0
11990.5 0
11991.5 0
11992.5 0
11993.5 0
11994.5 0
11995.5 0
11996.5 0
11997.5 0
11998.5 0
11999.5 0
