# EGG_ProjY_E4657.0(5.0)_B4670.5(1.5)_B4591.0(2.0)
# X axis : Energy (keV) [Y axis]
# Y axis : Counts/1 keV
# N Bins : 12000
# X Min : 0
# X Max : 12000
# X value at the center of the bins
0.5 0
1.5 0
2.5 0
3.5 0
4.5 0
5.5 20.7143
6.5 17.4286
7.5 10.1429
8.5 2.42857
9.5 11.5714
10.5 29.7143
11.5 35
12.5 25
13.5 19
14.5 23
15.5 18.1429
16.5 -29.1429
17.5 41.8571
18.5 77.7143
19.5 23.5714
20.5 81.8571
21.5 16.7143
22.5 28.7143
23.5 55.7143
24.5 -24.5714
25.5 81.1428
26.5 143.286
27.5 69.8571
28.5 68.8571
29.5 294.429
30.5 416.429
31.5 349.571
32.5 242.143
33.5 164.143
34.5 168.143
35.5 182
36.5 151.143
37.5 123.286
38.5 341.857
39.5 158.143
40.5 156
41.5 193.143
42.5 18.2857
43.5 35
44.5 164.857
45.5 82
46.5 136.714
47.5 233.571
48.5 160.714
49.5 134.714
50.5 149.143
51.5 161.714
52.5 163.857
53.5 155.571
54.5 364.286
55.5 256.714
56.5 206.429
57.5 193.429
58.5 250.714
59.5 291
60.5 314.714
61.5 192.857
62.5 176.429
63.5 113.714
64.5 196
65.5 221.857
66.5 301
67.5 207.571
68.5 140.714
69.5 255.143
70.5 182.286
71.5 285.714
72.5 208
73.5 387.286
74.5 398.143
75.5 354.143
76.5 587.571
77.5 507.857
78.5 256
79.5 86.1428
80.5 238.571
81.5 185.286
82.5 158.143
83.5 168.571
84.5 104
85.5 360.714
86.5 269
87.5 219.571
88.5 312.143
89.5 232.286
90.5 211
91.5 203
92.5 300
93.5 290.286
94.5 190.429
95.5 289.429
96.5 340.429
97.5 202.857
98.5 310.429
99.5 160.714
100.5 353.429
101.5 212.429
102.5 269.429
103.5 127
104.5 248
105.5 246.571
106.5 337.857
107.5 353.857
108.5 386.714
109.5 281.286
110.5 265.571
111.5 161.143
112.5 239.714
113.5 280.571
114.5 291.429
115.5 321.143
116.5 369.571
117.5 315
118.5 137.429
119.5 163.286
120.5 365.286
121.5 444.857
122.5 141.286
123.5 341.143
124.5 298.571
125.5 295.143
126.5 163
127.5 253.429
128.5 314.286
129.5 287.714
130.5 214.714
131.5 198.857
132.5 348.571
133.5 32.4285
134.5 173.429
135.5 163.429
136.5 282.571
137.5 270.286
138.5 180.286
139.5 265
140.5 235.286
141.5 74.8571
142.5 309.714
143.5 275.857
144.5 278
145.5 334.286
146.5 381.714
147.5 365.429
148.5 486.571
149.5 516.286
150.5 278.857
151.5 365.143
152.5 399.571
153.5 326
154.5 442.714
155.5 332
156.5 309.857
157.5 229.286
158.5 312.571
159.5 191
160.5 263.571
161.5 204.286
162.5 185.286
163.5 315.429
164.5 146.714
165.5 432.429
166.5 227.429
167.5 300.286
168.5 50.1428
169.5 109.143
170.5 86.8571
171.5 391.571
172.5 790.571
173.5 3268.29
174.5 6455.86
175.5 2876.29
176.5 547
177.5 286.286
178.5 317.571
179.5 467.571
180.5 477
181.5 523.286
182.5 627.143
183.5 779.857
184.5 706.857
185.5 593.571
186.5 689.857
187.5 751
188.5 623.286
189.5 552.857
190.5 420.429
191.5 520.571
192.5 418.571
193.5 304.143
194.5 247.143
195.5 293.571
196.5 260.286
197.5 248.714
198.5 199.286
199.5 78.8571
200.5 210.714
201.5 157.714
202.5 125.571
203.5 60.7142
204.5 183.429
205.5 243.429
206.5 239.286
207.5 182.714
208.5 -21.0001
209.5 9.85707
210.5 -83.1429
211.5 -87.8572
212.5 -341.572
213.5 -329.286
214.5 -248
215.5 -84.8572
216.5 28.7142
217.5 36.7142
218.5 199
219.5 296.143
220.5 204.286
221.5 551.429
222.5 530.714
223.5 539.429
224.5 519.429
225.5 813.571
226.5 852.857
227.5 778.286
228.5 711.571
229.5 783.286
230.5 614.571
231.5 472.143
232.5 486.714
233.5 413.429
234.5 470.714
235.5 345
236.5 251.571
237.5 274.714
238.5 265.571
239.5 106
240.5 238.429
241.5 248
242.5 276.143
243.5 235.429
244.5 153.857
245.5 190.857
246.5 108.571
247.5 -96.0001
248.5 137.143
249.5 -123.286
250.5 -18.1429
251.5 -103.143
252.5 -61.1429
253.5 132.857
254.5 4.71423
255.5 193.286
256.5 309.429
257.5 339.286
258.5 334.429
259.5 317.714
260.5 442.571
261.5 380
262.5 343
263.5 320.286
264.5 274
265.5 371.571
266.5 175.571
267.5 107
268.5 271.714
269.5 144.143
270.5 174.286
271.5 51.1428
272.5 -51.8572
273.5 134.429
274.5 26.1428
275.5 90.8571
276.5 127.714
277.5 83.8571
278.5 175.714
279.5 149.429
280.5 124.571
281.5 258.571
282.5 256.857
283.5 322.571
284.5 375.143
285.5 362.571
286.5 292.857
287.5 247.286
288.5 213
289.5 91.4285
290.5 119
291.5 74.4285
292.5 -27.1429
293.5 -196.857
294.5 -91.8572
295.5 -216.714
296.5 -11.4286
297.5 102.714
298.5 49.8571
299.5 107.429
300.5 158.714
301.5 168.143
302.5 207.857
303.5 252.714
304.5 160.143
305.5 293.571
306.5 138.714
307.5 63.1428
308.5 198.429
309.5 26.8571
310.5 -39.4286
311.5 -33.1429
312.5 45
313.5 17.1428
314.5 217.429
315.5 230.714
316.5 268.143
317.5 236.429
318.5 275.286
319.5 468.286
320.5 245.286
321.5 422
322.5 427.857
323.5 476.429
324.5 474.286
325.5 435.286
326.5 107.714
327.5 225.714
328.5 257.143
329.5 16.5714
330.5 4.8571
331.5 74.1428
332.5 47.4285
333.5 19
334.5 99
335.5 103
336.5 66.7142
337.5 142.714
338.5 169.857
339.5 197.286
340.5 227.286
341.5 280.571
342.5 320.714
343.5 270.286
344.5 313.714
345.5 265.571
346.5 296.571
347.5 475.571
348.5 1049.71
349.5 1495.14
350.5 760.571
351.5 165
352.5 56.1428
353.5 65.7142
354.5 23.8571
355.5 68.1428
356.5 65
357.5 207.286
358.5 -15.8572
359.5 57.7143
360.5 62.4285
361.5 26.4285
362.5 -59.8572
363.5 1.71425
364.5 104.857
365.5 187.714
366.5 96.1428
367.5 196.571
368.5 324.857
369.5 181.714
370.5 325.571
371.5 222
372.5 241.571
373.5 232.714
374.5 226
375.5 256.571
376.5 243.143
377.5 244.429
378.5 156.714
379.5 229.143
380.5 182
381.5 181.857
382.5 223.714
383.5 138.286
384.5 165.571
385.5 113.286
386.5 107.143
387.5 112.429
388.5 -37
389.5 -83
390.5 -40.2857
391.5 -37.2857
392.5 -149.857
393.5 -33.1429
394.5 -24.7143
395.5 150
396.5 -54.5715
397.5 80.7143
398.5 52.8571
399.5 80
400.5 101.714
401.5 130.571
402.5 7.42853
403.5 92.1428
404.5 66.5714
405.5 101.714
406.5 70.1428
407.5 164.286
408.5 102.857
409.5 166.857
410.5 50
411.5 -22.1429
412.5 21
413.5 30.2857
414.5 166.714
415.5 72.8571
416.5 86.4285
417.5 63.8571
418.5 -55.8572
419.5 94.7143
420.5 80.1428
421.5 31.1428
422.5 51.4285
423.5 33.7143
424.5 63.2857
425.5 93.4285
426.5 148.714
427.5 206.714
428.5 131.857
429.5 44.1428
430.5 195.857
431.5 117.714
432.5 153.857
433.5 113.714
434.5 72.8571
435.5 90.4285
436.5 116.857
437.5 110.571
438.5 111.429
439.5 20.1428
440.5 96.8571
441.5 32.2857
442.5 77.4285
443.5 -15.5715
444.5 37.7143
445.5 -56.8572
446.5 33.5714
447.5 76.5714
448.5 50
449.5 125.714
450.5 100.286
451.5 48.5714
452.5 85.5714
453.5 7.85712
454.5 126.857
455.5 139.429
456.5 132
457.5 62.8571
458.5 60.5714
459.5 167.571
460.5 103.429
461.5 49.4285
462.5 33.7143
463.5 37
464.5 206
465.5 230.286
466.5 87.5714
467.5 72.8571
468.5 86.1428
469.5 87.1428
470.5 129.714
471.5 48.1428
472.5 37.5714
473.5 158.429
474.5 209.571
475.5 -43.2857
476.5 119.857
477.5 246.571
478.5 153.714
479.5 162.429
480.5 92.4285
481.5 201.714
482.5 156.714
483.5 128.857
484.5 198.857
485.5 141
486.5 123.714
487.5 -6.71431
488.5 124.143
489.5 48.8571
490.5 82.2857
491.5 24.2857
492.5 67.2857
493.5 28.4285
494.5 -3.57145
495.5 43.4285
496.5 43.1428
497.5 60
498.5 69.8571
499.5 -12.2857
500.5 46.8571
501.5 169.857
502.5 154
503.5 54.8571
504.5 226.429
505.5 398
506.5 585.714
507.5 820.286
508.5 1126.14
509.5 2045.57
510.5 2821.57
511.5 2251.71
512.5 1385.57
513.5 544.143
514.5 229
515.5 130
516.5 16
517.5 63.4285
518.5 -2.71431
519.5 65.7143
520.5 13
521.5 55.4286
522.5 25.4286
523.5 9.14284
524.5 18.1428
525.5 52.1428
526.5 65.5714
527.5 19.4286
528.5 107
529.5 33.4286
530.5 116.571
531.5 -25.7143
532.5 139.143
533.5 67.5714
534.5 96.8571
535.5 149.714
536.5 95.1428
537.5 22.5714
538.5 27
539.5 52.7143
540.5 56
541.5 85.1428
542.5 19.4286
543.5 90.5714
544.5 50.5714
545.5 -62.7143
546.5 23.4286
547.5 25.5714
548.5 72.7143
549.5 4.99998
550.5 67.2857
551.5 57.7143
552.5 74.7143
553.5 99.2857
554.5 72.1428
555.5 82.4286
556.5 8.14284
557.5 -18.4286
558.5 104.286
559.5 13.1428
560.5 32
561.5 109.857
562.5 66.2857
563.5 59.2857
564.5 151.143
565.5 52
566.5 -41.1429
567.5 83.4286
568.5 73.8571
569.5 94.1428
570.5 55.4286
571.5 39.8571
572.5 30.8571
573.5 56.8571
574.5 -22.1429
575.5 12.1428
576.5 96.4286
577.5 -17.4286
578.5 100.714
579.5 84.5714
580.5 139.286
581.5 104.429
582.5 39.1428
583.5 150
584.5 110
585.5 45.1428
586.5 65.7143
587.5 64.1428
588.5 40
589.5 43.2857
590.5 15.2857
591.5 -18.5714
592.5 -18.4286
593.5 11.1428
594.5 39.4286
595.5 82.8571
596.5 84.5714
597.5 34.8571
598.5 16.4286
599.5 25.4286
600.5 81.4286
601.5 93.1428
602.5 76.8571
603.5 -20.1429
604.5 57.1428
605.5 48.4286
606.5 81.7143
607.5 79.1428
608.5 61.1428
609.5 69.5714
610.5 110.143
611.5 40.8571
612.5 -7.00002
613.5 114.429
614.5 51.4286
615.5 106.286
616.5 65.7143
617.5 80.8571
618.5 84.2857
619.5 22.4286
620.5 73.7143
621.5 12.8571
622.5 -9.57144
623.5 35.4286
624.5 103.286
625.5 24.5714
626.5 57.1428
627.5 -19.1429
628.5 -3.71432
629.5 -8.85717
630.5 29.5714
631.5 12
632.5 123
633.5 49.2857
634.5 27.5714
635.5 26.8571
636.5 64.2857
637.5 17.4285
638.5 33
639.5 59.7143
640.5 88.8571
641.5 98.5714
642.5 93.7143
643.5 -1.7143
644.5 58.4286
645.5 -1.57145
646.5 72.5714
647.5 107
648.5 115
649.5 64
650.5 13
651.5 -22.8572
652.5 -13.8572
653.5 37
654.5 -54.4286
655.5 -4.57145
656.5 63.1428
657.5 63.8571
658.5 -8.57144
659.5 -18.1429
660.5 51.4286
661.5 -10.4286
662.5 65.8571
663.5 -15.5714
664.5 78.1428
665.5 -21.5715
666.5 51
667.5 40.2857
668.5 -31.1429
669.5 -25.4286
670.5 26.4286
671.5 12.7143
672.5 36
673.5 -60.4286
674.5 16.1428
675.5 16
676.5 36.1428
677.5 55.1428
678.5 28.4286
679.5 2.85713
680.5 -62.8572
681.5 -3.57144
682.5 14.2857
683.5 12.7143
684.5 -101.571
685.5 -7.00002
686.5 23.2857
687.5 -20.7143
688.5 42.8571
689.5 20.4286
690.5 178.429
691.5 146.429
692.5 139.714
693.5 153.429
694.5 153.571
695.5 156.571
696.5 125.286
697.5 185.571
698.5 159.143
699.5 98.5714
700.5 154.714
701.5 134.429
702.5 87
703.5 47.7143
704.5 48
705.5 15.1428
706.5 41.2857
707.5 49.2857
708.5 33.5714
709.5 6.2857
710.5 54.2857
711.5 -3.57144
712.5 -48.8572
713.5 77.5714
714.5 71
715.5 56.2857
716.5 35.4286
717.5 5.2857
718.5 13.5714
719.5 59.7143
720.5 1.85713
721.5 -35.7143
722.5 -18.2857
723.5 40
724.5 4.71427
725.5 -52.5714
726.5 -84.2857
727.5 -40.2857
728.5 9.14284
729.5 60.2857
730.5 55.5714
731.5 35.7143
732.5 119.429
733.5 168.286
734.5 97.7143
735.5 143.143
736.5 218
737.5 133
738.5 187.571
739.5 182
740.5 86.7143
741.5 144.143
742.5 121.143
743.5 148.286
744.5 88.7143
745.5 73.7143
746.5 -5.57144
747.5 15.2857
748.5 5.99999
749.5 40.1428
750.5 110.857
751.5 57.7143
752.5 82
753.5 98.2857
754.5 93.2857
755.5 46.7143
756.5 21.5714
757.5 7.2857
758.5 16.2857
759.5 84.1428
760.5 414.714
761.5 541
762.5 199.286
763.5 -50.8572
764.5 -34.7143
765.5 16.5714
766.5 -29.5714
767.5 7.71427
768.5 79.1428
769.5 4.2857
770.5 111.714
771.5 9.99999
772.5 -10.8572
773.5 -10.8572
774.5 47.4286
775.5 18.2857
776.5 43
777.5 46.8571
778.5 65.1428
779.5 29.2857
780.5 71.1428
781.5 -3.42858
782.5 16.5714
783.5 59.8571
784.5 -28.8572
785.5 -16.5714
786.5 16.2857
787.5 35.4286
788.5 -6.57145
789.5 -8.14287
790.5 -0.857157
791.5 99
792.5 67
793.5 -19.2857
794.5 25.5714
795.5 38.1428
796.5 10.7143
797.5 18.4286
798.5 -2.14287
799.5 -7.14287
800.5 -58.2857
801.5 -61.5714
802.5 -18
803.5 12
804.5 -68.7143
805.5 29
806.5 -23.8572
807.5 33.8571
808.5 59.8571
809.5 66.8571
810.5 85
811.5 107.429
812.5 306.429
813.5 647.143
814.5 866.143
815.5 503.286
816.5 146
817.5 -14.5714
818.5 76.8571
819.5 0.428558
820.5 21.8571
821.5 104.857
822.5 98.7143
823.5 29.7143
824.5 49.2857
825.5 78.2857
826.5 78.8571
827.5 50.5714
828.5 161.571
829.5 21
830.5 102
831.5 -11.8572
832.5 87.4286
833.5 142.143
834.5 26.1428
835.5 69.8571
836.5 38
837.5 99
838.5 -27.8572
839.5 36.2857
840.5 64.5714
841.5 1.85713
842.5 121.857
843.5 -60.1429
844.5 12.5714
845.5 11.4286
846.5 64.2857
847.5 1.85713
848.5 33.2857
849.5 101
850.5 34.1428
851.5 93.2857
852.5 3.42856
853.5 109.857
854.5 89
855.5 141.429
856.5 13.7143
857.5 42.5714
858.5 32
859.5 7.42856
860.5 20.7143
861.5 94.1428
862.5 61.2857
863.5 31.1428
864.5 41.1428
865.5 78.4286
866.5 44
867.5 45.1428
868.5 -7.4286
869.5 -65.2857
870.5 34.2857
871.5 69.7143
872.5 31.4286
873.5 80.4286
874.5 79.2857
875.5 58.8571
876.5 51.2857
877.5 127
878.5 103.571
879.5 29.7143
880.5 64.7143
881.5 145.857
882.5 33.1428
883.5 100.714
884.5 26.7143
885.5 95.8571
886.5 20
887.5 6.14284
888.5 78.2857
889.5 96
890.5 47.4286
891.5 70.5714
892.5 44.7143
893.5 4.71427
894.5 54
895.5 -3.85716
896.5 109.143
897.5 163.857
898.5 60.8571
899.5 71
900.5 84.5714
901.5 95.2857
902.5 56.2857
903.5 57
904.5 2.71427
905.5 15.8571
906.5 -5.57144
907.5 55.1428
908.5 69.7143
909.5 45.7143
910.5 78.5714
911.5 28.1428
912.5 0.857126
913.5 32.7143
914.5 34.5714
915.5 67.1428
916.5 49.2857
917.5 97.7143
918.5 19.4286
919.5 20.5714
920.5 -41.8572
921.5 7.14284
922.5 7.71427
923.5 95.5714
924.5 -58.8572
925.5 52.5714
926.5 -16.4286
927.5 110.714
928.5 77.2857
929.5 32.1428
930.5 15.4286
931.5 71.5714
932.5 37.4286
933.5 77.5714
934.5 112
935.5 27.8571
936.5 94.2857
937.5 56.2857
938.5 -30.8572
939.5 23.1428
940.5 75.1428
941.5 4.14284
942.5 23
943.5 56.2857
944.5 -77.1429
945.5 17.7143
946.5 72.8571
947.5 29.5714
948.5 60.5714
949.5 58.2857
950.5 -27.2857
951.5 26.7143
952.5 107.857
953.5 75.2857
954.5 161.714
955.5 54
956.5 98.5714
957.5 15.8571
958.5 -24.4286
959.5 41.8571
960.5 14.1428
961.5 29
962.5 -7.14287
963.5 10.2857
964.5 12.5714
965.5 -39.7143
966.5 90.4286
967.5 25
968.5 -27.7143
969.5 18.1428
970.5 -6.57144
971.5 7.71427
972.5 -21.5714
973.5 61.1428
974.5 39.1428
975.5 35.7143
976.5 87.2857
977.5 20.8571
978.5 3.71427
979.5 37.4286
980.5 18.2857
981.5 0.142843
982.5 -49.2857
983.5 -49.7143
984.5 -13.2857
985.5 26.4286
986.5 98.2857
987.5 -29.4286
988.5 -13.5714
989.5 6.85713
990.5 17.7143
991.5 9.2857
992.5 9.14285
993.5 34.5714
994.5 105.429
995.5 74.8571
996.5 21.5714
997.5 31.4286
998.5 62.4286
999.5 66
1000.5 57.2857
1001.5 -143.143
1002.5 15.2857
1003.5 97.5714
1004.5 18
1005.5 68.1428
1006.5 46.4286
1007.5 82.1428
1008.5 36.4286
1009.5 16
1010.5 54.1428
1011.5 6.85713
1012.5 43.2857
1013.5 -2.7143
1014.5 45
1015.5 -11.8572
1016.5 25
1017.5 52.1428
1018.5 -20.4286
1019.5 -18.7143
1020.5 38.4286
1021.5 51.8571
1022.5 -50.2857
1023.5 -5.42859
1024.5 35.8571
1025.5 61.8571
1026.5 17.7143
1027.5 5.71428
1028.5 61.5714
1029.5 13
1030.5 69.1428
1031.5 102.857
1032.5 -5.28572
1033.5 28
1034.5 -0.42858
1035.5 33.4286
1036.5 36
1037.5 15.2857
1038.5 -0.285722
1039.5 63.4286
1040.5 91.1428
1041.5 -5.85715
1042.5 19.5714
1043.5 41.5714
1044.5 -13.2857
1045.5 -3.85715
1046.5 61.1428
1047.5 24.7143
1048.5 65.7143
1049.5 -3.00001
1050.5 5.14285
1051.5 21.8571
1052.5 75.2857
1053.5 -28.1429
1054.5 35.8571
1055.5 -25.1429
1056.5 -1.7143
1057.5 31.8571
1058.5 50.7143
1059.5 73.1428
1060.5 32.4286
1061.5 -2.00001
1062.5 37.8571
1063.5 21.8571
1064.5 24.7143
1065.5 13.5714
1066.5 50.1428
1067.5 0.14285
1068.5 52.8571
1069.5 12.1428
1070.5 21.1428
1071.5 26.8571
1072.5 -61.5715
1073.5 23.2857
1074.5 319.429
1075.5 114.143
1076.5 -1.42859
1077.5 19.5714
1078.5 74.1429
1079.5 16.5714
1080.5 55.5714
1081.5 -5.42858
1082.5 63.8571
1083.5 -34.4286
1084.5 37
1085.5 41
1086.5 18.5714
1087.5 43.8571
1088.5 21
1089.5 28.1428
1090.5 33.8571
1091.5 16.8571
1092.5 7.57142
1093.5 51.5714
1094.5 70.8571
1095.5 32.1428
1096.5 45.5714
1097.5 -10.5714
1098.5 18.8571
1099.5 45.4286
1100.5 40.8571
1101.5 51.5714
1102.5 16
1103.5 41.2857
1104.5 40
1105.5 30.1429
1106.5 0.285707
1107.5 33.4286
1108.5 45
1109.5 40.1429
1110.5 23.8571
1111.5 38.1429
1112.5 40.4286
1113.5 53.2857
1114.5 42.1429
1115.5 51.5714
1116.5 105.571
1117.5 39.8571
1118.5 37.4286
1119.5 42.5714
1120.5 33.7143
1121.5 -14
1122.5 55.2857
1123.5 169.429
1124.5 140.143
1125.5 454
1126.5 807
1127.5 345.571
1128.5 71.8571
1129.5 29.1428
1130.5 9.71428
1131.5 24.7143
1132.5 45.1429
1133.5 25
1134.5 8.28571
1135.5 1.42857
1136.5 57.8571
1137.5 87.8571
1138.5 13.8571
1139.5 -45.8572
1140.5 -36
1141.5 -2.42858
1142.5 -11
1143.5 17.8571
1144.5 -62
1145.5 4.42857
1146.5 32.2857
1147.5 19.5714
1148.5 23.1429
1149.5 41.5714
1150.5 46.7143
1151.5 40.1429
1152.5 60.5714
1153.5 154.571
1154.5 166.571
1155.5 647
1156.5 2160.29
1157.5 1665.71
1158.5 719.143
1159.5 113.571
1160.5 -7.14287
1161.5 65.5714
1162.5 -13.1429
1163.5 -6.14286
1164.5 -23.4286
1165.5 1.57142
1166.5 -26.5714
1167.5 5.71428
1168.5 -2.85715
1169.5 42.1429
1170.5 36.1429
1171.5 6
1172.5 32.1429
1173.5 -55.5714
1174.5 27.7143
1175.5 29.2857
1176.5 60
1177.5 19.1429
1178.5 26
1179.5 19.4286
1180.5 -12.8571
1181.5 61
1182.5 -20.4286
1183.5 -3.42858
1184.5 -19.8571
1185.5 11.7143
1186.5 52
1187.5 -5.57143
1188.5 15.4286
1189.5 -1
1190.5 44.5714
1191.5 40.8571
1192.5 20.1429
1193.5 17.7143
1194.5 53.8571
1195.5 17.7143
1196.5 11.8571
1197.5 23.5714
1198.5 19.5714
1199.5 -20.8571
1200.5 -6.42858
1201.5 9.28571
1202.5 30.4286
1203.5 29.5714
1204.5 32.7143
1205.5 -24.4286
1206.5 44.8571
1207.5 37.1429
1208.5 -19.7143
1209.5 12.5714
1210.5 9.42857
1211.5 36.2857
1212.5 -12.2857
1213.5 27.4286
1214.5 10.1429
1215.5 35.4286
1216.5 15.1429
1217.5 9.85714
1218.5 8.85714
1219.5 -21.5714
1220.5 35.1429
1221.5 4.28571
1222.5 -5.00001
1223.5 9.28571
1224.5 14.2857
1225.5 -12.8571
1226.5 -22.2857
1227.5 27.1429
1228.5 -9.42858
1229.5 -14.2857
1230.5 -48.1429
1231.5 44.2857
1232.5 4.42857
1233.5 25.1429
1234.5 40.8571
1235.5 70.8571
1236.5 38.4286
1237.5 29.8571
1238.5 33.2857
1239.5 89.5714
1240.5 58.1429
1241.5 88
1242.5 10.1429
1243.5 54.1429
1244.5 24.4286
1245.5 40.1429
1246.5 80
1247.5 17.8571
1248.5 14.1429
1249.5 28.4286
1250.5 -13.1429
1251.5 12.4286
1252.5 39.8571
1253.5 11.4286
1254.5 15.2857
1255.5 42.2857
1256.5 38.4286
1257.5 88.5714
1258.5 115.714
1259.5 290.143
1260.5 402.857
1261.5 344.286
1262.5 109.857
1263.5 51.8571
1264.5 27.4286
1265.5 30.2857
1266.5 59
1267.5 41.1429
1268.5 13.4286
1269.5 32.2857
1270.5 8
1271.5 17.7143
1272.5 32.5714
1273.5 27.7143
1274.5 26.8571
1275.5 -9.57143
1276.5 31.1429
1277.5 22.2857
1278.5 1.71428
1279.5 21
1280.5 16.4286
1281.5 -16.4286
1282.5 -35.7143
1283.5 19.5714
1284.5 22.2857
1285.5 -2.57143
1286.5 12.1429
1287.5 21.1429
1288.5 17.1429
1289.5 33.7143
1290.5 29
1291.5 34.1429
1292.5 20.8571
1293.5 -0.428575
1294.5 -24.8571
1295.5 2.28571
1296.5 0.999996
1297.5 5.42857
1298.5 0.999996
1299.5 49.4286
1300.5 -22
1301.5 10.8571
1302.5 -3.28572
1303.5 22.2857
1304.5 -9.57143
1305.5 -52.5714
1306.5 -4.57143
1307.5 -7.42858
1308.5 -21.7143
1309.5 -35.5714
1310.5 -24.4286
1311.5 10.7143
1312.5 38.4286
1313.5 1.71428
1314.5 56.4286
1315.5 -3.42858
1316.5 -14.1429
1317.5 18.1429
1318.5 -26.5714
1319.5 -17.8571
1320.5 9.14285
1321.5 13.2857
1322.5 -12.5714
1323.5 20.1429
1324.5 -21.7143
1325.5 -28.1429
1326.5 2.42857
1327.5 -37.8571
1328.5 -59.4286
1329.5 -1.71429
1330.5 -14.8571
1331.5 21.5714
1332.5 -28.5714
1333.5 28.2857
1334.5 9
1335.5 5.71428
1336.5 -0.857146
1337.5 25.4286
1338.5 10.2857
1339.5 23.7143
1340.5 19.7143
1341.5 19.8571
1342.5 20.1429
1343.5 40
1344.5 10.8571
1345.5 22.5714
1346.5 13.8571
1347.5 0.571424
1348.5 -0.142861
1349.5 9.85714
1350.5 7
1351.5 8.85714
1352.5 19.5714
1353.5 43.7143
1354.5 -14.2857
1355.5 14.8571
1356.5 36
1357.5 29
1358.5 5.71428
1359.5 -9.71429
1360.5 57.7143
1361.5 12.1429
1362.5 9.28571
1363.5 43.4286
1364.5 -7.57143
1365.5 9.57142
1366.5 32.2857
1367.5 36.7143
1368.5 49
1369.5 12.1429
1370.5 2.14285
1371.5 49.5714
1372.5 31.5714
1373.5 20.4286
1374.5 40.1429
1375.5 40.4286
1376.5 40.7143
1377.5 6.57142
1378.5 5.71428
1379.5 -13.7143
1380.5 39.7143
1381.5 -3.14286
1382.5 45.4286
1383.5 7.71428
1384.5 -1.28572
1385.5 22.7143
1386.5 25.7143
1387.5 20.4286
1388.5 2.28571
1389.5 56.8571
1390.5 1.85714
1391.5 22.8571
1392.5 26
1393.5 9.42857
1394.5 -8.57143
1395.5 9.14285
1396.5 18.5714
1397.5 27.2857
1398.5 44.4286
1399.5 26.8571
1400.5 41.2857
1401.5 -1.28572
1402.5 0.714283
1403.5 26.4286
1404.5 27
1405.5 7
1406.5 18.5714
1407.5 -10
1408.5 17.7143
1409.5 -1.14286
1410.5 26.7143
1411.5 6.57142
1412.5 35.4286
1413.5 5.85714
1414.5 13
1415.5 -3.57143
1416.5 -7.28572
1417.5 5.71428
1418.5 -18.2857
1419.5 38.2857
1420.5 9.42857
1421.5 23.7143
1422.5 28.7143
1423.5 -25.5714
1424.5 13
1425.5 16.1429
1426.5 5.99999
1427.5 -29.4286
1428.5 56.2857
1429.5 -70
1430.5 -14.8571
1431.5 21.8571
1432.5 18.4286
1433.5 119.571
1434.5 221.714
1435.5 198.857
1436.5 50.8571
1437.5 39.7143
1438.5 22.5714
1439.5 -5.85715
1440.5 -5.28572
1441.5 1.71428
1442.5 26.2857
1443.5 -64.7143
1444.5 -16
1445.5 14.2857
1446.5 19.1429
1447.5 31.7143
1448.5 15.5714
1449.5 22.4286
1450.5 33.1429
1451.5 45.7143
1452.5 17.7143
1453.5 61.8571
1454.5 26.2857
1455.5 9.14285
1456.5 27.1429
1457.5 49
1458.5 30.2857
1459.5 33
1460.5 25.4286
1461.5 51.5714
1462.5 32.2857
1463.5 28.8571
1464.5 53.8571
1465.5 54.2857
1466.5 -5.57143
1467.5 32.2857
1468.5 39.7143
1469.5 27.4286
1470.5 17.2857
1471.5 10.2857
1472.5 19.4286
1473.5 13.1429
1474.5 4.14285
1475.5 11.4286
1476.5 21.1429
1477.5 22.4286
1478.5 27.5714
1479.5 4.85714
1480.5 20
1481.5 22.1429
1482.5 54
1483.5 -0.714289
1484.5 13.5714
1485.5 34
1486.5 -3.28572
1487.5 -21.1429
1488.5 30.7143
1489.5 48.7143
1490.5 25.7143
1491.5 18.5714
1492.5 13.2857
1493.5 13.7143
1494.5 6.85714
1495.5 47.4286
1496.5 -0.571435
1497.5 -5.28573
1498.5 112.286
1499.5 80.2857
1500.5 37.4286
1501.5 -6.57144
1502.5 -2.57143
1503.5 0.85714
1504.5 11.4286
1505.5 -3.42858
1506.5 17.7143
1507.5 7
1508.5 55.7143
1509.5 24.1429
1510.5 9.14285
1511.5 8
1512.5 19.5714
1513.5 14
1514.5 -2.86102e-06
1515.5 10.5714
1516.5 26.7143
1517.5 -25.7143
1518.5 23.7143
1519.5 -26.7143
1520.5 -13
1521.5 19
1522.5 -13
1523.5 26.4286
1524.5 22
1525.5 6.28571
1526.5 -17.8571
1527.5 4.57143
1528.5 2.42857
1529.5 8.14285
1530.5 -1.71429
1531.5 -15.8571
1532.5 5
1533.5 18.5714
1534.5 7.85714
1535.5 42.2857
1536.5 4.71428
1537.5 13.8571
1538.5 54.1429
1539.5 -1.14286
1540.5 -23.5714
1541.5 6.57142
1542.5 25.8571
1543.5 24.1429
1544.5 1.57143
1545.5 41.1429
1546.5 29.5714
1547.5 13.4286
1548.5 6
1549.5 8.42857
1550.5 -6.42857
1551.5 1.85714
1552.5 17.8571
1553.5 17.8571
1554.5 3.85714
1555.5 7.71428
1556.5 32.4286
1557.5 10.8571
1558.5 3.57143
1559.5 5
1560.5 5.71428
1561.5 56
1562.5 26.2857
1563.5 33.7143
1564.5 45.7143
1565.5 37.2857
1566.5 45.1429
1567.5 33.2857
1568.5 13.2857
1569.5 25.2857
1570.5 9
1571.5 35.5714
1572.5 35.5714
1573.5 86.5714
1574.5 36.5714
1575.5 14.5714
1576.5 48.1429
1577.5 11.5714
1578.5 -7.85715
1579.5 17
1580.5 53.2857
1581.5 -14.4286
1582.5 26.1429
1583.5 1.71428
1584.5 -7.28572
1585.5 6.14285
1586.5 -14.2857
1587.5 41.2857
1588.5 31.7143
1589.5 24
1590.5 20.1429
1591.5 7.71428
1592.5 11.2857
1593.5 48.5714
1594.5 -11.5714
1595.5 43.2857
1596.5 26.7143
1597.5 11
1598.5 12.8571
1599.5 39.2857
1600.5 31.1429
1601.5 45.2857
1602.5 33
1603.5 -13.2857
1604.5 23.7143
1605.5 -6
1606.5 22.5714
1607.5 7.42857
1608.5 12.8571
1609.5 7.71428
1610.5 10
1611.5 39
1612.5 25.1429
1613.5 24.4286
1614.5 44.4286
1615.5 33.7143
1616.5 4.42857
1617.5 4.85714
1618.5 39.7143
1619.5 31
1620.5 9.71428
1621.5 -4.28572
1622.5 15.1429
1623.5 -16.8571
1624.5 37.5714
1625.5 -4.28572
1626.5 17.5714
1627.5 -7.28572
1628.5 -32.5714
1629.5 -9.42858
1630.5 3.28571
1631.5 -22.8571
1632.5 -10.2857
1633.5 12.4286
1634.5 44.7143
1635.5 12.5714
1636.5 18.8571
1637.5 46.5714
1638.5 -6.00001
1639.5 -19.7143
1640.5 29
1641.5 72.2857
1642.5 -51
1643.5 41.4286
1644.5 26.8571
1645.5 20.7143
1646.5 49.8571
1647.5 54.2857
1648.5 41.7143
1649.5 40.5714
1650.5 38.7143
1651.5 12.7143
1652.5 -15.8571
1653.5 9.57143
1654.5 10.4286
1655.5 8.14285
1656.5 -12.8571
1657.5 1.42857
1658.5 2.99999
1659.5 12.1429
1660.5 26.1429
1661.5 -9.57143
1662.5 -16.2857
1663.5 22.2857
1664.5 12.8571
1665.5 34.8571
1666.5 6.28571
1667.5 -27.1429
1668.5 6.42857
1669.5 6.71428
1670.5 22.1429
1671.5 12.1429
1672.5 -20.2857
1673.5 -3.57143
1674.5 -12
1675.5 6.85714
1676.5 7.42857
1677.5 -12.2857
1678.5 24.1429
1679.5 14.1429
1680.5 27.5714
1681.5 36.1429
1682.5 3
1683.5 13.2857
1684.5 3.28571
1685.5 10.1429
1686.5 12.2857
1687.5 22.7143
1688.5 11
1689.5 20
1690.5 -20.1429
1691.5 31.7143
1692.5 38.1429
1693.5 10.1429
1694.5 37.5714
1695.5 38.8571
1696.5 -11.7143
1697.5 6.57143
1698.5 11.2857
1699.5 21.1429
1700.5 13
1701.5 -20.4286
1702.5 24.8571
1703.5 8.28571
1704.5 34.8571
1705.5 11
1706.5 20.5714
1707.5 26.5714
1708.5 12.2857
1709.5 -4.85715
1710.5 -1.14286
1711.5 -3.57143
1712.5 -19.8571
1713.5 17.2857
1714.5 14.2857
1715.5 11.7143
1716.5 3.28571
1717.5 28.4286
1718.5 2.57143
1719.5 17.5714
1720.5 2.85714
1721.5 23.5714
1722.5 16.2857
1723.5 151.714
1724.5 251.429
1725.5 281
1726.5 195.714
1727.5 129.286
1728.5 31.4286
1729.5 2.85714
1730.5 12.2857
1731.5 27.2857
1732.5 26.8571
1733.5 30.7143
1734.5 36.8571
1735.5 18.7143
1736.5 20.7143
1737.5 12.5714
1738.5 -23.8571
1739.5 5.57143
1740.5 28.1429
1741.5 1.71428
1742.5 23.7143
1743.5 20.2857
1744.5 -15
1745.5 6.57143
1746.5 6.57143
1747.5 14.4286
1748.5 -3.71429
1749.5 25.1429
1750.5 -8.57143
1751.5 -24.4286
1752.5 -12.2857
1753.5 1.71428
1754.5 10.5714
1755.5 4.57143
1756.5 16.7143
1757.5 37.1429
1758.5 30
1759.5 8.57143
1760.5 28
1761.5 16.7143
1762.5 -11
1763.5 22.8571
1764.5 10.8571
1765.5 1.71428
1766.5 23.1429
1767.5 38.7143
1768.5 -28.7143
1769.5 2.14285
1770.5 3.28571
1771.5 -16.8571
1772.5 63.4286
1773.5 17.5714
1774.5 11.4286
1775.5 -6.85715
1776.5 4.42857
1777.5 32
1778.5 2.71428
1779.5 39
1780.5 -5.42857
1781.5 22.5714
1782.5 15.8571
1783.5 22.8571
1784.5 8
1785.5 29
1786.5 -16.5714
1787.5 14
1788.5 7
1789.5 19.7143
1790.5 -12.5714
1791.5 34
1792.5 12.2857
1793.5 -10.7143
1794.5 23.2857
1795.5 0.714283
1796.5 11.7143
1797.5 4.14285
1798.5 27
1799.5 -13
1800.5 25.7143
1801.5 39.2857
1802.5 32
1803.5 -13.1429
1804.5 -28.4286
1805.5 -39.1429
1806.5 -34.2857
1807.5 -4.57143
1808.5 11.2857
1809.5 34.7143
1810.5 21.8571
1811.5 1.57143
1812.5 -4.57143
1813.5 7.85714
1814.5 17.5714
1815.5 -5
1816.5 24
1817.5 4.85714
1818.5 8.42857
1819.5 11.2857
1820.5 47
1821.5 15.1429
1822.5 44.5714
1823.5 27.7143
1824.5 -27.1429
1825.5 39.5714
1826.5 17
1827.5 9.14285
1828.5 9
1829.5 15.5714
1830.5 -10.1429
1831.5 38.7143
1832.5 7
1833.5 2.14285
1834.5 23.5714
1835.5 31.5714
1836.5 21.2857
1837.5 31.2857
1838.5 10.1429
1839.5 11.8571
1840.5 14
1841.5 13
1842.5 -2.28572
1843.5 -5.85715
1844.5 3
1845.5 23.5714
1846.5 22.1429
1847.5 3.42857
1848.5 40.1429
1849.5 15.8571
1850.5 5
1851.5 20.5714
1852.5 13.4286
1853.5 -16.8571
1854.5 2
1855.5 32.1429
1856.5 14.1429
1857.5 27.2857
1858.5 45.5714
1859.5 35.2857
1860.5 18.7143
1861.5 31.5714
1862.5 27.4286
1863.5 34.7143
1864.5 49
1865.5 -3.42857
1866.5 8.42857
1867.5 28
1868.5 -13.4286
1869.5 -1.57143
1870.5 -0.142863
1871.5 29.2857
1872.5 69.7143
1873.5 45.1428
1874.5 11
1875.5 7.42857
1876.5 14.8571
1877.5 0.999998
1878.5 7.42857
1879.5 29.5714
1880.5 21
1881.5 3.71428
1882.5 36.8571
1883.5 -2.71429
1884.5 30.8571
1885.5 161.714
1886.5 231.571
1887.5 249
1888.5 174.286
1889.5 52
1890.5 13.5714
1891.5 21.4286
1892.5 11.1429
1893.5 7
1894.5 29.1429
1895.5 3
1896.5 23.4286
1897.5 40
1898.5 56.7143
1899.5 123.714
1900.5 66.8571
1901.5 51.7143
1902.5 5
1903.5 35.8571
1904.5 12.4286
1905.5 16
1906.5 23.8571
1907.5 19.1429
1908.5 22.7143
1909.5 7.71428
1910.5 34.7143
1911.5 -3.57628e-06
1912.5 15.4286
1913.5 24.5714
1914.5 36.2857
1915.5 1.14285
1916.5 -3.42857
1917.5 -5.71429
1918.5 11.8571
1919.5 -13.4286
1920.5 -2
1921.5 -13.1429
1922.5 23.7143
1923.5 48.7143
1924.5 47.7143
1925.5 40
1926.5 -0.857145
1927.5 3
1928.5 18.4286
1929.5 21.5714
1930.5 10.1429
1931.5 9
1932.5 8.57143
1933.5 13
1934.5 12.1429
1935.5 34.7143
1936.5 14.4286
1937.5 33.4286
1938.5 -12.1429
1939.5 16.8571
1940.5 0.428567
1941.5 -37.1429
1942.5 -29.4286
1943.5 9.99999
1944.5 11.8571
1945.5 22
1946.5 3.28571
1947.5 13
1948.5 1.57143
1949.5 -17.8571
1950.5 -27.5714
1951.5 16.1429
1952.5 14.8571
1953.5 -0.428574
1954.5 13.7143
1955.5 -7.14286
1956.5 18.2857
1957.5 -1
1958.5 41.1429
1959.5 25.8571
1960.5 23.8571
1961.5 8.28571
1962.5 -0.285717
1963.5 -13.8571
1964.5 25.8571
1965.5 9.57143
1966.5 20.7143
1967.5 0.571427
1968.5 1.57143
1969.5 10.1429
1970.5 33
1971.5 17
1972.5 50.5714
1973.5 5.14285
1974.5 6.14286
1975.5 42.8571
1976.5 9
1977.5 17.2857
1978.5 0.571427
1979.5 24.7143
1980.5 15.1429
1981.5 26.5714
1982.5 25.8571
1983.5 -15.7143
1984.5 6.42857
1985.5 3
1986.5 14.7143
1987.5 28.4286
1988.5 31.2857
1989.5 -5
1990.5 42.8571
1991.5 22.7143
1992.5 0.571425
1993.5 -17
1994.5 -4.57143
1995.5 15.2857
1996.5 23
1997.5 27.1429
1998.5 17
1999.5 -10.5714
2000.5 -16
2001.5 17.1429
2002.5 22.5714
2003.5 1.71428
2004.5 3.57143
2005.5 -4.28572
2006.5 18.1429
2007.5 -22.8571
2008.5 -12.8571
2009.5 -17.7143
2010.5 -55
2011.5 2.85714
2012.5 19.5714
2013.5 11.8571
2014.5 13
2015.5 21
2016.5 -5.57143
2017.5 22.2857
2018.5 0.285712
2019.5 -6.28572
2020.5 -5
2021.5 4.85714
2022.5 8.42857
2023.5 19.7143
2024.5 -6.57143
2025.5 -3.57143
2026.5 22.8571
2027.5 9.28571
2028.5 28.4286
2029.5 11.2857
2030.5 33.2857
2031.5 34.1429
2032.5 7.14285
2033.5 3.28571
2034.5 14.4286
2035.5 -10.5714
2036.5 -9.57143
2037.5 -8.85715
2038.5 8.14286
2039.5 19.4286
2040.5 -17.7143
2041.5 7.14286
2042.5 -15.7143
2043.5 8.42857
2044.5 6
2045.5 23.4286
2046.5 -2.42857
2047.5 7.85714
2048.5 2.14286
2049.5 16.7143
2050.5 29.1429
2051.5 27.4286
2052.5 25.1429
2053.5 61
2054.5 36.2857
2055.5 3.42857
2056.5 26.8571
2057.5 20
2058.5 5.14286
2059.5 19.5714
2060.5 12
2061.5 -6.85715
2062.5 9.57143
2063.5 0.142855
2064.5 13.2857
2065.5 3.28571
2066.5 25
2067.5 -6.57143
2068.5 -0.142859
2069.5 9.71428
2070.5 22.4286
2071.5 64.7143
2072.5 151.286
2073.5 337.429
2074.5 514.286
2075.5 394.286
2076.5 193.143
2077.5 21.2857
2078.5 5.71428
2079.5 11
2080.5 6.28571
2081.5 14.5714
2082.5 24.2857
2083.5 -16
2084.5 6.71428
2085.5 -17.8571
2086.5 -11.2857
2087.5 -6.71429
2088.5 -41.2857
2089.5 15.2857
2090.5 15.7143
2091.5 24.4286
2092.5 -4.42857
2093.5 -17.5714
2094.5 25.4286
2095.5 -2.38419e-06
2096.5 9.14285
2097.5 44.5714
2098.5 42
2099.5 53.8571
2100.5 26.2857
2101.5 31.5714
2102.5 3.28571
2103.5 -4.85715
2104.5 4.57143
2105.5 11.4286
2106.5 -17
2107.5 7.71428
2108.5 17.7143
2109.5 9.14286
2110.5 25.1429
2111.5 -2.42857
2112.5 1.85714
2113.5 -5.14286
2114.5 2.14285
2115.5 19.2857
2116.5 17.7143
2117.5 5.28571
2118.5 13.4286
2119.5 12.7143
2120.5 -28.2857
2121.5 19.5714
2122.5 9.71428
2123.5 8.57143
2124.5 -2.28572
2125.5 -16.4286
2126.5 10.8571
2127.5 16.5714
2128.5 -16.1429
2129.5 29.5714
2130.5 9
2131.5 -3.57143
2132.5 3.14286
2133.5 9.42857
2134.5 -36.5714
2135.5 -1.14286
2136.5 -23.2857
2137.5 8
2138.5 4.14286
2139.5 1.14286
2140.5 8.28571
2141.5 13.7143
2142.5 -0.714291
2143.5 -33.7143
2144.5 -50.2857
2145.5 -1.71429
2146.5 6
2147.5 -30.2857
2148.5 -39.4286
2149.5 -154.286
2150.5 -69.5715
2151.5 -40.4286
2152.5 -42.2857
2153.5 51.7143
2154.5 -3
2155.5 -0.285717
2156.5 1.42857
2157.5 -5.71429
2158.5 -11.4286
2159.5 5
2160.5 12
2161.5 -17.5714
2162.5 19
2163.5 3.28571
2164.5 14.4286
2165.5 26.4286
2166.5 -1
2167.5 29.4286
2168.5 -9
2169.5 15
2170.5 18.7143
2171.5 20.7143
2172.5 14.1429
2173.5 13.4286
2174.5 11.1429
2175.5 6.14286
2176.5 19
2177.5 -8.57143
2178.5 22.1429
2179.5 16.8571
2180.5 25.2857
2181.5 -7.42857
2182.5 13
2183.5 24.7143
2184.5 27
2185.5 16.7143
2186.5 27.8571
2187.5 -6.42857
2188.5 13
2189.5 18.5714
2190.5 4.42857
2191.5 15.4286
2192.5 0.142855
2193.5 -34.5714
2194.5 -10.2857
2195.5 -8
2196.5 0.714283
2197.5 11.1429
2198.5 37
2199.5 23.2857
2200.5 -2.85715
2201.5 -8.57143
2202.5 43.5714
2203.5 19.7143
2204.5 7.28571
2205.5 18.2857
2206.5 7.28571
2207.5 6.42857
2208.5 -3
2209.5 13.2857
2210.5 -6.42857
2211.5 13.5714
2212.5 39.7143
2213.5 7
2214.5 27.7143
2215.5 17.1429
2216.5 -15.2857
2217.5 16.2857
2218.5 -8.85714
2219.5 8.14286
2220.5 -27.8571
2221.5 19.7143
2222.5 62.1429
2223.5 46.2857
2224.5 34.1429
2225.5 -3.28572
2226.5 -5.85714
2227.5 21.1429
2228.5 -11.7143
2229.5 -4
2230.5 -34.2857
2231.5 7.14286
2232.5 -1.71429
2233.5 -8.85714
2234.5 -9.14286
2235.5 18
2236.5 22.5714
2237.5 -5.28572
2238.5 18.5714
2239.5 9.85714
2240.5 21.7143
2241.5 -6.85714
2242.5 -7.14286
2243.5 17.8571
2244.5 0.857141
2245.5 28.2857
2246.5 22.5714
2247.5 5.28571
2248.5 37.4286
2249.5 -8.42857
2250.5 3.71428
2251.5 4.14286
2252.5 18
2253.5 39.5714
2254.5 -2.71429
2255.5 34.1429
2256.5 20.1429
2257.5 7.28571
2258.5 -19.8571
2259.5 -4.14286
2260.5 22.7143
2261.5 0.142856
2262.5 -4.42857
2263.5 20
2264.5 12.1429
2265.5 7.71428
2266.5 20.7143
2267.5 28
2268.5 -0.714288
2269.5 -0.142859
2270.5 14.7143
2271.5 -2
2272.5 28
2273.5 3.85714
2274.5 16.5714
2275.5 18.8571
2276.5 2.71428
2277.5 -1.85714
2278.5 9.28571
2279.5 15.7143
2280.5 -2.86102e-06
2281.5 28.5714
2282.5 5.42857
2283.5 8.71428
2284.5 31.7143
2285.5 4
2286.5 -0.428573
2287.5 -9.28572
2288.5 2.42857
2289.5 30
2290.5 -1.28572
2291.5 7.14286
2292.5 3.71428
2293.5 32
2294.5 -32
2295.5 -18.7143
2296.5 -13.4286
2297.5 59
2298.5 21
2299.5 -8.71429
2300.5 -30
2301.5 15.4286
2302.5 -28.2857
2303.5 6.57143
2304.5 27.2857
2305.5 3.57143
2306.5 12.1429
2307.5 30.8571
2308.5 5.57143
2309.5 15.7143
2310.5 -7.28572
2311.5 2.14286
2312.5 5.28571
2313.5 13.1429
2314.5 -7.14286
2315.5 -15.8571
2316.5 29.4286
2317.5 7.85714
2318.5 12.7143
2319.5 -10.1429
2320.5 18.2857
2321.5 7.28571
2322.5 17.7143
2323.5 -3.28572
2324.5 29
2325.5 17
2326.5 -3.57143
2327.5 4.71428
2328.5 8.14286
2329.5 12
2330.5 -2.85714
2331.5 -21.2857
2332.5 25.7143
2333.5 8
2334.5 33.2857
2335.5 10.2857
2336.5 27.4286
2337.5 18.1429
2338.5 11.7143
2339.5 7
2340.5 4.57143
2341.5 19.4286
2342.5 19.1429
2343.5 12.2857
2344.5 -1.28572
2345.5 26.5714
2346.5 -3.28572
2347.5 23.1429
2348.5 8
2349.5 15.2857
2350.5 21.5714
2351.5 31
2352.5 9
2353.5 4.28571
2354.5 -0.428573
2355.5 10.4286
2356.5 8.85714
2357.5 16.7143
2358.5 22.4286
2359.5 3.14286
2360.5 23
2361.5 0.571427
2362.5 5
2363.5 22.4286
2364.5 8
2365.5 -16.7143
2366.5 3
2367.5 14.5714
2368.5 32
2369.5 0.42857
2370.5 13.2857
2371.5 -23.7143
2372.5 -2
2373.5 -0.285716
2374.5 1.14285
2375.5 30.1429
2376.5 -7.14286
2377.5 2.71428
2378.5 22.1429
2379.5 -12.4286
2380.5 8.71428
2381.5 -0.142859
2382.5 11.1429
2383.5 -9
2384.5 -4.85714
2385.5 4.14286
2386.5 -0.285716
2387.5 13.5714
2388.5 -4.14286
2389.5 -2
2390.5 17.5714
2391.5 11.2857
2392.5 24.1429
2393.5 16.1429
2394.5 16.1429
2395.5 13.2857
2396.5 -2.71429
2397.5 -2.71429
2398.5 9.85714
2399.5 19.5714
2400.5 1.71428
2401.5 8.14286
2402.5 -1.85714
2403.5 33
2404.5 8.42857
2405.5 4
2406.5 5.28571
2407.5 31.1429
2408.5 17.8571
2409.5 7.57143
2410.5 16.4286
2411.5 -3.57143
2412.5 6.14286
2413.5 7
2414.5 20.5714
2415.5 -6
2416.5 5.14286
2417.5 -6.85714
2418.5 14
2419.5 2.14286
2420.5 9.85714
2421.5 10.4286
2422.5 16.1429
2423.5 11.8571
2424.5 -0.142859
2425.5 4.14286
2426.5 40.5714
2427.5 6.57143
2428.5 -0.857145
2429.5 29.4286
2430.5 36.7143
2431.5 25.5714
2432.5 17.4286
2433.5 -0.714288
2434.5 26.1429
2435.5 26
2436.5 -19.1429
2437.5 6.71428
2438.5 7.42857
2439.5 3.28571
2440.5 21.7143
2441.5 11.7143
2442.5 25.1429
2443.5 20.5714
2444.5 0.142855
2445.5 -4.85715
2446.5 7.57143
2447.5 15.4286
2448.5 11.1429
2449.5 -15.7143
2450.5 6.71428
2451.5 -4.57143
2452.5 38.2857
2453.5 17.8571
2454.5 33.8571
2455.5 0.714284
2456.5 18.2857
2457.5 27.8571
2458.5 -4.14286
2459.5 28
2460.5 13
2461.5 26.8571
2462.5 0.571427
2463.5 26.2857
2464.5 2
2465.5 17.4286
2466.5 2
2467.5 11.8571
2468.5 10.8571
2469.5 28.7143
2470.5 -1.42857
2471.5 7
2472.5 34
2473.5 16.7143
2474.5 -13
2475.5 -15.2857
2476.5 -0.857144
2477.5 -14.7143
2478.5 -2
2479.5 6
2480.5 19.2857
2481.5 12.8571
2482.5 11.8571
2483.5 6
2484.5 6
2485.5 21.7143
2486.5 -18.8571
2487.5 29.8571
2488.5 11.1429
2489.5 -15.5714
2490.5 -1.14286
2491.5 7
2492.5 7.42857
2493.5 -4.71429
2494.5 9.14286
2495.5 -33.7143
2496.5 -6.14286
2497.5 -0.857145
2498.5 -5.57143
2499.5 9.28571
2500.5 -23.4286
2501.5 -13.4286
2502.5 7.14286
2503.5 15.4286
2504.5 19
2505.5 -1.28572
2506.5 10.8571
2507.5 20.7143
2508.5 23.1429
2509.5 22.1429
2510.5 29.2857
2511.5 -11.1429
2512.5 -3.14286
2513.5 -1.57143
2514.5 -2.57143
2515.5 10.7143
2516.5 -7.14286
2517.5 34.7143
2518.5 -0.85715
2519.5 51.7143
2520.5 -0.142862
2521.5 33.1429
2522.5 33.2857
2523.5 34.4286
2524.5 35
2525.5 -5.28572
2526.5 -23.5714
2527.5 -44.7143
2528.5 -12.4286
2529.5 -2.71429
2530.5 -25.2857
2531.5 10.2857
2532.5 11.5714
2533.5 25.7143
2534.5 5
2535.5 9.57143
2536.5 7.42857
2537.5 2.85714
2538.5 30.5714
2539.5 -1
2540.5 12.8571
2541.5 12.4286
2542.5 0.571427
2543.5 8.42857
2544.5 -4.71429
2545.5 -21.4286
2546.5 13.4286
2547.5 4.85714
2548.5 8.42857
2549.5 17.4286
2550.5 21.7143
2551.5 24.7143
2552.5 21.7143
2553.5 15.5714
2554.5 20.7143
2555.5 32.5714
2556.5 9.85714
2557.5 4.42857
2558.5 14.8571
2559.5 6.14286
2560.5 6.71428
2561.5 5.57143
2562.5 22.1429
2563.5 -27.7143
2564.5 33.7143
2565.5 19.8571
2566.5 18.8571
2567.5 28.4286
2568.5 39.5714
2569.5 20.7143
2570.5 17.5714
2571.5 4
2572.5 -8
2573.5 22.4286
2574.5 17.8571
2575.5 34.8571
2576.5 25.1429
2577.5 25.7143
2578.5 -24
2579.5 6.85714
2580.5 -7.42857
2581.5 -6.28572
2582.5 14.7143
2583.5 7.71428
2584.5 4.57143
2585.5 15.2857
2586.5 15.5714
2587.5 12.1429
2588.5 2.42857
2589.5 -26.1429
2590.5 -29.4286
2591.5 11.4286
2592.5 15.5714
2593.5 9.14286
2594.5 10.8571
2595.5 16.2857
2596.5 36
2597.5 3.42857
2598.5 9.42857
2599.5 25.4286
2600.5 28.5714
2601.5 29.5714
2602.5 53.7143
2603.5 11.2857
2604.5 20.1429
2605.5 -10.5714
2606.5 21.8571
2607.5 11.7143
2608.5 23.2857
2609.5 21
2610.5 14.2857
2611.5 -6.85714
2612.5 5.71428
2613.5 -23.1429
2614.5 8.28571
2615.5 6.57143
2616.5 7.57143
2617.5 8.42857
2618.5 -16.5714
2619.5 -6.71429
2620.5 -9.85715
2621.5 8.28571
2622.5 -7.14286
2623.5 9.42857
2624.5 18.1429
2625.5 9.28571
2626.5 1.14286
2627.5 5.42857
2628.5 17.8571
2629.5 4.14286
2630.5 6.42857
2631.5 -0.142858
2632.5 24.2857
2633.5 13.4286
2634.5 -6.28572
2635.5 16.2857
2636.5 15.5714
2637.5 -19.5714
2638.5 49.1429
2639.5 0.42857
2640.5 16.7143
2641.5 9.71428
2642.5 26.4286
2643.5 2.42857
2644.5 -6.14286
2645.5 15
2646.5 13.4286
2647.5 7.71428
2648.5 5.28571
2649.5 -6.57143
2650.5 15.8571
2651.5 1.28571
2652.5 10.1429
2653.5 2.28571
2654.5 -0.142859
2655.5 5.14285
2656.5 -28.7143
2657.5 3.28571
2658.5 17.7143
2659.5 9.42857
2660.5 11.2857
2661.5 24.4286
2662.5 30.2857
2663.5 14.5714
2664.5 11.7143
2665.5 6.57143
2666.5 29.2857
2667.5 30.7143
2668.5 17.4286
2669.5 9.57143
2670.5 25.4286
2671.5 -1.71429
2672.5 -2.57143
2673.5 9.71428
2674.5 7
2675.5 25.8571
2676.5 21.1429
2677.5 -2.57143
2678.5 -17.2857
2679.5 -6
2680.5 13.5714
2681.5 49.4286
2682.5 3.85714
2683.5 12.7143
2684.5 3.57143
2685.5 -7
2686.5 10.5714
2687.5 -9.14286
2688.5 17.4286
2689.5 17.1429
2690.5 14.4286
2691.5 24.4286
2692.5 7.85714
2693.5 17.5714
2694.5 16.5714
2695.5 5.14286
2696.5 -8.42857
2697.5 -4
2698.5 13.1429
2699.5 -15
2700.5 4
2701.5 -1.85714
2702.5 9.71428
2703.5 12.5714
2704.5 23.7143
2705.5 14.1429
2706.5 -1.19209e-06
2707.5 9.71428
2708.5 10.7143
2709.5 -8.57143
2710.5 32.8571
2711.5 10.7143
2712.5 9.14286
2713.5 27.1429
2714.5 27.1429
2715.5 28
2716.5 -18.2857
2717.5 40.5714
2718.5 23.4286
2719.5 -9.71429
2720.5 15.8571
2721.5 -4.85715
2722.5 32.5714
2723.5 25.2857
2724.5 9.42857
2725.5 15
2726.5 12.1429
2727.5 36.7143
2728.5 14.5714
2729.5 20
2730.5 22.2857
2731.5 -14.1429
2732.5 -19.2857
2733.5 10
2734.5 12.8571
2735.5 6
2736.5 22.5714
2737.5 5
2738.5 -18.1429
2739.5 7.57143
2740.5 26.8571
2741.5 -2.42857
2742.5 2.14286
2743.5 13
2744.5 -7
2745.5 -10.8571
2746.5 -8.57143
2747.5 7.57143
2748.5 2
2749.5 22.5714
2750.5 1.57143
2751.5 15.4286
2752.5 20.4286
2753.5 3.14286
2754.5 24.1429
2755.5 18.2857
2756.5 14.7143
2757.5 16.2857
2758.5 16.4286
2759.5 22.5714
2760.5 18.7143
2761.5 21.7143
2762.5 19.4286
2763.5 40.8571
2764.5 49.4286
2765.5 26.8571
2766.5 43
2767.5 9
2768.5 7.85714
2769.5 0.999999
2770.5 14
2771.5 -2.71429
2772.5 8.14286
2773.5 -2.28572
2774.5 6.71428
2775.5 -0.714287
2776.5 18
2777.5 -3.71429
2778.5 11
2779.5 -2.14286
2780.5 14
2781.5 -1.28572
2782.5 18.4286
2783.5 20.2857
2784.5 11
2785.5 1.85714
2786.5 12.5714
2787.5 2
2788.5 7.71428
2789.5 9.71428
2790.5 3.71428
2791.5 22.4286
2792.5 24
2793.5 22.2857
2794.5 37.7143
2795.5 41.5714
2796.5 30.1429
2797.5 -7.42857
2798.5 -1
2799.5 17.4286
2800.5 10.7143
2801.5 23.5714
2802.5 16
2803.5 11.2857
2804.5 21.1429
2805.5 11
2806.5 6.42857
2807.5 -0.285715
2808.5 14.2857
2809.5 11.5714
2810.5 2.42857
2811.5 17.7143
2812.5 -8.28572
2813.5 -12.4286
2814.5 1.85714
2815.5 25.8571
2816.5 12.8571
2817.5 13.8571
2818.5 22.1429
2819.5 3.71428
2820.5 3.85714
2821.5 -1.28572
2822.5 -7
2823.5 -14.1429
2824.5 -1.28572
2825.5 2.14286
2826.5 -38.8571
2827.5 -62.2857
2828.5 -29.5714
2829.5 -13.8571
2830.5 7
2831.5 9.14286
2832.5 -5.14286
2833.5 4.71428
2834.5 21.1429
2835.5 -21.5714
2836.5 6.14286
2837.5 7.57143
2838.5 -18
2839.5 -9.53674e-07
2840.5 6.57143
2841.5 14.2857
2842.5 -20
2843.5 14.2857
2844.5 5.14285
2845.5 16.2857
2846.5 15.8571
2847.5 23.2857
2848.5 19.1429
2849.5 11.4286
2850.5 18.8571
2851.5 1.85714
2852.5 11
2853.5 15.5714
2854.5 20
2855.5 7.28571
2856.5 25.8571
2857.5 42.7143
2858.5 40.5714
2859.5 27
2860.5 -11
2861.5 6.42857
2862.5 30.2857
2863.5 14.4286
2864.5 26.5714
2865.5 18.7143
2866.5 9
2867.5 8.42857
2868.5 8.42857
2869.5 1.57143
2870.5 24.2857
2871.5 9.57143
2872.5 14.2857
2873.5 21.5714
2874.5 9
2875.5 9.57143
2876.5 -15.1429
2877.5 3
2878.5 8
2879.5 11.8571
2880.5 7.57143
2881.5 -6.57143
2882.5 18.5714
2883.5 1.85714
2884.5 -0.57143
2885.5 7.42857
2886.5 22.8571
2887.5 5.71428
2888.5 -1.28572
2889.5 12.7143
2890.5 -4
2891.5 22.2857
2892.5 11.7143
2893.5 9.71428
2894.5 13.1429
2895.5 5.28571
2896.5 25.2857
2897.5 40.2857
2898.5 -4
2899.5 11.1429
2900.5 11.4286
2901.5 -3.42857
2902.5 16
2903.5 1.28571
2904.5 21.7143
2905.5 -1.14286
2906.5 -13.1429
2907.5 17.5714
2908.5 2.42857
2909.5 -7.71429
2910.5 31.8571
2911.5 32.4286
2912.5 17.4286
2913.5 30.2857
2914.5 41.8571
2915.5 37.5714
2916.5 32.2857
2917.5 48.7143
2918.5 44.2857
2919.5 6.14286
2920.5 37
2921.5 33.5714
2922.5 18.8571
2923.5 24.7143
2924.5 3.28571
2925.5 10.4286
2926.5 15.1429
2927.5 4
2928.5 8.71428
2929.5 14.4286
2930.5 6.85714
2931.5 8.28571
2932.5 18.5714
2933.5 2.28571
2934.5 -3
2935.5 10.1429
2936.5 40.7143
2937.5 3.57143
2938.5 41
2939.5 6.85714
2940.5 -2.71429
2941.5 6.57143
2942.5 4.28571
2943.5 19.2857
2944.5 -34.7143
2945.5 0.285709
2946.5 27.2857
2947.5 35.1428
2948.5 9.85714
2949.5 -2.14286
2950.5 -6.71429
2951.5 -33.4286
2952.5 10.1429
2953.5 13.4286
2954.5 17.1429
2955.5 -21.2857
2956.5 24.2857
2957.5 12.7143
2958.5 -7.71429
2959.5 19.4286
2960.5 5
2961.5 -12
2962.5 -5.14286
2963.5 0.42857
2964.5 12.7143
2965.5 -3.57143
2966.5 8.14286
2967.5 4.28571
2968.5 9.28571
2969.5 34.1429
2970.5 61.2857
2971.5 70.5714
2972.5 58.2857
2973.5 48.8571
2974.5 3
2975.5 34.5714
2976.5 16.7143
2977.5 11.5714
2978.5 19.4286
2979.5 -2.57143
2980.5 33.8571
2981.5 23.7143
2982.5 -19.2857
2983.5 10.2857
2984.5 24.1429
2985.5 13.1429
2986.5 7
2987.5 -0.285715
2988.5 8.28571
2989.5 15.1429
2990.5 13.7143
2991.5 16.8571
2992.5 -10.5714
2993.5 9.71428
2994.5 6.28571
2995.5 13.2857
2996.5 22.5714
2997.5 6.85714
2998.5 0.428571
2999.5 25.7143
3000.5 4.28571
3001.5 11
3002.5 18.5714
3003.5 14.5714
3004.5 -11.4286
3005.5 16.2857
3006.5 9.71428
3007.5 13.5714
3008.5 12.8571
3009.5 19.5714
3010.5 15.8571
3011.5 -5.14286
3012.5 -3.28572
3013.5 -5.42857
3014.5 5.42857
3015.5 -6.42857
3016.5 22.8571
3017.5 -6.71429
3018.5 3.85714
3019.5 16.5714
3020.5 14.1429
3021.5 33.4286
3022.5 17.1429
3023.5 27.5714
3024.5 -11
3025.5 9.71428
3026.5 19.1429
3027.5 1.57143
3028.5 5.14286
3029.5 14.8571
3030.5 55.1429
3031.5 87.7143
3032.5 185.571
3033.5 209.714
3034.5 216.857
3035.5 142.143
3036.5 49.1429
3037.5 24.2857
3038.5 35.2857
3039.5 4.71428
3040.5 21.1429
3041.5 8.14286
3042.5 5
3043.5 -0.142858
3044.5 0.857142
3045.5 -14.5714
3046.5 16.8571
3047.5 -10.4286
3048.5 -13.7143
3049.5 5.85714
3050.5 -28.4286
3051.5 -5.57143
3052.5 4.57143
3053.5 0.999999
3054.5 -0.285715
3055.5 -2.14286
3056.5 8.42857
3057.5 15
3058.5 0.857142
3059.5 -9
3060.5 12.5714
3061.5 9.71428
3062.5 -1.43051e-06
3063.5 52
3064.5 15.8571
3065.5 17
3066.5 7.57143
3067.5 3.71428
3068.5 41.8571
3069.5 0.714285
3070.5 6.42857
3071.5 21
3072.5 7.85714
3073.5 8.14286
3074.5 16
3075.5 13.5714
3076.5 12.4286
3077.5 -13.2857
3078.5 5.42857
3079.5 -11
3080.5 -5.28572
3081.5 6.85714
3082.5 14.2857
3083.5 4.28571
3084.5 14
3085.5 1.57143
3086.5 15.1429
3087.5 -10.1429
3088.5 7.57143
3089.5 7.57143
3090.5 19.7143
3091.5 -0.428572
3092.5 5
3093.5 10.7143
3094.5 0.714285
3095.5 2
3096.5 14.4286
3097.5 9.71428
3098.5 -5.57143
3099.5 -5.28572
3100.5 -1.28572
3101.5 -1
3102.5 11.1429
3103.5 18.7143
3104.5 -1.42857
3105.5 9.85714
3106.5 -5.71429
3107.5 22.7143
3108.5 7.71428
3109.5 30.8571
3110.5 45.2857
3111.5 35.1429
3112.5 29.4286
3113.5 68
3114.5 62.7143
3115.5 62.4286
3116.5 52.4286
3117.5 29
3118.5 26.4286
3119.5 6.71428
3120.5 -5.71429
3121.5 20.4286
3122.5 6.85714
3123.5 21.7143
3124.5 6.42857
3125.5 13.4286
3126.5 18.4286
3127.5 -6.28572
3128.5 4.57143
3129.5 -2
3130.5 2.85714
3131.5 -1
3132.5 10.1429
3133.5 -8.28572
3134.5 11.8571
3135.5 5.71428
3136.5 20.8571
3137.5 0.857142
3138.5 -3.14286
3139.5 -3.71429
3140.5 9.85714
3141.5 15.1429
3142.5 6.14286
3143.5 -6.28572
3144.5 8.85714
3145.5 -0.285715
3146.5 -3
3147.5 -4.71429
3148.5 -25.2857
3149.5 -35.7143
3150.5 -21.8571
3151.5 -11
3152.5 -2.42857
3153.5 11
3154.5 -1.57143
3155.5 17.5714
3156.5 1.28571
3157.5 -8.85714
3158.5 11.7143
3159.5 18
3160.5 23.2857
3161.5 9.71428
3162.5 28.5714
3163.5 40.1429
3164.5 10.4286
3165.5 28.4286
3166.5 19.2857
3167.5 6.28571
3168.5 21
3169.5 21.5714
3170.5 22
3171.5 -12.5714
3172.5 14.1429
3173.5 15.1429
3174.5 20
3175.5 22.7143
3176.5 7.85714
3177.5 43.8571
3178.5 22.8571
3179.5 -5.42857
3180.5 -19.4286
3181.5 -4.71429
3182.5 -15
3183.5 -14
3184.5 -3.42857
3185.5 -11
3186.5 -10.2857
3187.5 -5.71429
3188.5 -4.14286
3189.5 7.71428
3190.5 15.1429
3191.5 21.7143
3192.5 -0.285715
3193.5 18.4286
3194.5 18.7143
3195.5 6.42857
3196.5 27.1429
3197.5 -1.19209e-06
3198.5 15.2857
3199.5 23.4286
3200.5 13.8571
3201.5 28
3202.5 13.2857
3203.5 1.85714
3204.5 11.7143
3205.5 14.1429
3206.5 -0.857144
3207.5 0.571428
3208.5 22.7143
3209.5 -1.85714
3210.5 -1.14286
3211.5 5.14286
3212.5 -0.428572
3213.5 1.85714
3214.5 -5.14286
3215.5 5.85714
3216.5 18.4286
3217.5 4.14286
3218.5 26.5714
3219.5 -4.14286
3220.5 -13.7143
3221.5 -1.42857
3222.5 10.4286
3223.5 0.714285
3224.5 12
3225.5 6.57143
3226.5 -18.5714
3227.5 1.28571
3228.5 10.8571
3229.5 6.42857
3230.5 -7.71429
3231.5 -42
3232.5 -48.2857
3233.5 -109.571
3234.5 -87.4286
3235.5 -49.4286
3236.5 -31.2857
3237.5 -7.28572
3238.5 -20.2857
3239.5 18.5714
3240.5 -41.4286
3241.5 -5.57143
3242.5 13.7143
3243.5 -3.71429
3244.5 -15.8571
3245.5 -12
3246.5 -6.28572
3247.5 -7.71429
3248.5 12.8571
3249.5 -4.42857
3250.5 13.1429
3251.5 15.8571
3252.5 16.7143
3253.5 -1.71429
3254.5 21.4286
3255.5 12
3256.5 13.8571
3257.5 13.2857
3258.5 18.2857
3259.5 18.7143
3260.5 16.2857
3261.5 28.5714
3262.5 9.57143
3263.5 -2.85714
3264.5 -9.42857
3265.5 -1
3266.5 -10.2857
3267.5 -27
3268.5 15.7143
3269.5 2.14286
3270.5 5.28571
3271.5 -2.85714
3272.5 18.1429
3273.5 10.5714
3274.5 28.1429
3275.5 17.4286
3276.5 3.28571
3277.5 37.1429
3278.5 8.28571
3279.5 16.1429
3280.5 9
3281.5 11
3282.5 9.71429
3283.5 -1
3284.5 10.1429
3285.5 3.57143
3286.5 22.1429
3287.5 7.85714
3288.5 22.1429
3289.5 10.4286
3290.5 9.42857
3291.5 22.2857
3292.5 12.5714
3293.5 -0.428572
3294.5 20.1429
3295.5 16.2857
3296.5 23.1429
3297.5 31.4286
3298.5 0.999999
3299.5 27.4286
3300.5 17.8571
3301.5 -6.28572
3302.5 0.42857
3303.5 15.2857
3304.5 -4.85714
3305.5 12
3306.5 8.57143
3307.5 3.42857
3308.5 16
3309.5 -2.57143
3310.5 6.71429
3311.5 37.5714
3312.5 26.2857
3313.5 13.7143
3314.5 14
3315.5 7.14286
3316.5 30.1429
3317.5 5
3318.5 10.7143
3319.5 2
3320.5 19.7143
3321.5 -7.28572
3322.5 31.5714
3323.5 11.1429
3324.5 -7.71429
3325.5 -0.142858
3326.5 14.1429
3327.5 9.42857
3328.5 0.857142
3329.5 16.2857
3330.5 8
3331.5 -10.4286
3332.5 12
3333.5 -6.85714
3334.5 3.42857
3335.5 -2.85714
3336.5 3.42857
3337.5 1.28571
3338.5 4.42857
3339.5 20.4286
3340.5 7.42857
3341.5 10.5714
3342.5 4.71429
3343.5 9.85714
3344.5 0.428571
3345.5 6.71429
3346.5 7.85714
3347.5 -22
3348.5 1.57143
3349.5 -14.2857
3350.5 13.2857
3351.5 -0.857144
3352.5 13.2857
3353.5 4.85714
3354.5 11
3355.5 -1
3356.5 10.5714
3357.5 -0.571429
3358.5 15.1429
3359.5 19.2857
3360.5 6.42857
3361.5 19.8571
3362.5 11.8571
3363.5 14.5714
3364.5 11.5714
3365.5 5.71428
3366.5 7.42857
3367.5 12.5714
3368.5 1.28571
3369.5 -7.42857
3370.5 7.42857
3371.5 -5.14286
3372.5 2.28571
3373.5 4.42857
3374.5 -2.42857
3375.5 10
3376.5 -1.14286
3377.5 17.5714
3378.5 18.7143
3379.5 -3.57143
3380.5 9.85714
3381.5 23.2857
3382.5 14.4286
3383.5 18.1429
3384.5 14.4286
3385.5 17.2857
3386.5 12.7143
3387.5 7.28571
3388.5 6.42857
3389.5 -10
3390.5 -2.57143
3391.5 -0.428572
3392.5 11.4286
3393.5 12.7143
3394.5 25.4286
3395.5 -2.85714
3396.5 8.14286
3397.5 14.4286
3398.5 16.4286
3399.5 10
3400.5 17.5714
3401.5 9.28571
3402.5 13.2857
3403.5 16.5714
3404.5 9.42857
3405.5 12.8571
3406.5 1
3407.5 -7.15256e-07
3408.5 14.1429
3409.5 -2.28571
3410.5 10.8571
3411.5 15.8571
3412.5 16.7143
3413.5 12.5714
3414.5 7.42857
3415.5 16.1429
3416.5 6.14286
3417.5 6.71428
3418.5 -1.85714
3419.5 0.571428
3420.5 3.14286
3421.5 8.71429
3422.5 19.7143
3423.5 39.8571
3424.5 36.5714
3425.5 105.857
3426.5 156.286
3427.5 215.143
3428.5 245
3429.5 142.714
3430.5 96.1429
3431.5 35.5714
3432.5 17.7143
3433.5 25.1429
3434.5 -1.14286
3435.5 26.5714
3436.5 14.8571
3437.5 8.85714
3438.5 13
3439.5 5.14286
3440.5 5.71429
3441.5 12.2857
3442.5 -4.14286
3443.5 -8.28572
3444.5 1.14286
3445.5 19.4286
3446.5 15.7143
3447.5 -28.4286
3448.5 7.71428
3449.5 39.1429
3450.5 33.4286
3451.5 64.4286
3452.5 -7.85715
3453.5 8.71428
3454.5 8.71428
3455.5 5.57143
3456.5 0.428571
3457.5 17.4286
3458.5 3.14286
3459.5 -9.57143
3460.5 2.85714
3461.5 2
3462.5 7.57143
3463.5 0.999999
3464.5 -7.28572
3465.5 6
3466.5 5.71428
3467.5 12.7143
3468.5 4.85714
3469.5 8.42857
3470.5 10
3471.5 0.285714
3472.5 14.7143
3473.5 9.14286
3474.5 -3.28571
3475.5 9.28571
3476.5 -4.71429
3477.5 13.2857
3478.5 7.42857
3479.5 -1.57143
3480.5 2.71429
3481.5 20.4286
3482.5 19.7143
3483.5 -3
3484.5 -1.42857
3485.5 1.28571
3486.5 -2.14286
3487.5 10.8571
3488.5 14.8571
3489.5 -12.5714
3490.5 26
3491.5 13.8571
3492.5 -7.42858
3493.5 -23.5714
3494.5 37.4286
3495.5 -0.857144
3496.5 6.57143
3497.5 6.42857
3498.5 4.14286
3499.5 -2.28571
3500.5 3.71429
3501.5 18.7143
3502.5 29.5714
3503.5 7.85714
3504.5 16.4286
3505.5 10.8571
3506.5 28.5714
3507.5 41.4286
3508.5 42.1429
3509.5 39.8571
3510.5 20.2857
3511.5 12.5714
3512.5 11.4286
3513.5 12.2857
3514.5 9.71429
3515.5 11.8571
3516.5 -0.857144
3517.5 11.1429
3518.5 5
3519.5 -6.57143
3520.5 0.571428
3521.5 0.714285
3522.5 -2.14286
3523.5 -1.57143
3524.5 8.14286
3525.5 -2.28571
3526.5 12
3527.5 7.14286
3528.5 17.5714
3529.5 15
3530.5 13.1429
3531.5 4.14286
3532.5 10.8571
3533.5 21.1429
3534.5 -12.5714
3535.5 10.8571
3536.5 10
3537.5 -1.85714
3538.5 6.42857
3539.5 12.5714
3540.5 8.14286
3541.5 -1.71429
3542.5 8.85714
3543.5 7.28571
3544.5 15
3545.5 7
3546.5 7.42857
3547.5 23
3548.5 8
3549.5 12.5714
3550.5 4.42857
3551.5 5.42857
3552.5 3
3553.5 9.57143
3554.5 4.14286
3555.5 13.4286
3556.5 4.57143
3557.5 -0.714286
3558.5 9
3559.5 -6.57143
3560.5 14
3561.5 19.7143
3562.5 -7.85714
3563.5 2.57143
3564.5 -0.428572
3565.5 -1
3566.5 7.28571
3567.5 -12.5714
3568.5 7.14286
3569.5 -10.4286
3570.5 11.5714
3571.5 -0.714286
3572.5 -4.76837e-07
3573.5 -2.28571
3574.5 2.71429
3575.5 -0.714286
3576.5 -9.42857
3577.5 21.1429
3578.5 19.2857
3579.5 6.14286
3580.5 13.7143
3581.5 -7.28572
3582.5 -2.42857
3583.5 10.5714
3584.5 -20.2857
3585.5 23.5714
3586.5 0.571428
3587.5 3.28571
3588.5 13
3589.5 -3
3590.5 2.28571
3591.5 0.571428
3592.5 5.57143
3593.5 4.28571
3594.5 7.28571
3595.5 -6.71429
3596.5 13.7143
3597.5 14.1429
3598.5 -10
3599.5 3.42857
3600.5 1.71429
3601.5 -10.1429
3602.5 -1.14286
3603.5 9.28571
3604.5 -5.85714
3605.5 3.42857
3606.5 25.7143
3607.5 6.85714
3608.5 -0.714286
3609.5 5
3610.5 3.85714
3611.5 10.8571
3612.5 4.28571
3613.5 0.142857
3614.5 -4.28571
3615.5 11.1429
3616.5 21.2857
3617.5 7.85714
3618.5 9.28571
3619.5 26.5714
3620.5 2.85714
3621.5 28.2857
3622.5 34.4286
3623.5 -3.28572
3624.5 13.5714
3625.5 10.2857
3626.5 16
3627.5 1.85714
3628.5 4.85714
3629.5 2
3630.5 -1.14286
3631.5 4
3632.5 4.28571
3633.5 9.28571
3634.5 -3.42857
3635.5 7.42857
3636.5 17
3637.5 14.8571
3638.5 3.42857
3639.5 3.85714
3640.5 10
3641.5 1.28571
3642.5 14.4286
3643.5 2
3644.5 15.2857
3645.5 -16.8571
3646.5 13.5714
3647.5 8.28571
3648.5 2.42857
3649.5 6.28571
3650.5 0.857142
3651.5 14.8571
3652.5 5.71428
3653.5 3.71429
3654.5 10.8571
3655.5 -1.71429
3656.5 -4
3657.5 9.28571
3658.5 8
3659.5 6.28571
3660.5 -1.71429
3661.5 -3.28572
3662.5 10.8571
3663.5 -0.428572
3664.5 18.7143
3665.5 15.4286
3666.5 1.85714
3667.5 17.8571
3668.5 24.7143
3669.5 18
3670.5 38.8571
3671.5 67.8571
3672.5 96.7143
3673.5 60.4286
3674.5 61.1429
3675.5 29.7143
3676.5 33.2857
3677.5 28
3678.5 38
3679.5 16.8571
3680.5 23.2857
3681.5 38.8571
3682.5 54.8571
3683.5 30.7143
3684.5 22.4286
3685.5 9.14286
3686.5 17.2857
3687.5 19.5714
3688.5 6
3689.5 13.8571
3690.5 11.7143
3691.5 6.71429
3692.5 10.2857
3693.5 5.14286
3694.5 7.28571
3695.5 19.2857
3696.5 13.1429
3697.5 7.85714
3698.5 -4.71429
3699.5 -3.14286
3700.5 -2.85714
3701.5 16.1429
3702.5 7.14286
3703.5 -8.42857
3704.5 5
3705.5 -1.42857
3706.5 -1
3707.5 4.71429
3708.5 3.42857
3709.5 19.2857
3710.5 4.28571
3711.5 22.1429
3712.5 -4.14286
3713.5 14
3714.5 1.14286
3715.5 -15.1429
3716.5 8.42857
3717.5 15
3718.5 -0.285715
3719.5 18.1429
3720.5 10.7143
3721.5 -20.2857
3722.5 22.8571
3723.5 15.7143
3724.5 7.28571
3725.5 7.14286
3726.5 21.2857
3727.5 5.85714
3728.5 -2.42857
3729.5 1.57143
3730.5 8.85714
3731.5 2.42857
3732.5 1.85714
3733.5 19.1429
3734.5 -9.71429
3735.5 14.7143
3736.5 5.57143
3737.5 -9.28571
3738.5 10.8571
3739.5 9.85714
3740.5 0.857142
3741.5 3.85714
3742.5 -6.71429
3743.5 5
3744.5 15.2857
3745.5 -1.71429
3746.5 3.57143
3747.5 26
3748.5 -10.2857
3749.5 7.14286
3750.5 10
3751.5 2.85714
3752.5 -0.285715
3753.5 9.71429
3754.5 -6
3755.5 9
3756.5 -0.714287
3757.5 -2.28572
3758.5 10.1429
3759.5 5.42857
3760.5 18.5714
3761.5 1.85714
3762.5 3.85714
3763.5 -2.57143
3764.5 -6.57143
3765.5 8.28571
3766.5 -0.285715
3767.5 -2.57143
3768.5 0.285714
3769.5 7.28571
3770.5 6.42857
3771.5 14.5714
3772.5 -5.14286
3773.5 -0.571429
3774.5 -3.57143
3775.5 20.5714
3776.5 9.42857
3777.5 -7.28571
3778.5 -2
3779.5 14.2857
3780.5 3.28571
3781.5 11.8571
3782.5 -0.571429
3783.5 7
3784.5 15.8571
3785.5 23
3786.5 51.7143
3787.5 9.14286
3788.5 18.7143
3789.5 -4.57143
3790.5 12.5714
3791.5 25.2857
3792.5 12.1429
3793.5 12.8571
3794.5 -0.142858
3795.5 12.1429
3796.5 0.142857
3797.5 1.42857
3798.5 4.85714
3799.5 0.714285
3800.5 7.57143
3801.5 3.28571
3802.5 0.571428
3803.5 -3.85714
3804.5 9.57143
3805.5 6.28571
3806.5 5.14286
3807.5 -12.1429
3808.5 27.5714
3809.5 8.85714
3810.5 14
3811.5 16.1429
3812.5 16.1429
3813.5 10.4286
3814.5 2.71429
3815.5 6.57143
3816.5 7.85714
3817.5 11
3818.5 7.28571
3819.5 3.42857
3820.5 5.28571
3821.5 3
3822.5 5.85714
3823.5 5.57143
3824.5 6.57143
3825.5 10.4286
3826.5 0.857142
3827.5 14.1429
3828.5 3.28571
3829.5 0.714285
3830.5 4.57143
3831.5 12.1429
3832.5 7.14286
3833.5 9.85714
3834.5 4.71429
3835.5 -2.71429
3836.5 3.14286
3837.5 5.42857
3838.5 -4.42857
3839.5 9
3840.5 6.85714
3841.5 11.1429
3842.5 7
3843.5 8.28571
3844.5 15.5714
3845.5 -7.15256e-07
3846.5 6.14286
3847.5 3.28571
3848.5 -0.142858
3849.5 5.42857
3850.5 10.7143
3851.5 -0.428572
3852.5 1.85714
3853.5 10.4286
3854.5 4.57143
3855.5 2.42857
3856.5 9.57143
3857.5 -6.28572
3858.5 -6.42857
3859.5 2.85714
3860.5 13
3861.5 15.4286
3862.5 22.4286
3863.5 -13
3864.5 24.4286
3865.5 10.7143
3866.5 -13.1429
3867.5 -13.2857
3868.5 11.8571
3869.5 1.14286
3870.5 -1.71429
3871.5 10.8571
3872.5 1.42857
3873.5 4.28571
3874.5 -1
3875.5 4.28571
3876.5 -4
3877.5 11.5714
3878.5 -0.142858
3879.5 8.14286
3880.5 8.42857
3881.5 0.857142
3882.5 20.5714
3883.5 8.14286
3884.5 13.5714
3885.5 0.857142
3886.5 -6.71429
3887.5 -2.28571
3888.5 -14.2857
3889.5 6.85714
3890.5 -3.71429
3891.5 3.71429
3892.5 4.28571
3893.5 4.42857
3894.5 1
3895.5 -1.71429
3896.5 -10.5714
3897.5 6
3898.5 8.28571
3899.5 15
3900.5 -10.8571
3901.5 9.42857
3902.5 10
3903.5 1.42857
3904.5 8
3905.5 16.7143
3906.5 13.7143
3907.5 3.71429
3908.5 15.2857
3909.5 14.7143
3910.5 15.4286
3911.5 2.42857
3912.5 -1.28571
3913.5 1.57143
3914.5 2.57143
3915.5 9
3916.5 4
3917.5 18
3918.5 0.428571
3919.5 6.42857
3920.5 5
3921.5 13.5714
3922.5 8.14286
3923.5 15.7143
3924.5 16.7143
3925.5 3.85714
3926.5 0.285713
3927.5 8.14286
3928.5 2.28571
3929.5 0.428571
3930.5 -12.5714
3931.5 -2.14286
3932.5 4.42857
3933.5 2.14286
3934.5 2.42857
3935.5 2
3936.5 9.71429
3937.5 2.28571
3938.5 -3.85714
3939.5 8.14286
3940.5 6.28571
3941.5 2.71429
3942.5 3.42857
3943.5 4.85714
3944.5 -1.57143
3945.5 5.14286
3946.5 2.57143
3947.5 9.42857
3948.5 7.28571
3949.5 7.42857
3950.5 13.5714
3951.5 10.4286
3952.5 6.14286
3953.5 5.28571
3954.5 3.14286
3955.5 -2.85714
3956.5 16
3957.5 17.8571
3958.5 14.1429
3959.5 24.1429
3960.5 8.71429
3961.5 -9.28571
3962.5 1.57143
3963.5 2.57143
3964.5 -0.714286
3965.5 6.71429
3966.5 16.8571
3967.5 -3.14286
3968.5 10.4286
3969.5 14.4286
3970.5 -1.57143
3971.5 0.714284
3972.5 25.4286
3973.5 -2.28572
3974.5 -5.85714
3975.5 8.28571
3976.5 1.42857
3977.5 7
3978.5 5.71429
3979.5 2.85714
3980.5 2.42857
3981.5 7.28571
3982.5 6
3983.5 -5.14286
3984.5 2.71429
3985.5 -6.85714
3986.5 6.71429
3987.5 17.2857
3988.5 2.85714
3989.5 4.85714
3990.5 -4.28571
3991.5 -6.71429
3992.5 -9.85714
3993.5 4.71429
3994.5 0.285714
3995.5 11.4286
3996.5 -1.14286
3997.5 1.85714
3998.5 11.2857
3999.5 8.71429
4000.5 3.42857
4001.5 10.5714
4002.5 4.57143
4003.5 2.42857
4004.5 15.8571
4005.5 -3.71429
4006.5 -3.28571
4007.5 10
4008.5 6.14286
4009.5 -1.85714
4010.5 6
4011.5 -4.28571
4012.5 4.71429
4013.5 15
4014.5 -0.714286
4015.5 11.2857
4016.5 3.28571
4017.5 -1.57143
4018.5 0.571428
4019.5 8.42857
4020.5 10
4021.5 -0.428572
4022.5 15.4286
4023.5 4.28571
4024.5 -4
4025.5 -2.57143
4026.5 15.4286
4027.5 4.14286
4028.5 3.71429
4029.5 -3.14286
4030.5 6
4031.5 -3.42857
4032.5 -1
4033.5 -1.14286
4034.5 5
4035.5 -0.285715
4036.5 -1.42857
4037.5 7.71429
4038.5 -0.571429
4039.5 7.42857
4040.5 5.14286
4041.5 11.4286
4042.5 5.28571
4043.5 7.85714
4044.5 0.857142
4045.5 10
4046.5 7.57143
4047.5 8
4048.5 9.28571
4049.5 5.42857
4050.5 3
4051.5 3.85714
4052.5 2.28571
4053.5 4.85714
4054.5 11.4286
4055.5 1.71429
4056.5 11
4057.5 13.7143
4058.5 1.57143
4059.5 20.7143
4060.5 3
4061.5 -1
4062.5 10.5714
4063.5 3.28571
4064.5 12.2857
4065.5 7
4066.5 -6.71429
4067.5 -3
4068.5 7.57143
4069.5 15.4286
4070.5 11.5714
4071.5 1.42857
4072.5 -5
4073.5 -5.71429
4074.5 0.428571
4075.5 17
4076.5 8.28571
4077.5 12.8571
4078.5 2.28571
4079.5 14.5714
4080.5 -3.14286
4081.5 7.85714
4082.5 9.42857
4083.5 9
4084.5 4
4085.5 10.2857
4086.5 3
4087.5 20.2857
4088.5 -5
4089.5 -10.4286
4090.5 14.5714
4091.5 16.1429
4092.5 11.5714
4093.5 6.57143
4094.5 5.85714
4095.5 -1
4096.5 6.71429
4097.5 2.28571
4098.5 -7.28571
4099.5 1.57143
4100.5 0.142857
4101.5 8
4102.5 10.4286
4103.5 8.71429
4104.5 10.1429
4105.5 0.285714
4106.5 -1.14286
4107.5 9.85714
4108.5 8.57143
4109.5 -0.142858
4110.5 20
4111.5 9
4112.5 -1.28571
4113.5 8
4114.5 -11.7143
4115.5 7.71429
4116.5 -1.14286
4117.5 3.57143
4118.5 10.2857
4119.5 -0.571429
4120.5 5.42857
4121.5 3.28571
4122.5 -4.57143
4123.5 4.14286
4124.5 8.57143
4125.5 7.42857
4126.5 13.7143
4127.5 -3.14286
4128.5 1.28571
4129.5 5.14286
4130.5 -3.42857
4131.5 3
4132.5 7.85714
4133.5 16.4286
4134.5 14.5714
4135.5 7.71429
4136.5 9.71429
4137.5 -2.28571
4138.5 11.2857
4139.5 -5.28571
4140.5 14.7143
4141.5 10.1429
4142.5 8.85714
4143.5 10
4144.5 6.14286
4145.5 -4.71429
4146.5 -2.14286
4147.5 10.4286
4148.5 -1.85714
4149.5 -1
4150.5 -1.57143
4151.5 2.28571
4152.5 8.57143
4153.5 -2.14286
4154.5 4.42857
4155.5 -0.714286
4156.5 4.57143
4157.5 10.2857
4158.5 3.85714
4159.5 4
4160.5 -2.28571
4161.5 4
4162.5 1.57143
4163.5 5.71429
4164.5 3
4165.5 -3.71429
4166.5 8
4167.5 0.428571
4168.5 -23.4286
4169.5 16.5714
4170.5 11.1429
4171.5 -1.42857
4172.5 5.14286
4173.5 7.14286
4174.5 -7.14286
4175.5 7.71429
4176.5 5.14286
4177.5 10.8571
4178.5 6.14286
4179.5 7
4180.5 11.8571
4181.5 15.4286
4182.5 8
4183.5 9.42857
4184.5 8.28571
4185.5 13.8571
4186.5 10.4286
4187.5 17.7143
4188.5 6.85714
4189.5 -0.142858
4190.5 12
4191.5 14.8571
4192.5 7.14286
4193.5 6.14286
4194.5 3.28571
4195.5 7.28571
4196.5 7
4197.5 8.71429
4198.5 1.85714
4199.5 23.1429
4200.5 -0.857143
4201.5 -1.57143
4202.5 4.14286
4203.5 -1
4204.5 -2.28571
4205.5 -3
4206.5 -1
4207.5 2.71429
4208.5 7.57143
4209.5 -0.714286
4210.5 -5
4211.5 10.5714
4212.5 0.857142
4213.5 6.57143
4214.5 7.28571
4215.5 1.28571
4216.5 19.1429
4217.5 -1.28572
4218.5 -10.5714
4219.5 -6.28572
4220.5 5.71429
4221.5 9
4222.5 1.57143
4223.5 -5.14286
4224.5 6.71429
4225.5 -7
4226.5 4
4227.5 3.42857
4228.5 0.142857
4229.5 2.57143
4230.5 11.4286
4231.5 -6.14286
4232.5 6.42857
4233.5 10.8571
4234.5 -2.71429
4235.5 0.571428
4236.5 7.85714
4237.5 4
4238.5 4.71429
4239.5 10
4240.5 9.57143
4241.5 12.2857
4242.5 7.28571
4243.5 4.71429
4244.5 -7.14286
4245.5 -0.571429
4246.5 -11.1429
4247.5 -10.7143
4248.5 -12.1429
4249.5 -18.1429
4250.5 -14.1429
4251.5 13.5714
4252.5 3.85714
4253.5 -3.42857
4254.5 5.42857
4255.5 -1.85714
4256.5 10.4286
4257.5 -10.2857
4258.5 -1.57143
4259.5 -8
4260.5 4.57143
4261.5 -1.57143
4262.5 -3.85714
4263.5 -6.42857
4264.5 9.71429
4265.5 -6.85714
4266.5 -4.57143
4267.5 16.2857
4268.5 9.42857
4269.5 2.57143
4270.5 15
4271.5 5.85714
4272.5 1.71429
4273.5 5.57143
4274.5 -0.714286
4275.5 8.85714
4276.5 -3.71429
4277.5 3
4278.5 2.42857
4279.5 5
4280.5 3
4281.5 8.14286
4282.5 -5
4283.5 9.42857
4284.5 6.28571
4285.5 9.85714
4286.5 2.85714
4287.5 6.71429
4288.5 4
4289.5 13.4286
4290.5 14.5714
4291.5 17.1429
4292.5 21.8571
4293.5 31.8571
4294.5 40.4286
4295.5 57.7143
4296.5 69.1429
4297.5 51.7143
4298.5 43.8571
4299.5 37.5714
4300.5 27.2857
4301.5 8.85714
4302.5 3.57143
4303.5 2.42857
4304.5 11
4305.5 -6.57143
4306.5 4.57143
4307.5 10.4286
4308.5 7.42857
4309.5 4.42857
4310.5 1
4311.5 8.85714
4312.5 6.71429
4313.5 6.57143
4314.5 2.71429
4315.5 -1.57143
4316.5 4.57143
4317.5 0.142857
4318.5 7.57143
4319.5 4.28571
4320.5 1.14286
4321.5 13.8571
4322.5 0.428571
4323.5 6.57143
4324.5 5.85714
4325.5 -6.28571
4326.5 6.85714
4327.5 -3.28571
4328.5 0.571428
4329.5 6
4330.5 19.4286
4331.5 4.57143
4332.5 1.85714
4333.5 14.4286
4334.5 2.14286
4335.5 5.85714
4336.5 7.28571
4337.5 9.42857
4338.5 6.42857
4339.5 9.85714
4340.5 18.8571
4341.5 -7.71429
4342.5 4.42857
4343.5 1.71429
4344.5 2.42857
4345.5 10.7143
4346.5 8.57143
4347.5 1.71429
4348.5 6.14286
4349.5 8.42857
4350.5 0.714285
4351.5 2.14286
4352.5 7
4353.5 10
4354.5 1
4355.5 -0.857143
4356.5 5.57143
4357.5 -5
4358.5 -4.42857
4359.5 -0.714286
4360.5 3.42857
4361.5 -1.85714
4362.5 -0.714286
4363.5 0.142857
4364.5 7.71429
4365.5 -0.428572
4366.5 1.14286
4367.5 6
4368.5 8.85714
4369.5 -2.28571
4370.5 6.14286
4371.5 -13.7143
4372.5 8.57143
4373.5 7.42857
4374.5 0.714285
4375.5 9
4376.5 10.4286
4377.5 11.4286
4378.5 -0.714286
4379.5 2.71429
4380.5 9
4381.5 14.2857
4382.5 15
4383.5 9.42857
4384.5 11.2857
4385.5 13.5714
4386.5 -1.14286
4387.5 14.2857
4388.5 9
4389.5 1.28571
4390.5 24.7143
4391.5 3.85714
4392.5 19.5714
4393.5 17.8571
4394.5 6.57143
4395.5 13.7143
4396.5 -4.76837e-07
4397.5 5.42857
4398.5 -2.42857
4399.5 15.7143
4400.5 5.42857
4401.5 -3.28571
4402.5 5.85714
4403.5 16.1429
4404.5 18.1429
4405.5 10.4286
4406.5 0.714285
4407.5 -0.571429
4408.5 11.4286
4409.5 13.7143
4410.5 10.4286
4411.5 8.85714
4412.5 -0.857143
4413.5 12.7143
4414.5 8.71429
4415.5 5.57143
4416.5 7.28571
4417.5 2
4418.5 2.57143
4419.5 -0.428572
4420.5 11
4421.5 13.7143
4422.5 2.42857
4423.5 1
4424.5 5.42857
4425.5 7.42857
4426.5 8.85714
4427.5 10.2857
4428.5 7.14286
4429.5 10.1429
4430.5 8.28571
4431.5 -9.14286
4432.5 5.71429
4433.5 9
4434.5 16.2857
4435.5 10.4286
4436.5 2
4437.5 12.2857
4438.5 8.14286
4439.5 10.7143
4440.5 9.42857
4441.5 8.14286
4442.5 2.71429
4443.5 6.28571
4444.5 10.2857
4445.5 2
4446.5 -2.38419e-07
4447.5 2.85714
4448.5 9.28571
4449.5 11.2857
4450.5 3.57143
4451.5 5.57143
4452.5 1.14286
4453.5 3.28571
4454.5 -5.42857
4455.5 -1.28571
4456.5 8
4457.5 17.7143
4458.5 6.14286
4459.5 -0.285715
4460.5 15.2857
4461.5 13.2857
4462.5 4.28571
4463.5 3.85714
4464.5 -1.28571
4465.5 2
4466.5 8.57143
4467.5 9.28571
4468.5 1.85714
4469.5 8
4470.5 4.85714
4471.5 14.1429
4472.5 6.71429
4473.5 10.4286
4474.5 13.4286
4475.5 13.2857
4476.5 2
4477.5 12
4478.5 2.85714
4479.5 -1.42857
4480.5 6.85714
4481.5 8.85714
4482.5 0.571428
4483.5 -2.85714
4484.5 4.85714
4485.5 15.8571
4486.5 6.42857
4487.5 8
4488.5 8.28571
4489.5 11.7143
4490.5 3.85714
4491.5 -6
4492.5 3.14286
4493.5 17.1429
4494.5 6.28571
4495.5 8.85714
4496.5 8.28571
4497.5 3.14286
4498.5 5.42857
4499.5 -4.28571
4500.5 4.14286
4501.5 13.8571
4502.5 -7.28572
4503.5 -4.85714
4504.5 2.57143
4505.5 5.57143
4506.5 1
4507.5 11.1429
4508.5 6.42857
4509.5 7.14286
4510.5 6.28571
4511.5 7.85714
4512.5 -0.428572
4513.5 3.85714
4514.5 10.7143
4515.5 4
4516.5 8.28571
4517.5 -0.142857
4518.5 -0.428572
4519.5 9.85714
4520.5 -0.285714
4521.5 7.42857
4522.5 4.42857
4523.5 10.8571
4524.5 10.1429
4525.5 8.71429
4526.5 8
4527.5 -1.14286
4528.5 8.85714
4529.5 4.85714
4530.5 9.85714
4531.5 8.71429
4532.5 3.42857
4533.5 -0.857143
4534.5 -0.142857
4535.5 -6.71429
4536.5 9.28571
4537.5 8.42857
4538.5 14.2857
4539.5 3
4540.5 0.857143
4541.5 8.42857
4542.5 7.85714
4543.5 3.42857
4544.5 -5.14286
4545.5 11.5714
4546.5 10.7143
4547.5 11.2857
4548.5 9.57143
4549.5 7
4550.5 5.57143
4551.5 15.2857
4552.5 7.85714
4553.5 0.142857
4554.5 5.14286
4555.5 11.4286
4556.5 10.4286
4557.5 12.2857
4558.5 8.14286
4559.5 2.14286
4560.5 10.7143
4561.5 19.2857
4562.5 4
4563.5 5
4564.5 7.71429
4565.5 7.28571
4566.5 -3
4567.5 11
4568.5 9.42857
4569.5 12.8571
4570.5 8.42857
4571.5 8.42857
4572.5 -3.85714
4573.5 3.42857
4574.5 7.85714
4575.5 20.5714
4576.5 -19.5714
4577.5 -15.2857
4578.5 10.4286
4579.5 -2
4580.5 10.4286
4581.5 9.28571
4582.5 5.14286
4583.5 -2.28571
4584.5 10.2857
4585.5 3
4586.5 6.42857
4587.5 3.57143
4588.5 -0.571429
4589.5 -1
4590.5 9.28571
4591.5 10.2857
4592.5 13.8571
4593.5 10.4286
4594.5 3
4595.5 13.7143
4596.5 9
4597.5 11.1429
4598.5 1.14286
4599.5 2.42857
4600.5 9.85714
4601.5 4.85714
4602.5 -1.71429
4603.5 11.2857
4604.5 7.14286
4605.5 9.85714
4606.5 3.42857
4607.5 -2.85714
4608.5 5.71429
4609.5 9
4610.5 11.8571
4611.5 2.85714
4612.5 2.71429
4613.5 12.1429
4614.5 9.28571
4615.5 7.57143
4616.5 29.7143
4617.5 9.71428
4618.5 7.85714
4619.5 -4.28572
4620.5 12.8571
4621.5 9.71428
4622.5 8.71428
4623.5 -10.1429
4624.5 18.1429
4625.5 25
4626.5 32.2857
4627.5 18.4286
4628.5 3.28571
4629.5 0.571428
4630.5 0.571428
4631.5 8.28571
4632.5 7.28571
4633.5 17.2857
4634.5 7.28571
4635.5 8.14286
4636.5 1.42857
4637.5 7
4638.5 6.85714
4639.5 13.7143
4640.5 8.85714
4641.5 5.85714
4642.5 4.42857
4643.5 7.85714
4644.5 2.71429
4645.5 7.42857
4646.5 0.571428
4647.5 9.57143
4648.5 -2.28572
4649.5 18.2857
4650.5 -20
4651.5 -0.57143
4652.5 7
4653.5 -3.28572
4654.5 9.28571
4655.5 11.2857
4656.5 5.85714
4657.5 -5.28571
4658.5 -2.28571
4659.5 -0.571429
4660.5 -0.428572
4661.5 12.7143
4662.5 0.285714
4663.5 5.28571
4664.5 3.71429
4665.5 11.5714
4666.5 4.14286
4667.5 6.28571
4668.5 0.857143
4669.5 10.7143
4670.5 8.57143
4671.5 13.1429
4672.5 10.7143
4673.5 -2
4674.5 0.857143
4675.5 10.5714
4676.5 -0.571429
4677.5 9.28571
4678.5 10.5714
4679.5 -2
4680.5 8.42857
4681.5 6
4682.5 3.14286
4683.5 5
4684.5 6.14286
4685.5 2.14286
4686.5 0.857142
4687.5 -3.14286
4688.5 -2.57143
4689.5 -4.28571
4690.5 8.71429
4691.5 11.5714
4692.5 -2.85714
4693.5 5.71429
4694.5 6.71429
4695.5 9.14286
4696.5 9.57143
4697.5 13.1429
4698.5 3.42857
4699.5 5.42857
4700.5 6.71429
4701.5 9.14286
4702.5 9.28571
4703.5 6.71429
4704.5 6.14286
4705.5 2.85714
4706.5 0.428571
4707.5 2.85714
4708.5 6.14286
4709.5 1.85714
4710.5 12.5714
4711.5 4.85714
4712.5 9.57143
4713.5 0.571428
4714.5 1.85714
4715.5 -6.42857
4716.5 8.28571
4717.5 6.28571
4718.5 -0.142857
4719.5 -0.571429
4720.5 4.42857
4721.5 8.28571
4722.5 2.28571
4723.5 8
4724.5 7.85714
4725.5 1.85714
4726.5 6
4727.5 -1.57143
4728.5 -4.42857
4729.5 2
4730.5 5.42857
4731.5 3.28571
4732.5 5.42857
4733.5 -1.14286
4734.5 -3.57143
4735.5 -1.85714
4736.5 2
4737.5 5.28571
4738.5 1.71429
4739.5 3.71429
4740.5 11
4741.5 2.14286
4742.5 5.71429
4743.5 1.85714
4744.5 3
4745.5 2.85714
4746.5 11.1429
4747.5 3.85714
4748.5 2
4749.5 3.42857
4750.5 -2.42857
4751.5 6.42857
4752.5 6.85714
4753.5 3.57143
4754.5 2.42857
4755.5 6.57143
4756.5 8.14286
4757.5 -2.38419e-07
4758.5 1.42857
4759.5 3.85714
4760.5 -1.57143
4761.5 6.14286
4762.5 9.28571
4763.5 11
4764.5 1.28571
4765.5 14
4766.5 5.85714
4767.5 4.14286
4768.5 10.1429
4769.5 13.7143
4770.5 -2.85714
4771.5 -2.14286
4772.5 5.42857
4773.5 3.85714
4774.5 9.28571
4775.5 -0.285715
4776.5 -4
4777.5 9
4778.5 -1.14286
4779.5 3.85714
4780.5 4.85714
4781.5 13.1429
4782.5 8.14286
4783.5 5.85714
4784.5 2.85714
4785.5 -2.42857
4786.5 0.428571
4787.5 6.28571
4788.5 -5.42857
4789.5 -2.38419e-07
4790.5 -4.42857
4791.5 -2.42857
4792.5 -5.57143
4793.5 6.85714
4794.5 2
4795.5 0.857143
4796.5 -0.142857
4797.5 13.1429
4798.5 0.857143
4799.5 5.42857
4800.5 3
4801.5 12.2857
4802.5 18.5714
4803.5 38.4286
4804.5 77.5714
4805.5 119.286
4806.5 162.857
4807.5 175.286
4808.5 126.571
4809.5 99.7143
4810.5 56
4811.5 20.5714
4812.5 10.7143
4813.5 6.28571
4814.5 5.57143
4815.5 15.1429
4816.5 10.8571
4817.5 0.428571
4818.5 6.28571
4819.5 0.857143
4820.5 9.71429
4821.5 6.57143
4822.5 3.85714
4823.5 5.14286
4824.5 1.14286
4825.5 1.28571
4826.5 -0.714286
4827.5 6.71429
4828.5 0.857143
4829.5 7.71429
4830.5 -0.428571
4831.5 -0.142857
4832.5 -0.142857
4833.5 6.57143
4834.5 -4.85714
4835.5 -9.71429
4836.5 4.85714
4837.5 -0.142857
4838.5 7.14286
4839.5 -1.14286
4840.5 -4.42857
4841.5 -0.285714
4842.5 -0.571429
4843.5 -1.42857
4844.5 9.71429
4845.5 4.42857
4846.5 6.42857
4847.5 5.42857
4848.5 3.85714
4849.5 10.5714
4850.5 8.57143
4851.5 2.42857
4852.5 -4.14286
4853.5 -4.71429
4854.5 1.42857
4855.5 3.85714
4856.5 1.57143
4857.5 10.7143
4858.5 5.14286
4859.5 4.14286
4860.5 2.71429
4861.5 -5.42857
4862.5 4.14286
4863.5 5.28571
4864.5 -0.571429
4865.5 8.28571
4866.5 -0.857143
4867.5 -18.5714
4868.5 -23
4869.5 -17.2857
4870.5 -15.1429
4871.5 -5.14286
4872.5 -16.7143
4873.5 -18.1429
4874.5 -14
4875.5 0.285714
4876.5 0.142857
4877.5 4.28571
4878.5 -0.714286
4879.5 0.714286
4880.5 1.28571
4881.5 0.428571
4882.5 -0.285714
4883.5 0.857143
4884.5 0.857143
4885.5 4.14286
4886.5 12.1429
4887.5 6.28571
4888.5 -1
4889.5 -3.42857
4890.5 2.85714
4891.5 5.28571
4892.5 5.71429
4893.5 3.42857
4894.5 -1.14286
4895.5 4.57143
4896.5 1.28571
4897.5 12.1429
4898.5 1.71429
4899.5 7.14286
4900.5 -2.85714
4901.5 2.42857
4902.5 14.7143
4903.5 13.7143
4904.5 -2.28571
4905.5 4.71429
4906.5 18
4907.5 9.71429
4908.5 11.5714
4909.5 4
4910.5 1.71429
4911.5 -0.571429
4912.5 4.14286
4913.5 8.71429
4914.5 1.28571
4915.5 0.285714
4916.5 1.42857
4917.5 -2
4918.5 2.28571
4919.5 3.28571
4920.5 0.285714
4921.5 0.142857
4922.5 5.14286
4923.5 1.71429
4924.5 5.71429
4925.5 1.14286
4926.5 10.1429
4927.5 1.28571
4928.5 6.14286
4929.5 7.14286
4930.5 3.28571
4931.5 7.71429
4932.5 -0.714286
4933.5 1.85714
4934.5 4.28571
4935.5 1.71429
4936.5 3.14286
4937.5 9.28571
4938.5 5.14286
4939.5 0.714286
4940.5 1.28571
4941.5 -1.57143
4942.5 5.71429
4943.5 5.14286
4944.5 0.857143
4945.5 1.71429
4946.5 1.85714
4947.5 2.71429
4948.5 8.14286
4949.5 1.71429
4950.5 9.71429
4951.5 -0.142857
4952.5 3.14286
4953.5 4.85714
4954.5 4.14286
4955.5 7.57143
4956.5 3.57143
4957.5 3.71429
4958.5 5.14286
4959.5 -1
4960.5 -0.285714
4961.5 10.5714
4962.5 -3
4963.5 -5.57143
4964.5 4.57143
4965.5 1.57143
4966.5 6.28571
4967.5 -4.71429
4968.5 2.42857
4969.5 -5.28571
4970.5 7.14286
4971.5 -3.14286
4972.5 -3.57143
4973.5 3.57143
4974.5 1.28571
4975.5 9.14286
4976.5 6.14286
4977.5 3.14286
4978.5 12.5714
4979.5 3.42857
4980.5 7.14286
4981.5 -0.142857
4982.5 3.71429
4983.5 1.71429
4984.5 3.85714
4985.5 2.71429
4986.5 7.14286
4987.5 9.57143
4988.5 9.14286
4989.5 14.5714
4990.5 1.28571
4991.5 4.71429
4992.5 4.85714
4993.5 9.57143
4994.5 8.14286
4995.5 6.71429
4996.5 3.14286
4997.5 6.57143
4998.5 0.285714
4999.5 3.42857
5000.5 -0.571429
5001.5 5.85714
5002.5 4.85714
5003.5 12.7143
5004.5 5.71429
5005.5 6.57143
5006.5 10
5007.5 0.285714
5008.5 2.57143
5009.5 12
5010.5 3.85714
5011.5 3.28571
5012.5 0.714286
5013.5 4.14286
5014.5 8.71429
5015.5 1.71429
5016.5 1.71429
5017.5 5.28571
5018.5 7.57143
5019.5 3.71429
5020.5 1.71429
5021.5 2.14286
5022.5 11.7143
5023.5 5.71429
5024.5 5
5025.5 9.14286
5026.5 10.5714
5027.5 8.57143
5028.5 -1.57143
5029.5 4.42857
5030.5 4.14286
5031.5 5.14286
5032.5 -1.14286
5033.5 5.71429
5034.5 2.57143
5035.5 8.14286
5036.5 2.71429
5037.5 10
5038.5 -0.714286
5039.5 -5
5040.5 7.14286
5041.5 3.28571
5042.5 0.285714
5043.5 7.71429
5044.5 4.71429
5045.5 -5
5046.5 -3.71429
5047.5 6.14286
5048.5 2.14286
5049.5 6.28571
5050.5 2.71429
5051.5 6.57143
5052.5 2.57143
5053.5 1.85714
5054.5 7
5055.5 5.71429
5056.5 1.71429
5057.5 4.28571
5058.5 8.57143
5059.5 5.57143
5060.5 1.28571
5061.5 7.71429
5062.5 -0.142857
5063.5 -1
5064.5 16.8571
5065.5 6
5066.5 3.85714
5067.5 4.14286
5068.5 1.28571
5069.5 2.85714
5070.5 3.42857
5071.5 7.28571
5072.5 10.2857
5073.5 2.28571
5074.5 4.71429
5075.5 6.14286
5076.5 1.85714
5077.5 4.14286
5078.5 6.57143
5079.5 4.71429
5080.5 2.42857
5081.5 -2.42857
5082.5 7.28571
5083.5 7.57143
5084.5 9.71429
5085.5 7.14286
5086.5 0.428571
5087.5 6.57143
5088.5 4.71429
5089.5 3.14286
5090.5 10.5714
5091.5 4.85714
5092.5 12
5093.5 1.28571
5094.5 7.14286
5095.5 -0.285714
5096.5 -1.14286
5097.5 6.14286
5098.5 6.85714
5099.5 -2.14286
5100.5 4.85714
5101.5 2.71429
5102.5 5.71429
5103.5 -2.38419e-07
5104.5 9.14286
5105.5 2.28571
5106.5 11
5107.5 9
5108.5 1.28571
5109.5 1.28571
5110.5 1.57143
5111.5 1.42857
5112.5 2.71429
5113.5 -7.42857
5114.5 2.42857
5115.5 -2.42857
5116.5 -2.38419e-07
5117.5 7.28571
5118.5 12.7143
5119.5 4.85714
5120.5 0.285714
5121.5 0.857143
5122.5 5.28571
5123.5 -1.57143
5124.5 7.14286
5125.5 2.28571
5126.5 6
5127.5 -0.714286
5128.5 4.57143
5129.5 5.71429
5130.5 6.14286
5131.5 2.14286
5132.5 8.14286
5133.5 5.71429
5134.5 4.71429
5135.5 0.142857
5136.5 1.28571
5137.5 1.28571
5138.5 -1.28571
5139.5 -0.142857
5140.5 2.71429
5141.5 7.57143
5142.5 2.71429
5143.5 4.14286
5144.5 3.71429
5145.5 4.57143
5146.5 9.57143
5147.5 5.57143
5148.5 4.14286
5149.5 6.14286
5150.5 1.71429
5151.5 0.142857
5152.5 7.57143
5153.5 7.57143
5154.5 0.714286
5155.5 0.714286
5156.5 7.57143
5157.5 -0.142857
5158.5 5.28571
5159.5 2
5160.5 7.71429
5161.5 -3.42857
5162.5 8.28571
5163.5 -5.42857
5164.5 -4.85714
5165.5 5
5166.5 -2.71429
5167.5 8.85714
5168.5 3.85714
5169.5 1.28571
5170.5 2.71429
5171.5 2.57143
5172.5 2.14286
5173.5 4.57143
5174.5 6.57143
5175.5 5
5176.5 2.57143
5177.5 -4.57143
5178.5 3.71429
5179.5 3.57143
5180.5 9
5181.5 6.57143
5182.5 4.71429
5183.5 4
5184.5 9
5185.5 -1.28571
5186.5 1.57143
5187.5 -2.14286
5188.5 2.28571
5189.5 4.14286
5190.5 1.85714
5191.5 -1.14286
5192.5 3.85714
5193.5 9.85714
5194.5 10.4286
5195.5 3.14286
5196.5 -0.285715
5197.5 8.28571
5198.5 -4.85714
5199.5 6.28571
5200.5 3.28571
5201.5 2.14286
5202.5 8.28571
5203.5 7.57143
5204.5 3.71429
5205.5 5.57143
5206.5 3.71429
5207.5 -3.71429
5208.5 4.14286
5209.5 5.57143
5210.5 13
5211.5 5.71429
5212.5 2.14286
5213.5 0.714286
5214.5 11.5714
5215.5 2.57143
5216.5 5.71429
5217.5 -2.57143
5218.5 8.57143
5219.5 4.57143
5220.5 -0.857143
5221.5 5.57143
5222.5 9.57143
5223.5 3.71429
5224.5 -2.71429
5225.5 4.71429
5226.5 6.14286
5227.5 5.57143
5228.5 -0.714286
5229.5 9
5230.5 8.14286
5231.5 5.71429
5232.5 8
5233.5 7.57143
5234.5 6.14286
5235.5 9.14286
5236.5 7.71429
5237.5 6.71429
5238.5 4.14286
5239.5 4.42857
5240.5 3.71429
5241.5 1
5242.5 12.5714
5243.5 -5
5244.5 7.14286
5245.5 7.28571
5246.5 5.71429
5247.5 1.71429
5248.5 9
5249.5 9.14286
5250.5 7.57143
5251.5 1.71429
5252.5 -0.142857
5253.5 7.57143
5254.5 2.14286
5255.5 3.14286
5256.5 7.57143
5257.5 5.71429
5258.5 1.57143
5259.5 6.14286
5260.5 9.14286
5261.5 2.28571
5262.5 -1.14286
5263.5 9.14286
5264.5 1.42857
5265.5 2.42857
5266.5 7.14286
5267.5 9.28571
5268.5 1.85714
5269.5 3.71429
5270.5 8.14286
5271.5 3.14286
5272.5 7.14286
5273.5 11.1429
5274.5 6.28571
5275.5 4
5276.5 8.14286
5277.5 7.57143
5278.5 4.57143
5279.5 6.57143
5280.5 3.71429
5281.5 4.57143
5282.5 -1.57143
5283.5 7.14286
5284.5 8
5285.5 -0.142857
5286.5 6.71429
5287.5 -4.85714
5288.5 4.42857
5289.5 8.28571
5290.5 3.85714
5291.5 8.14286
5292.5 7
5293.5 11.2857
5294.5 3.57143
5295.5 8
5296.5 1.42857
5297.5 8.14286
5298.5 0.714286
5299.5 8.14286
5300.5 -4
5301.5 2.28571
5302.5 -10.1429
5303.5 -8.71429
5304.5 -8.28571
5305.5 -0.857143
5306.5 4.28571
5307.5 6.14286
5308.5 5.71429
5309.5 2.57143
5310.5 2.14286
5311.5 10
5312.5 4.14286
5313.5 8.57143
5314.5 3.57143
5315.5 6.14286
5316.5 8
5317.5 10
5318.5 9
5319.5 12
5320.5 6.57143
5321.5 7.14286
5322.5 6
5323.5 5.14286
5324.5 11.1429
5325.5 9
5326.5 6
5327.5 6.57143
5328.5 0.714286
5329.5 7.57143
5330.5 7.57143
5331.5 -3.14286
5332.5 6.71429
5333.5 5
5334.5 -1.57143
5335.5 4.57143
5336.5 0.714286
5337.5 7
5338.5 3.71429
5339.5 6
5340.5 0.714286
5341.5 0.571429
5342.5 8
5343.5 7.71429
5344.5 6.14286
5345.5 2.28571
5346.5 -2.85714
5347.5 1.85714
5348.5 3.42857
5349.5 -2.85714
5350.5 -9
5351.5 -2.38419e-07
5352.5 -2
5353.5 -0.571429
5354.5 0.714285
5355.5 4.14286
5356.5 -7.71429
5357.5 -1.42857
5358.5 9.85714
5359.5 7.28571
5360.5 7.57143
5361.5 8.57143
5362.5 4.57143
5363.5 9
5364.5 0.142857
5365.5 11
5366.5 6.14286
5367.5 5.57143
5368.5 0.714286
5369.5 4
5370.5 -1.71429
5371.5 16.1429
5372.5 7.57143
5373.5 3.57143
5374.5 -0.285714
5375.5 9.57143
5376.5 9.57143
5377.5 1.57143
5378.5 2.14286
5379.5 8.14286
5380.5 9.14286
5381.5 5.14286
5382.5 1.57143
5383.5 7.57143
5384.5 10
5385.5 10
5386.5 6.57143
5387.5 8.57143
5388.5 1.57143
5389.5 6.57143
5390.5 10.1429
5391.5 6.14286
5392.5 9.71429
5393.5 10
5394.5 10.1429
5395.5 5.85714
5396.5 8.85714
5397.5 11.2857
5398.5 8.57143
5399.5 3.28571
5400.5 -5.14286
5401.5 4.14286
5402.5 2.14286
5403.5 8.57143
5404.5 8
5405.5 7.14286
5406.5 8
5407.5 4
5408.5 8.14286
5409.5 2.57143
5410.5 1.28571
5411.5 5.57143
5412.5 8.57143
5413.5 6.57143
5414.5 6.57143
5415.5 6.57143
5416.5 5
5417.5 7.14286
5418.5 4.14286
5419.5 9.14286
5420.5 8.57143
5421.5 8
5422.5 2.14286
5423.5 11.1429
5424.5 0.714286
5425.5 3.28571
5426.5 7
5427.5 4.57143
5428.5 2.14286
5429.5 2.71429
5430.5 9
5431.5 1.57143
5432.5 8.57143
5433.5 3.57143
5434.5 6.57143
5435.5 4.57143
5436.5 5
5437.5 3.14286
5438.5 2.71429
5439.5 10.1429
5440.5 4.14286
5441.5 4.57143
5442.5 4.14286
5443.5 3.57143
5444.5 10
5445.5 6.57143
5446.5 4
5447.5 3.14286
5448.5 8.14286
5449.5 3.28571
5450.5 2.28571
5451.5 17.5714
5452.5 12.1429
5453.5 12.7143
5454.5 33.1429
5455.5 47
5456.5 81.5714
5457.5 107.714
5458.5 109.143
5459.5 72.2857
5460.5 51.5714
5461.5 21.5714
5462.5 14.5714
5463.5 12.1429
5464.5 9.57143
5465.5 9
5466.5 3.28571
5467.5 11.5714
5468.5 8
5469.5 7.14286
5470.5 5.57143
5471.5 8.14286
5472.5 10.7143
5473.5 3.71429
5474.5 10.1429
5475.5 10.7143
5476.5 7.14286
5477.5 7.57143
5478.5 14.5714
5479.5 9.14286
5480.5 8
5481.5 9.57143
5482.5 5.14286
5483.5 8.57143
5484.5 9.71429
5485.5 7.57143
5486.5 16
5487.5 4.71429
5488.5 13.1429
5489.5 8.71429
5490.5 9.14286
5491.5 8.71429
5492.5 10
5493.5 5.14286
5494.5 5
5495.5 10.5714
5496.5 6.57143
5497.5 4.57143
5498.5 8.14286
5499.5 4.71429
5500.5 5.14286
5501.5 4.57143
5502.5 5.71429
5503.5 7.14286
5504.5 16.5714
5505.5 3.28571
5506.5 12.5714
5507.5 10.2857
5508.5 4.14286
5509.5 15.5714
5510.5 8.57143
5511.5 3.71429
5512.5 13.5714
5513.5 13.1429
5514.5 7.57143
5515.5 8.14286
5516.5 3.28571
5517.5 7.14286
5518.5 12.4286
5519.5 7.57143
5520.5 11.1429
5521.5 7.57143
5522.5 8.71429
5523.5 16.5714
5524.5 9.57143
5525.5 6.14286
5526.5 7.57143
5527.5 2.85714
5528.5 6.14286
5529.5 4.14286
5530.5 16.5714
5531.5 14.5714
5532.5 9.14286
5533.5 6.85714
5534.5 7.71429
5535.5 19.7143
5536.5 13.2857
5537.5 3
5538.5 5.57143
5539.5 17.5714
5540.5 17.5714
5541.5 7.14286
5542.5 12.1429
5543.5 12.5714
5544.5 10
5545.5 11.1429
5546.5 9
5547.5 10.7143
5548.5 9
5549.5 10.5714
5550.5 4.28571
5551.5 10.5714
5552.5 7.14286
5553.5 2.57143
5554.5 11.5714
5555.5 14.1429
5556.5 14
5557.5 9.14286
5558.5 7.57143
5559.5 5.14286
5560.5 9.14286
5561.5 14.5714
5562.5 13.1429
5563.5 14.5714
5564.5 11.5714
5565.5 12.1429
5566.5 4.57143
5567.5 8.57143
5568.5 19.5714
5569.5 15
5570.5 12
5571.5 9
5572.5 8.14286
5573.5 5.14286
5574.5 6.14286
5575.5 5.57143
5576.5 4.14286
5577.5 8.57143
5578.5 13.5714
5579.5 7.14286
5580.5 17.7143
5581.5 16.5714
5582.5 12.7143
5583.5 8.14286
5584.5 16.1429
5585.5 13.1429
5586.5 12.5714
5587.5 10.7143
5588.5 6.85714
5589.5 9.57143
5590.5 13.1429
5591.5 6.42857
5592.5 15.1429
5593.5 12.4286
5594.5 12.7143
5595.5 6.42857
5596.5 9.14286
5597.5 13.8571
5598.5 6.14286
5599.5 4.71429
5600.5 14.5714
5601.5 3.57143
5602.5 5.28571
5603.5 12.5714
5604.5 1.14286
5605.5 9.57143
5606.5 9.28571
5607.5 16.1429
5608.5 9.57143
5609.5 5
5610.5 16.5714
5611.5 11.7143
5612.5 6.28571
5613.5 15.7143
5614.5 3.14286
5615.5 13
5616.5 8.57143
5617.5 6
5618.5 11.5714
5619.5 9.57143
5620.5 7.14286
5621.5 15
5622.5 18
5623.5 10.5714
5624.5 10.7143
5625.5 9.57143
5626.5 12.5714
5627.5 8
5628.5 14
5629.5 6
5630.5 7.57143
5631.5 8.57143
5632.5 6.57143
5633.5 15.1429
5634.5 18
5635.5 18
5636.5 11.5714
5637.5 12
5638.5 7.57143
5639.5 9.57143
5640.5 9.57143
5641.5 14
5642.5 8
5643.5 15.5714
5644.5 12.1429
5645.5 11
5646.5 12
5647.5 18
5648.5 8
5649.5 11.5714
5650.5 10.5714
5651.5 12
5652.5 9.14286
5653.5 7.14286
5654.5 8.71429
5655.5 10
5656.5 9.57143
5657.5 16.5714
5658.5 8.57143
5659.5 14
5660.5 8.57143
5661.5 6.71429
5662.5 12
5663.5 8
5664.5 8.57143
5665.5 8.71429
5666.5 11.5714
5667.5 6.14286
5668.5 14
5669.5 13
5670.5 16
5671.5 13
5672.5 12.1429
5673.5 14.7143
5674.5 17.1429
5675.5 11.5714
5676.5 10.5714
5677.5 9.71429
5678.5 13.5714
5679.5 8.57143
5680.5 13.5714
5681.5 12
5682.5 11
5683.5 6.14286
5684.5 8.57143
5685.5 17.5714
5686.5 7.71429
5687.5 6.57143
5688.5 14.1429
5689.5 13
5690.5 8.14286
5691.5 15.1429
5692.5 10.5714
5693.5 8.57143
5694.5 5.57143
5695.5 2.28571
5696.5 13
5697.5 5.14286
5698.5 14
5699.5 19.5714
5700.5 9.14286
5701.5 8.57143
5702.5 9
5703.5 6.14286
5704.5 11
5705.5 10.1429
5706.5 13.5714
5707.5 8.71429
5708.5 23
5709.5 9.57143
5710.5 8.57143
5711.5 13.5714
5712.5 0.428571
5713.5 12.1429
5714.5 11.5714
5715.5 7.14286
5716.5 15.5714
5717.5 11.1429
5718.5 12.7143
5719.5 19
5720.5 9.57143
5721.5 14.5714
5722.5 11.1429
5723.5 10.1429
5724.5 15
5725.5 13
5726.5 11.5714
5727.5 21
5728.5 7
5729.5 5.28571
5730.5 8.57143
5731.5 11.5714
5732.5 15
5733.5 7.71429
5734.5 10.7143
5735.5 20.5714
5736.5 13.5714
5737.5 15.5714
5738.5 9.14286
5739.5 6.14286
5740.5 8.14286
5741.5 17
5742.5 9
5743.5 8.71429
5744.5 17
5745.5 13.5714
5746.5 12.1429
5747.5 6.57143
5748.5 11.5714
5749.5 6.14286
5750.5 10.7143
5751.5 16.2857
5752.5 17
5753.5 7.71429
5754.5 10.5714
5755.5 15.7143
5756.5 14.1429
5757.5 15
5758.5 15
5759.5 13
5760.5 14.5714
5761.5 15
5762.5 13.5714
5763.5 6.57143
5764.5 19.1429
5765.5 18.5714
5766.5 12.5714
5767.5 16
5768.5 17
5769.5 16.5714
5770.5 10.5714
5771.5 13
5772.5 14.5714
5773.5 7.14286
5774.5 16
5775.5 10
5776.5 10
5777.5 16.5714
5778.5 16.5714
5779.5 19
5780.5 12.5714
5781.5 20.1429
5782.5 19
5783.5 10.5714
5784.5 17.5714
5785.5 7.71429
5786.5 16.1429
5787.5 8
5788.5 23.1429
5789.5 9.14286
5790.5 9
5791.5 19.5714
5792.5 1.14286
5793.5 5.14286
5794.5 12
5795.5 10.7143
5796.5 7.71429
5797.5 12.1429
5798.5 16.5714
5799.5 14
5800.5 17.5714
5801.5 13.5714
5802.5 9.14286
5803.5 6.71429
5804.5 9.14286
5805.5 5.14286
5806.5 14.5714
5807.5 18.1429
5808.5 10.5714
5809.5 11
5810.5 18
5811.5 14.1429
5812.5 9.57143
5813.5 6.71429
5814.5 7.71429
5815.5 14.1429
5816.5 16.1429
5817.5 14
5818.5 16.5714
5819.5 8
5820.5 16.1429
5821.5 13
5822.5 7.14286
5823.5 9
5824.5 12
5825.5 10
5826.5 13.7143
5827.5 7.71429
5828.5 7.57143
5829.5 11.5714
5830.5 10.5714
5831.5 8.71429
5832.5 12.1429
5833.5 5.71429
5834.5 4.14286
5835.5 13
5836.5 14
5837.5 11.5714
5838.5 10
5839.5 17
5840.5 11.5714
5841.5 5.71429
5842.5 12.5714
5843.5 11.5714
5844.5 9.57143
5845.5 7.57143
5846.5 13
5847.5 13.7143
5848.5 9
5849.5 9
5850.5 10.5714
5851.5 4
5852.5 14.1429
5853.5 9.57143
5854.5 8.14286
5855.5 8
5856.5 6.57143
5857.5 11.1429
5858.5 12
5859.5 7
5860.5 8.57143
5861.5 12
5862.5 8.57143
5863.5 12.5714
5864.5 10.1429
5865.5 9.57143
5866.5 6.57143
5867.5 7.14286
5868.5 9
5869.5 13
5870.5 11
5871.5 15
5872.5 10.5714
5873.5 14
5874.5 14.5714
5875.5 17.5714
5876.5 11.5714
5877.5 8.14286
5878.5 12.5714
5879.5 9
5880.5 5.57143
5881.5 4.71429
5882.5 8.57143
5883.5 8
5884.5 14
5885.5 8
5886.5 11
5887.5 8.57143
5888.5 8
5889.5 7.57143
5890.5 15
5891.5 13
5892.5 8.57143
5893.5 9.14286
5894.5 7.14286
5895.5 16.5714
5896.5 9.14286
5897.5 9.71429
5898.5 17.2857
5899.5 13.5714
5900.5 12.4286
5901.5 8.57143
5902.5 10.5714
5903.5 12.1429
5904.5 8.14286
5905.5 6.57143
5906.5 6
5907.5 10.1429
5908.5 10.5714
5909.5 15
5910.5 12.1429
5911.5 11.5714
5912.5 10
5913.5 11
5914.5 11
5915.5 11
5916.5 12
5917.5 14.5714
5918.5 6.14286
5919.5 13.5714
5920.5 3.57143
5921.5 13.1429
5922.5 6.14286
5923.5 10.5714
5924.5 10
5925.5 1.28571
5926.5 12.1429
5927.5 16
5928.5 9.57143
5929.5 7.71429
5930.5 11
5931.5 8.71429
5932.5 9
5933.5 8.14286
5934.5 9.14286
5935.5 7
5936.5 15
5937.5 13
5938.5 11
5939.5 10
5940.5 13
5941.5 11.5714
5942.5 8.57143
5943.5 10.5714
5944.5 14
5945.5 13.5714
5946.5 9.57143
5947.5 2.57143
5948.5 8
5949.5 5
5950.5 9
5951.5 12
5952.5 8
5953.5 11.5714
5954.5 8.57143
5955.5 14
5956.5 13
5957.5 14
5958.5 19
5959.5 15.8571
5960.5 21.5714
5961.5 41
5962.5 49.5714
5963.5 78.5714
5964.5 92.5714
5965.5 134.571
5966.5 178.571
5967.5 234.714
5968.5 252.429
5969.5 259
5970.5 192.286
5971.5 121.714
5972.5 92.5714
5973.5 43.1429
5974.5 26.5714
5975.5 22
5976.5 15
5977.5 18
5978.5 16
5979.5 6.71429
5980.5 19
5981.5 16
5982.5 14
5983.5 10.5714
5984.5 12
5985.5 13
5986.5 22
5987.5 10
5988.5 7.57143
5989.5 8.57143
5990.5 10.5714
5991.5 9
5992.5 13.5714
5993.5 14.5714
5994.5 8
5995.5 14
5996.5 15.5714
5997.5 18.1429
5998.5 16.5714
5999.5 9.28571
6000.5 14.7143
6001.5 -3.42857
6002.5 8.57143
6003.5 8
6004.5 11.1429
6005.5 12.7143
6006.5 13
6007.5 16.1429
6008.5 12
6009.5 10.1429
6010.5 20
6011.5 5.71429
6012.5 14
6013.5 9
6014.5 11.5714
6015.5 9.57143
6016.5 13
6017.5 19
6018.5 12.5714
6019.5 21.5714
6020.5 11.1429
6021.5 1.57143
6022.5 9
6023.5 13
6024.5 5
6025.5 13.5714
6026.5 3.71429
6027.5 10
6028.5 9
6029.5 13
6030.5 8.71429
6031.5 14
6032.5 16.5714
6033.5 15.1429
6034.5 14.5714
6035.5 15
6036.5 28
6037.5 14.5714
6038.5 8.14286
6039.5 17.5714
6040.5 12
6041.5 9.57143
6042.5 19.5714
6043.5 12.5714
6044.5 16
6045.5 7.14286
6046.5 12.5714
6047.5 10
6048.5 14
6049.5 6.57143
6050.5 7
6051.5 8
6052.5 11
6053.5 15
6054.5 7.57143
6055.5 13.1429
6056.5 10.1429
6057.5 11
6058.5 20
6059.5 13
6060.5 20
6061.5 12.5714
6062.5 12.1429
6063.5 13.5714
6064.5 10.1429
6065.5 16
6066.5 16
6067.5 7.57143
6068.5 9.57143
6069.5 13.1429
6070.5 7.57143
6071.5 11
6072.5 13
6073.5 10.5714
6074.5 3.71429
6075.5 2.57143
6076.5 10
6077.5 11
6078.5 11
6079.5 7
6080.5 14
6081.5 10.5714
6082.5 10.5714
6083.5 7
6084.5 15
6085.5 12.5714
6086.5 9.57143
6087.5 19.1429
6088.5 13
6089.5 19
6090.5 6.71429
6091.5 11.5714
6092.5 11
6093.5 8.57143
6094.5 9
6095.5 11
6096.5 8
6097.5 7
6098.5 3.57143
6099.5 15
6100.5 14
6101.5 7.57143
6102.5 7.14286
6103.5 14.5714
6104.5 12
6105.5 15.1429
6106.5 14
6107.5 10.1429
6108.5 9.57143
6109.5 12.5714
6110.5 16
6111.5 14.1429
6112.5 10.5714
6113.5 15.5714
6114.5 8.57143
6115.5 11.1429
6116.5 13
6117.5 22.5714
6118.5 18.5714
6119.5 9.57143
6120.5 10.5714
6121.5 12.5714
6122.5 15.7143
6123.5 9.28571
6124.5 13.2857
6125.5 21.1429
6126.5 8.14286
6127.5 7.14286
6128.5 15
6129.5 15.5714
6130.5 8.14286
6131.5 12
6132.5 12.5714
6133.5 15.5714
6134.5 6
6135.5 14.1429
6136.5 15.1429
6137.5 11.5714
6138.5 7
6139.5 10.1429
6140.5 11.1429
6141.5 5.85714
6142.5 11.5714
6143.5 3.14286
6144.5 20
6145.5 6.57143
6146.5 14.5714
6147.5 17
6148.5 6.57143
6149.5 7.57143
6150.5 11.5714
6151.5 11.1429
6152.5 7.14286
6153.5 4.57143
6154.5 8.57143
6155.5 12.1429
6156.5 16
6157.5 18
6158.5 11
6159.5 14.5714
6160.5 18.1429
6161.5 17
6162.5 13
6163.5 12
6164.5 17.5714
6165.5 9.14286
6166.5 10.5714
6167.5 10
6168.5 10
6169.5 12
6170.5 10
6171.5 16.5714
6172.5 15
6173.5 12
6174.5 8.57143
6175.5 13.5714
6176.5 7
6177.5 15
6178.5 14
6179.5 9.57143
6180.5 10.5714
6181.5 16.1429
6182.5 18
6183.5 15.5714
6184.5 3.71429
6185.5 7.14286
6186.5 12.5714
6187.5 15.5714
6188.5 10
6189.5 10.1429
6190.5 16
6191.5 16
6192.5 13
6193.5 12.5714
6194.5 6.14286
6195.5 12
6196.5 11.5714
6197.5 16.5714
6198.5 9.14286
6199.5 12.1429
6200.5 15.1429
6201.5 15
6202.5 22
6203.5 6.57143
6204.5 21.7143
6205.5 9.71429
6206.5 18
6207.5 12.1429
6208.5 10.1429
6209.5 12.5714
6210.5 12.7143
6211.5 14
6212.5 18
6213.5 9.57143
6214.5 12.5714
6215.5 13
6216.5 8.14286
6217.5 17.1429
6218.5 18
6219.5 15
6220.5 27.7143
6221.5 18.2857
6222.5 15.5714
6223.5 5.71429
6224.5 5.85714
6225.5 14.5714
6226.5 15.1429
6227.5 9.71429
6228.5 16
6229.5 15
6230.5 12.5714
6231.5 21
6232.5 13.5714
6233.5 21
6234.5 10
6235.5 11
6236.5 17
6237.5 10.5714
6238.5 8
6239.5 10
6240.5 8.57143
6241.5 13
6242.5 13
6243.5 9.57143
6244.5 8
6245.5 15
6246.5 9
6247.5 4.57143
6248.5 16.5714
6249.5 11.5714
6250.5 13.5714
6251.5 11
6252.5 9
6253.5 8
6254.5 18
6255.5 17
6256.5 15.1429
6257.5 8.14286
6258.5 14
6259.5 10
6260.5 15
6261.5 16.5714
6262.5 16
6263.5 2.71429
6264.5 8.57143
6265.5 10.5714
6266.5 13.5714
6267.5 10
6268.5 6.57143
6269.5 12
6270.5 14
6271.5 15
6272.5 10
6273.5 17
6274.5 22
6275.5 11
6276.5 9.57143
6277.5 17.5714
6278.5 11.5714
6279.5 7.28571
6280.5 11
6281.5 21
6282.5 16.5714
6283.5 13.5714
6284.5 7.57143
6285.5 6.14286
6286.5 13
6287.5 10
6288.5 10
6289.5 16.1429
6290.5 14
6291.5 8
6292.5 13.5714
6293.5 15
6294.5 8
6295.5 11.5714
6296.5 12
6297.5 18
6298.5 13
6299.5 12
6300.5 8.57143
6301.5 9
6302.5 14.1429
6303.5 18
6304.5 8
6305.5 18
6306.5 8
6307.5 11
6308.5 15
6309.5 16.5714
6310.5 8
6311.5 14
6312.5 6.57143
6313.5 10
6314.5 9.57143
6315.5 8
6316.5 9.57143
6317.5 16
6318.5 7.57143
6319.5 18
6320.5 13
6321.5 3.57143
6322.5 11
6323.5 11.5714
6324.5 8.57143
6325.5 4.28571
6326.5 12.5714
6327.5 10
6328.5 4.14286
6329.5 3.71429
6330.5 11
6331.5 9.57143
6332.5 20
6333.5 6.57143
6334.5 3.14286
6335.5 10.5714
6336.5 9
6337.5 6.14286
6338.5 10.1429
6339.5 7.57143
6340.5 9
6341.5 8
6342.5 10.5714
6343.5 5.57143
6344.5 8
6345.5 16
6346.5 8.57143
6347.5 10
6348.5 5
6349.5 12
6350.5 4.57143
6351.5 17
6352.5 12.5714
6353.5 5
6354.5 5.57143
6355.5 8
6356.5 6.57143
6357.5 8.57143
6358.5 9.57143
6359.5 5
6360.5 4
6361.5 7
6362.5 7
6363.5 7
6364.5 9
6365.5 12
6366.5 9
6367.5 3
6368.5 7
6369.5 12
6370.5 3.57143
6371.5 9
6372.5 5.14286
6373.5 2.71429
6374.5 3.57143
6375.5 2.57143
6376.5 5
6377.5 11
6378.5 9
6379.5 11
6380.5 1.57143
6381.5 2
6382.5 3
6383.5 6.57143
6384.5 4
6385.5 4
6386.5 4.57143
6387.5 4.57143
6388.5 3
6389.5 4
6390.5 6
6391.5 0.714286
6392.5 4.57143
6393.5 5.57143
6394.5 10
6395.5 2
6396.5 6.57143
6397.5 1.14286
6398.5 3.57143
6399.5 4.57143
6400.5 5
6401.5 2
6402.5 8
6403.5 4
6404.5 1.57143
6405.5 3
6406.5 3
6407.5 7
6408.5 6
6409.5 6
6410.5 4.57143
6411.5 6
6412.5 8
6413.5 -1.28571
6414.5 6
6415.5 3.57143
6416.5 5
6417.5 3.57143
6418.5 4
6419.5 5.57143
6420.5 5
6421.5 4.57143
6422.5 3.14286
6423.5 1.57143
6424.5 2.57143
6425.5 3
6426.5 5.14286
6427.5 6
6428.5 7
6429.5 5
6430.5 4
6431.5 2.57143
6432.5 5
6433.5 7
6434.5 5.57143
6435.5 7
6436.5 4
6437.5 3.57143
6438.5 6
6439.5 2.57143
6440.5 0.571429
6441.5 3
6442.5 8
6443.5 6
6444.5 5.57143
6445.5 4
6446.5 2
6447.5 5
6448.5 2.57143
6449.5 7
6450.5 4
6451.5 4.57143
6452.5 4
6453.5 2.57143
6454.5 5.57143
6455.5 5.14286
6456.5 5
6457.5 4
6458.5 7
6459.5 2
6460.5 7
6461.5 3
6462.5 6
6463.5 8
6464.5 5.57143
6465.5 1.57143
6466.5 3.57143
6467.5 7.57143
6468.5 8
6469.5 4.57143
6470.5 12.5714
6471.5 15.7143
6472.5 57
6473.5 76.8571
6474.5 120.429
6475.5 166.286
6476.5 257.857
6477.5 370.429
6478.5 472.571
6479.5 525
6480.5 505.857
6481.5 471.286
6482.5 268.143
6483.5 138.143
6484.5 70.1429
6485.5 49.1429
6486.5 28
6487.5 16
6488.5 11
6489.5 4
6490.5 9
6491.5 2
6492.5 4
6493.5 3
6494.5 -1.42857
6495.5 4
6496.5 1
6497.5 1
6498.5 1
6499.5 2
6500.5 0
6501.5 1
6502.5 3
6503.5 0
6504.5 0
6505.5 1
6506.5 0
6507.5 1
6508.5 0
6509.5 0
6510.5 1
6511.5 2
6512.5 1
6513.5 -1.42857
6514.5 1
6515.5 2
6516.5 -1.42857
6517.5 1
6518.5 1
6519.5 0
6520.5 1
6521.5 1
6522.5 0
6523.5 -0.428571
6524.5 1
6525.5 -1.42857
6526.5 -1.42857
6527.5 0
6528.5 0
6529.5 1
6530.5 1
6531.5 0
6532.5 1
6533.5 -1.42857
6534.5 1
6535.5 2
6536.5 2
6537.5 1
6538.5 3
6539.5 1
6540.5 -1.42857
6541.5 -1.42857
6542.5 1
6543.5 -0.857143
6544.5 -2.71429
6545.5 1.57143
6546.5 0.571429
6547.5 -1.85714
6548.5 -1.42857
6549.5 -0.857143
6550.5 2
6551.5 1
6552.5 2
6553.5 0.571429
6554.5 0
6555.5 0
6556.5 -0.428571
6557.5 0
6558.5 -0.428571
6559.5 -0.428571
6560.5 -2.85714
6561.5 0
6562.5 -1.42857
6563.5 1
6564.5 0
6565.5 1
6566.5 0.571429
6567.5 0
6568.5 -0.428571
6569.5 1
6570.5 1
6571.5 0
6572.5 1
6573.5 0.571429
6574.5 0
6575.5 2
6576.5 1
6577.5 0
6578.5 1
6579.5 0
6580.5 1
6581.5 1
6582.5 -0.428571
6583.5 -1.42857
6584.5 0
6585.5 -1.42857
6586.5 -1.85714
6587.5 1
6588.5 0
6589.5 -1.42857
6590.5 0
6591.5 0
6592.5 0
6593.5 0
6594.5 -0.428571
6595.5 0
6596.5 0
6597.5 2
6598.5 1
6599.5 0
6600.5 -1.85714
6601.5 -1.42857
6602.5 0
6603.5 -0.428571
6604.5 1
6605.5 1
6606.5 0
6607.5 1
6608.5 0
6609.5 0
6610.5 3
6611.5 1
6612.5 0
6613.5 2
6614.5 0
6615.5 0
6616.5 0
6617.5 -1.42857
6618.5 1
6619.5 0
6620.5 1
6621.5 0
6622.5 1
6623.5 0
6624.5 0
6625.5 0
6626.5 0
6627.5 1
6628.5 0
6629.5 -1.42857
6630.5 2
6631.5 1
6632.5 1
6633.5 0
6634.5 0
6635.5 1
6636.5 0.571429
6637.5 0
6638.5 -1.42857
6639.5 1
6640.5 0
6641.5 -0.428571
6642.5 1
6643.5 0
6644.5 0
6645.5 0
6646.5 1
6647.5 0
6648.5 -0.428571
6649.5 0
6650.5 0
6651.5 -1.42857
6652.5 3
6653.5 0
6654.5 0
6655.5 0
6656.5 -1.42857
6657.5 1
6658.5 1
6659.5 0
6660.5 0
6661.5 0
6662.5 0
6663.5 0
6664.5 0
6665.5 0
6666.5 -0.428571
6667.5 0
6668.5 0
6669.5 0
6670.5 0
6671.5 -1.42857
6672.5 -0.428571
6673.5 0
6674.5 1
6675.5 1
6676.5 0
6677.5 0
6678.5 1
6679.5 1
6680.5 0
6681.5 0
6682.5 -1.42857
6683.5 0
6684.5 1
6685.5 1
6686.5 -2.85714
6687.5 0
6688.5 1
6689.5 -1.42857
6690.5 0
6691.5 -1.42857
6692.5 0
6693.5 2
6694.5 1
6695.5 -1.42857
6696.5 -1.42857
6697.5 0
6698.5 4
6699.5 0
6700.5 0
6701.5 -0.428571
6702.5 0
6703.5 -0.857143
6704.5 0
6705.5 1
6706.5 0
6707.5 2
6708.5 1
6709.5 1
6710.5 0
6711.5 0
6712.5 0
6713.5 1
6714.5 0
6715.5 1
6716.5 0
6717.5 1.57143
6718.5 -0.428571
6719.5 -2.85714
6720.5 0
6721.5 0
6722.5 0
6723.5 0
6724.5 1
6725.5 -1.42857
6726.5 1
6727.5 1
6728.5 0
6729.5 0.571429
6730.5 0
6731.5 0
6732.5 0
6733.5 -1.42857
6734.5 -1.42857
6735.5 0
6736.5 1
6737.5 -1.42857
6738.5 0
6739.5 0
6740.5 1
6741.5 0
6742.5 0
6743.5 1
6744.5 1
6745.5 -0.428571
6746.5 0
6747.5 -0.428571
6748.5 1
6749.5 0
6750.5 1
6751.5 2
6752.5 1
6753.5 -1.85714
6754.5 1
6755.5 0
6756.5 1
6757.5 1
6758.5 0
6759.5 1
6760.5 1
6761.5 -1.42857
6762.5 -2.85714
6763.5 0
6764.5 0
6765.5 0
6766.5 1
6767.5 1
6768.5 0
6769.5 3
6770.5 0.142857
6771.5 0
6772.5 -1.85714
6773.5 -1.42857
6774.5 -0.428571
6775.5 -2.85714
6776.5 1
6777.5 1
6778.5 -1.42857
6779.5 0
6780.5 2
6781.5 2
6782.5 0
6783.5 0
6784.5 -1.85714
6785.5 0
6786.5 1
6787.5 -1.42857
6788.5 0
6789.5 0
6790.5 0
6791.5 0
6792.5 1
6793.5 -1.42857
6794.5 -1.42857
6795.5 -1.42857
6796.5 -1.42857
6797.5 0
6798.5 -1.42857
6799.5 0
6800.5 -1.42857
6801.5 1
6802.5 1
6803.5 0
6804.5 0
6805.5 1
6806.5 1
6807.5 0
6808.5 0
6809.5 0
6810.5 0
6811.5 0
6812.5 0.571429
6813.5 4
6814.5 1
6815.5 1
6816.5 0
6817.5 0
6818.5 0
6819.5 0
6820.5 0
6821.5 0
6822.5 0
6823.5 -1.42857
6824.5 1
6825.5 0
6826.5 0
6827.5 -1.42857
6828.5 0
6829.5 0
6830.5 1
6831.5 3
6832.5 1
6833.5 1
6834.5 1
6835.5 2
6836.5 -0.428571
6837.5 0
6838.5 0
6839.5 -1.42857
6840.5 -1.42857
6841.5 0
6842.5 2
6843.5 0
6844.5 0.571429
6845.5 -1.42857
6846.5 3
6847.5 0
6848.5 0
6849.5 0
6850.5 0
6851.5 -0.428571
6852.5 0
6853.5 0
6854.5 0
6855.5 0
6856.5 1
6857.5 0
6858.5 -2.85714
6859.5 2
6860.5 0
6861.5 0
6862.5 0
6863.5 0.571429
6864.5 1
6865.5 0
6866.5 0
6867.5 3
6868.5 0
6869.5 0
6870.5 0
6871.5 0
6872.5 -1.42857
6873.5 0
6874.5 0
6875.5 1
6876.5 -0.428571
6877.5 1
6878.5 0
6879.5 0
6880.5 1
6881.5 1
6882.5 1
6883.5 1
6884.5 0
6885.5 1
6886.5 0
6887.5 -0.428571
6888.5 -1.42857
6889.5 0
6890.5 1
6891.5 1
6892.5 0
6893.5 0
6894.5 -1.42857
6895.5 -2.85714
6896.5 0
6897.5 -0.428571
6898.5 0
6899.5 -2.85714
6900.5 -1.42857
6901.5 -1.42857
6902.5 1
6903.5 1
6904.5 -0.428571
6905.5 1
6906.5 1
6907.5 1
6908.5 -0.428571
6909.5 1
6910.5 1
6911.5 1
6912.5 -2.85714
6913.5 0
6914.5 1
6915.5 0
6916.5 -1.42857
6917.5 0
6918.5 1
6919.5 -0.428571
6920.5 0
6921.5 1
6922.5 2
6923.5 0
6924.5 1
6925.5 1
6926.5 0
6927.5 -1.42857
6928.5 2
6929.5 -1.42857
6930.5 -0.857143
6931.5 1
6932.5 2
6933.5 -0.428571
6934.5 1
6935.5 -0.428571
6936.5 0
6937.5 2
6938.5 -0.428571
6939.5 1
6940.5 0
6941.5 0
6942.5 0
6943.5 0
6944.5 1
6945.5 -0.428571
6946.5 -1.42857
6947.5 0
6948.5 0
6949.5 0
6950.5 1
6951.5 0
6952.5 -1.42857
6953.5 0
6954.5 0
6955.5 1
6956.5 0
6957.5 1
6958.5 0
6959.5 1
6960.5 0
6961.5 0
6962.5 0
6963.5 0
6964.5 0
6965.5 0
6966.5 0
6967.5 1
6968.5 0
6969.5 2
6970.5 1
6971.5 0
6972.5 1
6973.5 -2.28571
6974.5 -4.28571
6975.5 0
6976.5 0
6977.5 1
6978.5 0
6979.5 1
6980.5 -1.42857
6981.5 0
6982.5 -0.428571
6983.5 0
6984.5 1
6985.5 0
6986.5 -1.42857
6987.5 0
6988.5 0
6989.5 0
6990.5 0
6991.5 0
6992.5 -1.42857
6993.5 0
6994.5 1
6995.5 0
6996.5 0
6997.5 -0.428571
6998.5 1
6999.5 0
7000.5 0
7001.5 0
7002.5 -1.85714
7003.5 1
7004.5 -0.428571
7005.5 0
7006.5 -1.42857
7007.5 0
7008.5 2
7009.5 -2.85714
7010.5 0
7011.5 1
7012.5 0
7013.5 0
7014.5 1
7015.5 0
7016.5 0
7017.5 -0.428571
7018.5 2
7019.5 0
7020.5 1
7021.5 0
7022.5 1
7023.5 0
7024.5 0
7025.5 0
7026.5 0
7027.5 0
7028.5 0
7029.5 1
7030.5 0
7031.5 1
7032.5 -0.428571
7033.5 2
7034.5 0
7035.5 0
7036.5 0.571429
7037.5 1
7038.5 0
7039.5 0
7040.5 0
7041.5 -1.42857
7042.5 0
7043.5 1
7044.5 0
7045.5 1
7046.5 0
7047.5 -1.85714
7048.5 1
7049.5 1
7050.5 0
7051.5 0
7052.5 -2.85714
7053.5 0
7054.5 1
7055.5 0
7056.5 1
7057.5 0
7058.5 -1.42857
7059.5 1
7060.5 1
7061.5 0
7062.5 0
7063.5 -1.42857
7064.5 0
7065.5 0
7066.5 -0.428571
7067.5 -1.42857
7068.5 0
7069.5 0
7070.5 1
7071.5 1
7072.5 0
7073.5 3
7074.5 0
7075.5 1
7076.5 -1.42857
7077.5 1
7078.5 0
7079.5 2
7080.5 1
7081.5 2
7082.5 0
7083.5 0
7084.5 0
7085.5 0
7086.5 0
7087.5 -0.428571
7088.5 -1.42857
7089.5 0
7090.5 2
7091.5 1
7092.5 1
7093.5 1
7094.5 0
7095.5 -1.42857
7096.5 0
7097.5 -1.42857
7098.5 -1.42857
7099.5 1
7100.5 0
7101.5 0
7102.5 1
7103.5 0
7104.5 0
7105.5 0
7106.5 2
7107.5 -0.428571
7108.5 1
7109.5 0
7110.5 0
7111.5 0
7112.5 -1.42857
7113.5 0
7114.5 1
7115.5 0
7116.5 -0.428571
7117.5 1
7118.5 -1.42857
7119.5 0
7120.5 -2.85714
7121.5 0
7122.5 0
7123.5 1.57143
7124.5 0
7125.5 0
7126.5 1
7127.5 0
7128.5 0
7129.5 0
7130.5 -0.428571
7131.5 0
7132.5 -1.42857
7133.5 -2.85714
7134.5 0
7135.5 1
7136.5 0
7137.5 0
7138.5 2
7139.5 0
7140.5 0
7141.5 -1.42857
7142.5 1
7143.5 0
7144.5 1
7145.5 -4.28571
7146.5 1
7147.5 0
7148.5 -1.42857
7149.5 0
7150.5 0
7151.5 0
7152.5 1
7153.5 1
7154.5 0
7155.5 0
7156.5 0
7157.5 0
7158.5 0
7159.5 0
7160.5 0
7161.5 1
7162.5 1
7163.5 0
7164.5 0
7165.5 -0.428571
7166.5 1
7167.5 0
7168.5 1
7169.5 1
7170.5 1
7171.5 0
7172.5 2
7173.5 0
7174.5 0
7175.5 0
7176.5 0
7177.5 -1.42857
7178.5 1
7179.5 0
7180.5 0
7181.5 0
7182.5 0
7183.5 -1.85714
7184.5 0
7185.5 0
7186.5 0
7187.5 0
7188.5 0
7189.5 0
7190.5 0
7191.5 0.571429
7192.5 0
7193.5 0
7194.5 -1.42857
7195.5 0
7196.5 0
7197.5 0
7198.5 1
7199.5 -1.42857
7200.5 0
7201.5 1
7202.5 -0.428571
7203.5 1
7204.5 2
7205.5 -1.85714
7206.5 1
7207.5 -1.85714
7208.5 2.57143
7209.5 0
7210.5 -0.428571
7211.5 3
7212.5 -0.428571
7213.5 1
7214.5 0.571429
7215.5 -0.428571
7216.5 0
7217.5 1
7218.5 -1.42857
7219.5 1
7220.5 -1.42857
7221.5 0
7222.5 -1.42857
7223.5 0
7224.5 0
7225.5 2
7226.5 0
7227.5 -0.428571
7228.5 0
7229.5 -0.428571
7230.5 0
7231.5 0
7232.5 0
7233.5 -1.42857
7234.5 0
7235.5 0
7236.5 0
7237.5 -0.428571
7238.5 -1.42857
7239.5 -0.428571
7240.5 0
7241.5 2
7242.5 -1.42857
7243.5 3
7244.5 0
7245.5 2
7246.5 -0.857143
7247.5 1
7248.5 1
7249.5 1
7250.5 -0.428571
7251.5 0
7252.5 0
7253.5 0
7254.5 1
7255.5 1
7256.5 1
7257.5 -1.42857
7258.5 1
7259.5 1
7260.5 -0.428571
7261.5 -3.71429
7262.5 1
7263.5 -0.428571
7264.5 0
7265.5 1
7266.5 -1.42857
7267.5 0
7268.5 0
7269.5 -1.42857
7270.5 1
7271.5 -1.42857
7272.5 -1.42857
7273.5 0
7274.5 0
7275.5 2
7276.5 0
7277.5 1
7278.5 0
7279.5 1
7280.5 0
7281.5 1
7282.5 1
7283.5 -0.857143
7284.5 0
7285.5 0
7286.5 2
7287.5 0
7288.5 0
7289.5 0
7290.5 0
7291.5 1
7292.5 2
7293.5 -1.42857
7294.5 1
7295.5 0
7296.5 1
7297.5 -1.42857
7298.5 0
7299.5 0
7300.5 0
7301.5 0
7302.5 1
7303.5 -2.85714
7304.5 0
7305.5 2.57143
7306.5 2
7307.5 0
7308.5 -0.428571
7309.5 0
7310.5 -1.42857
7311.5 0
7312.5 0
7313.5 0
7314.5 1
7315.5 0
7316.5 0
7317.5 2
7318.5 -0.428571
7319.5 -1.42857
7320.5 1
7321.5 1
7322.5 0
7323.5 -1.42857
7324.5 0
7325.5 2
7326.5 0
7327.5 1
7328.5 0
7329.5 1
7330.5 0
7331.5 0
7332.5 0
7333.5 0
7334.5 0
7335.5 0
7336.5 1
7337.5 -0.428571
7338.5 0
7339.5 0
7340.5 0
7341.5 1
7342.5 2
7343.5 0
7344.5 0
7345.5 -2.85714
7346.5 0
7347.5 2
7348.5 0
7349.5 0
7350.5 1
7351.5 0
7352.5 0
7353.5 -0.428571
7354.5 0
7355.5 -1.42857
7356.5 -0.428571
7357.5 1
7358.5 0
7359.5 0
7360.5 1
7361.5 0
7362.5 0
7363.5 0
7364.5 -1.42857
7365.5 -1.42857
7366.5 -0.857143
7367.5 1
7368.5 0
7369.5 0
7370.5 -1.42857
7371.5 0
7372.5 0
7373.5 0
7374.5 -1.42857
7375.5 0
7376.5 0
7377.5 0
7378.5 0
7379.5 -1.42857
7380.5 1
7381.5 -1.42857
7382.5 0
7383.5 0
7384.5 0
7385.5 0
7386.5 0
7387.5 0
7388.5 0
7389.5 0
7390.5 0
7391.5 0
7392.5 -1.42857
7393.5 0
7394.5 -1.42857
7395.5 0
7396.5 0
7397.5 1
7398.5 0
7399.5 0
7400.5 -1.42857
7401.5 0
7402.5 0
7403.5 0
7404.5 1
7405.5 1
7406.5 -0.428571
7407.5 0
7408.5 0
7409.5 0
7410.5 1
7411.5 -1.85714
7412.5 1
7413.5 -2.85714
7414.5 1
7415.5 0.571429
7416.5 2.57143
7417.5 0.571429
7418.5 0
7419.5 0
7420.5 1
7421.5 0
7422.5 0
7423.5 0
7424.5 0
7425.5 1
7426.5 0
7427.5 0
7428.5 -1.42857
7429.5 0
7430.5 0
7431.5 0
7432.5 0
7433.5 0
7434.5 0
7435.5 0
7436.5 -0.428571
7437.5 0
7438.5 0
7439.5 -1.42857
7440.5 0
7441.5 1
7442.5 0
7443.5 1
7444.5 1
7445.5 2
7446.5 -1.42857
7447.5 0
7448.5 0
7449.5 -1.42857
7450.5 0
7451.5 0
7452.5 -1.42857
7453.5 0.571429
7454.5 1
7455.5 0
7456.5 -1.42857
7457.5 0
7458.5 0
7459.5 0
7460.5 0
7461.5 2
7462.5 0
7463.5 0
7464.5 1
7465.5 0
7466.5 0
7467.5 0
7468.5 -0.428571
7469.5 0
7470.5 0
7471.5 0
7472.5 0
7473.5 0
7474.5 0
7475.5 0
7476.5 0
7477.5 1
7478.5 0
7479.5 0
7480.5 0
7481.5 0
7482.5 0
7483.5 0
7484.5 -1.42857
7485.5 -1.42857
7486.5 0
7487.5 0
7488.5 1
7489.5 0
7490.5 0
7491.5 -2.85714
7492.5 0
7493.5 0
7494.5 0
7495.5 0
7496.5 0
7497.5 2
7498.5 0
7499.5 0
7500.5 0
7501.5 0
7502.5 0
7503.5 0
7504.5 0
7505.5 1
7506.5 0
7507.5 0
7508.5 0
7509.5 1
7510.5 2
7511.5 -2.85714
7512.5 -1.42857
7513.5 0
7514.5 0
7515.5 0
7516.5 1
7517.5 1
7518.5 0
7519.5 0
7520.5 0
7521.5 0
7522.5 -1.42857
7523.5 0
7524.5 0
7525.5 -1.42857
7526.5 1
7527.5 0
7528.5 0
7529.5 0
7530.5 -1.42857
7531.5 0
7532.5 0
7533.5 -1.42857
7534.5 -2.85714
7535.5 0
7536.5 0
7537.5 0
7538.5 2
7539.5 -1.42857
7540.5 0
7541.5 -2.85714
7542.5 0
7543.5 1
7544.5 0
7545.5 0
7546.5 2
7547.5 0
7548.5 0
7549.5 0
7550.5 1
7551.5 0
7552.5 -1.42857
7553.5 1
7554.5 0
7555.5 0
7556.5 1
7557.5 0
7558.5 0
7559.5 0
7560.5 0
7561.5 -0.428571
7562.5 2
7563.5 0
7564.5 0
7565.5 0
7566.5 0
7567.5 1
7568.5 0
7569.5 -1.42857
7570.5 1
7571.5 0
7572.5 -1.42857
7573.5 0
7574.5 1
7575.5 0
7576.5 2
7577.5 0
7578.5 2
7579.5 0
7580.5 0
7581.5 0
7582.5 1
7583.5 1
7584.5 1
7585.5 0
7586.5 0
7587.5 1
7588.5 -1.42857
7589.5 0
7590.5 0
7591.5 0
7592.5 1
7593.5 0
7594.5 0
7595.5 -1.42857
7596.5 -1.42857
7597.5 0
7598.5 0
7599.5 -0.428571
7600.5 0
7601.5 0
7602.5 0
7603.5 0
7604.5 0
7605.5 1
7606.5 0
7607.5 1
7608.5 0
7609.5 -1.42857
7610.5 0
7611.5 0
7612.5 1
7613.5 0
7614.5 1
7615.5 1
7616.5 0
7617.5 0
7618.5 0
7619.5 0
7620.5 0
7621.5 1
7622.5 1
7623.5 -1.42857
7624.5 0
7625.5 0
7626.5 1
7627.5 0
7628.5 0
7629.5 -1.42857
7630.5 0
7631.5 0.571429
7632.5 -1.42857
7633.5 0
7634.5 -0.428571
7635.5 0
7636.5 1
7637.5 0
7638.5 0
7639.5 0
7640.5 0
7641.5 0
7642.5 0
7643.5 2
7644.5 0
7645.5 0
7646.5 0
7647.5 0.571429
7648.5 0
7649.5 1
7650.5 0
7651.5 0
7652.5 0
7653.5 1
7654.5 0
7655.5 -0.428571
7656.5 -1.42857
7657.5 0
7658.5 0
7659.5 0
7660.5 -0.428571
7661.5 0
7662.5 0
7663.5 -1.42857
7664.5 0
7665.5 0
7666.5 0
7667.5 0
7668.5 0
7669.5 0
7670.5 0
7671.5 1
7672.5 0
7673.5 0
7674.5 0
7675.5 0
7676.5 0
7677.5 0
7678.5 0
7679.5 -1.42857
7680.5 0
7681.5 1
7682.5 -2.85714
7683.5 0
7684.5 0
7685.5 0
7686.5 0
7687.5 0
7688.5 0
7689.5 -1.42857
7690.5 0
7691.5 1
7692.5 -1.42857
7693.5 0
7694.5 0
7695.5 0
7696.5 -1.42857
7697.5 0
7698.5 0
7699.5 0
7700.5 1
7701.5 0
7702.5 0
7703.5 -0.428571
7704.5 -1.42857
7705.5 1
7706.5 0
7707.5 0
7708.5 1
7709.5 0
7710.5 -2.85714
7711.5 -1.42857
7712.5 1
7713.5 -1.42857
7714.5 0
7715.5 0
7716.5 0
7717.5 -1.42857
7718.5 0
7719.5 0
7720.5 0
7721.5 -1.42857
7722.5 0
7723.5 -0.428571
7724.5 1
7725.5 -0.428571
7726.5 4
7727.5 0
7728.5 0
7729.5 0
7730.5 0
7731.5 0
7732.5 1
7733.5 0
7734.5 -1.42857
7735.5 1
7736.5 0
7737.5 0
7738.5 0
7739.5 0
7740.5 0
7741.5 0
7742.5 0
7743.5 0
7744.5 0
7745.5 0
7746.5 1
7747.5 0
7748.5 0
7749.5 0
7750.5 0
7751.5 0
7752.5 0
7753.5 1
7754.5 -0.428571
7755.5 1
7756.5 0
7757.5 -1.42857
7758.5 0
7759.5 0
7760.5 -0.428571
7761.5 0
7762.5 1
7763.5 0
7764.5 0
7765.5 -1.42857
7766.5 0
7767.5 0
7768.5 0
7769.5 -1.42857
7770.5 -0.428571
7771.5 -1.85714
7772.5 -1.85714
7773.5 -1.85714
7774.5 2
7775.5 2
7776.5 0
7777.5 0
7778.5 0
7779.5 -1.42857
7780.5 0
7781.5 1
7782.5 0
7783.5 0
7784.5 0
7785.5 0
7786.5 -1.42857
7787.5 0
7788.5 0
7789.5 0
7790.5 2
7791.5 0
7792.5 0
7793.5 -1.42857
7794.5 -0.428571
7795.5 0
7796.5 0
7797.5 0
7798.5 1
7799.5 0
7800.5 0
7801.5 0
7802.5 0
7803.5 0
7804.5 -1.42857
7805.5 0
7806.5 0
7807.5 1
7808.5 0
7809.5 0
7810.5 0
7811.5 0
7812.5 0
7813.5 0
7814.5 0
7815.5 1
7816.5 0
7817.5 0
7818.5 0
7819.5 0
7820.5 0
7821.5 0
7822.5 -0.428571
7823.5 0
7824.5 0
7825.5 0
7826.5 -1.42857
7827.5 1
7828.5 -0.428571
7829.5 -0.428571
7830.5 0
7831.5 0
7832.5 0
7833.5 0
7834.5 1
7835.5 0
7836.5 0
7837.5 1
7838.5 0
7839.5 1
7840.5 1
7841.5 0
7842.5 0
7843.5 0
7844.5 0
7845.5 -0.428571
7846.5 3
7847.5 1
7848.5 0
7849.5 1
7850.5 -1.42857
7851.5 0
7852.5 1
7853.5 0
7854.5 0
7855.5 0
7856.5 0
7857.5 0
7858.5 1
7859.5 0
7860.5 0
7861.5 1
7862.5 0
7863.5 0
7864.5 0
7865.5 -1.42857
7866.5 0
7867.5 1
7868.5 0
7869.5 0
7870.5 0
7871.5 0
7872.5 0
7873.5 0
7874.5 0
7875.5 0
7876.5 0
7877.5 -1.42857
7878.5 0
7879.5 0
7880.5 0
7881.5 0
7882.5 0
7883.5 0
7884.5 -1.42857
7885.5 0
7886.5 0
7887.5 0
7888.5 0
7889.5 1
7890.5 0
7891.5 0
7892.5 0
7893.5 0
7894.5 0
7895.5 0
7896.5 0
7897.5 0
7898.5 0
7899.5 0
7900.5 1
7901.5 0
7902.5 1
7903.5 0
7904.5 0
7905.5 1
7906.5 0
7907.5 0
7908.5 1
7909.5 0
7910.5 2
7911.5 0
7912.5 0
7913.5 0
7914.5 0
7915.5 0
7916.5 0
7917.5 0
7918.5 0
7919.5 0
7920.5 0
7921.5 0
7922.5 -1.42857
7923.5 0
7924.5 0
7925.5 0
7926.5 0.571429
7927.5 -1.42857
7928.5 1
7929.5 1
7930.5 0
7931.5 0
7932.5 0
7933.5 -1.42857
7934.5 0
7935.5 0
7936.5 0
7937.5 0
7938.5 0
7939.5 0
7940.5 0
7941.5 -1.42857
7942.5 0
7943.5 -1.42857
7944.5 0
7945.5 -1.42857
7946.5 0
7947.5 0
7948.5 1
7949.5 0
7950.5 0
7951.5 0
7952.5 0
7953.5 1
7954.5 0
7955.5 0
7956.5 0
7957.5 0
7958.5 1
7959.5 1
7960.5 0
7961.5 0
7962.5 0
7963.5 0
7964.5 0
7965.5 0
7966.5 0
7967.5 -1.42857
7968.5 0
7969.5 0
7970.5 -1.42857
7971.5 1
7972.5 0
7973.5 0
7974.5 1
7975.5 0
7976.5 0
7977.5 -1.42857
7978.5 1
7979.5 0
7980.5 0
7981.5 1
7982.5 0
7983.5 0
7984.5 1
7985.5 0
7986.5 0
7987.5 0
7988.5 0
7989.5 -0.428571
7990.5 0
7991.5 0
7992.5 0
7993.5 0
7994.5 0
7995.5 0
7996.5 1
7997.5 0
7998.5 1
7999.5 0
8000.5 0
8001.5 0
8002.5 -0.428571
8003.5 0
8004.5 0
8005.5 1
8006.5 0
8007.5 1
8008.5 -0.428571
8009.5 2
8010.5 0
8011.5 1
8012.5 -1.42857
8013.5 -1.42857
8014.5 0
8015.5 0
8016.5 0
8017.5 0
8018.5 0
8019.5 0
8020.5 0
8021.5 -0.428571
8022.5 0
8023.5 0
8024.5 0
8025.5 0
8026.5 0
8027.5 -1.42857
8028.5 0
8029.5 0
8030.5 0
8031.5 0
8032.5 0
8033.5 0
8034.5 0
8035.5 0
8036.5 0
8037.5 0
8038.5 0
8039.5 0
8040.5 0
8041.5 0
8042.5 0
8043.5 0
8044.5 1
8045.5 0
8046.5 0
8047.5 0
8048.5 0
8049.5 0
8050.5 0
8051.5 0
8052.5 0
8053.5 0
8054.5 0
8055.5 0
8056.5 1
8057.5 0
8058.5 0
8059.5 -1.42857
8060.5 0
8061.5 -1.42857
8062.5 0
8063.5 0
8064.5 0
8065.5 0
8066.5 0
8067.5 -1.42857
8068.5 0
8069.5 0
8070.5 0
8071.5 0
8072.5 0
8073.5 0
8074.5 0
8075.5 -0.428571
8076.5 0
8077.5 1
8078.5 0
8079.5 0
8080.5 0
8081.5 1
8082.5 0
8083.5 1
8084.5 -1.42857
8085.5 -1.42857
8086.5 0
8087.5 0
8088.5 -1.42857
8089.5 0
8090.5 1
8091.5 0
8092.5 1
8093.5 0
8094.5 0
8095.5 1
8096.5 1
8097.5 0
8098.5 0
8099.5 0
8100.5 0
8101.5 0
8102.5 0
8103.5 0
8104.5 -1.42857
8105.5 0
8106.5 0
8107.5 0
8108.5 0
8109.5 0
8110.5 1
8111.5 1
8112.5 0
8113.5 0
8114.5 0
8115.5 0
8116.5 0
8117.5 0
8118.5 0
8119.5 0
8120.5 0
8121.5 1
8122.5 0
8123.5 0
8124.5 1
8125.5 0
8126.5 1
8127.5 0
8128.5 -1.42857
8129.5 0
8130.5 0
8131.5 0
8132.5 0
8133.5 0
8134.5 0
8135.5 -1.42857
8136.5 1
8137.5 0
8138.5 0
8139.5 -1.42857
8140.5 0
8141.5 0
8142.5 0
8143.5 0
8144.5 -1.42857
8145.5 0
8146.5 0
8147.5 0
8148.5 -1.42857
8149.5 0
8150.5 0
8151.5 -1.42857
8152.5 0
8153.5 1
8154.5 0
8155.5 -1.42857
8156.5 0
8157.5 -1.42857
8158.5 0
8159.5 0
8160.5 0
8161.5 0
8162.5 0
8163.5 0
8164.5 0
8165.5 0
8166.5 0
8167.5 0
8168.5 -1.42857
8169.5 1
8170.5 0
8171.5 0
8172.5 0
8173.5 0
8174.5 -1.42857
8175.5 0
8176.5 0
8177.5 -1.42857
8178.5 0
8179.5 0
8180.5 0
8181.5 0
8182.5 -1.85714
8183.5 0
8184.5 0
8185.5 -1.42857
8186.5 0
8187.5 1
8188.5 0
8189.5 0
8190.5 0
8191.5 0
8192.5 0
8193.5 -1.42857
8194.5 0
8195.5 0
8196.5 0
8197.5 0
8198.5 0
8199.5 0
8200.5 0
8201.5 0
8202.5 0
8203.5 0
8204.5 0
8205.5 0
8206.5 0
8207.5 0
8208.5 0
8209.5 0
8210.5 0
8211.5 0
8212.5 0
8213.5 0
8214.5 0
8215.5 0
8216.5 0
8217.5 0
8218.5 0
8219.5 0
8220.5 0
8221.5 0
8222.5 0
8223.5 0
8224.5 0
8225.5 0
8226.5 0
8227.5 0
8228.5 0
8229.5 0
8230.5 -1.42857
8231.5 0
8232.5 0
8233.5 0
8234.5 0
8235.5 0
8236.5 0
8237.5 -0.428571
8238.5 0
8239.5 1
8240.5 0
8241.5 1
8242.5 0
8243.5 1
8244.5 1
8245.5 0
8246.5 1
8247.5 0
8248.5 1
8249.5 0
8250.5 0
8251.5 0
8252.5 0
8253.5 0
8254.5 0
8255.5 0
8256.5 -1.42857
8257.5 0
8258.5 0
8259.5 -1.42857
8260.5 0
8261.5 0
8262.5 0
8263.5 -1.42857
8264.5 0
8265.5 0
8266.5 0
8267.5 0
8268.5 0
8269.5 0
8270.5 0
8271.5 1
8272.5 0
8273.5 0
8274.5 0
8275.5 0
8276.5 0
8277.5 0
8278.5 0
8279.5 0
8280.5 0
8281.5 0
8282.5 0
8283.5 1
8284.5 0
8285.5 0
8286.5 0
8287.5 0
8288.5 -1.42857
8289.5 0
8290.5 0
8291.5 0
8292.5 0
8293.5 0
8294.5 0
8295.5 0
8296.5 0
8297.5 0
8298.5 0
8299.5 0
8300.5 0
8301.5 0
8302.5 3
8303.5 0
8304.5 0
8305.5 0
8306.5 0
8307.5 0
8308.5 0
8309.5 -1.42857
8310.5 1
8311.5 1
8312.5 0
8313.5 0
8314.5 1
8315.5 0
8316.5 0
8317.5 0
8318.5 0
8319.5 0
8320.5 0
8321.5 -1.42857
8322.5 0
8323.5 0
8324.5 0
8325.5 0
8326.5 0
8327.5 1
8328.5 -1.42857
8329.5 0
8330.5 0
8331.5 0
8332.5 0
8333.5 0
8334.5 0
8335.5 0
8336.5 0
8337.5 1
8338.5 0
8339.5 0
8340.5 1
8341.5 0
8342.5 0
8343.5 0
8344.5 0
8345.5 0
8346.5 0
8347.5 0
8348.5 0
8349.5 0
8350.5 0
8351.5 0
8352.5 0
8353.5 0
8354.5 0
8355.5 0
8356.5 0
8357.5 0
8358.5 0
8359.5 0
8360.5 0
8361.5 0
8362.5 0
8363.5 0
8364.5 1
8365.5 0
8366.5 0
8367.5 0
8368.5 1
8369.5 0
8370.5 0
8371.5 0
8372.5 0
8373.5 0
8374.5 0
8375.5 0
8376.5 0
8377.5 0
8378.5 0
8379.5 0
8380.5 0
8381.5 0
8382.5 1
8383.5 0
8384.5 0
8385.5 0
8386.5 0
8387.5 -1.42857
8388.5 0
8389.5 0
8390.5 0
8391.5 0
8392.5 -1.42857
8393.5 0
8394.5 1
8395.5 0
8396.5 0
8397.5 0
8398.5 1
8399.5 0
8400.5 1
8401.5 0
8402.5 0
8403.5 0
8404.5 0
8405.5 0
8406.5 0
8407.5 0
8408.5 0
8409.5 0
8410.5 0
8411.5 -0.428571
8412.5 -1.42857
8413.5 0
8414.5 0
8415.5 0
8416.5 0
8417.5 0
8418.5 0
8419.5 1
8420.5 0
8421.5 1
8422.5 0
8423.5 0
8424.5 0
8425.5 0
8426.5 0
8427.5 0
8428.5 0
8429.5 1
8430.5 0
8431.5 -1.42857
8432.5 0
8433.5 0
8434.5 0
8435.5 -1.42857
8436.5 0
8437.5 0
8438.5 0
8439.5 0
8440.5 0
8441.5 1
8442.5 0
8443.5 0
8444.5 0
8445.5 0
8446.5 0
8447.5 0
8448.5 0
8449.5 0
8450.5 0
8451.5 0
8452.5 0
8453.5 0
8454.5 0
8455.5 0
8456.5 0
8457.5 0
8458.5 0
8459.5 0
8460.5 1
8461.5 0
8462.5 0
8463.5 0
8464.5 0
8465.5 0
8466.5 0
8467.5 0
8468.5 2
8469.5 1
8470.5 0
8471.5 2
8472.5 1
8473.5 0
8474.5 0
8475.5 0
8476.5 0
8477.5 0
8478.5 0
8479.5 0
8480.5 0
8481.5 0
8482.5 0
8483.5 0
8484.5 1
8485.5 -1.42857
8486.5 -1.42857
8487.5 0
8488.5 0
8489.5 0
8490.5 0
8491.5 0
8492.5 0
8493.5 0
8494.5 0
8495.5 0
8496.5 0
8497.5 1
8498.5 0
8499.5 0
8500.5 0
8501.5 0
8502.5 0
8503.5 0
8504.5 0
8505.5 0
8506.5 0
8507.5 1
8508.5 0
8509.5 0
8510.5 0
8511.5 0
8512.5 0
8513.5 1
8514.5 0
8515.5 1
8516.5 0
8517.5 0
8518.5 0
8519.5 -1.42857
8520.5 1
8521.5 -1.42857
8522.5 0
8523.5 0
8524.5 0
8525.5 0
8526.5 1
8527.5 0
8528.5 -2.85714
8529.5 1
8530.5 1
8531.5 0
8532.5 -1.42857
8533.5 0
8534.5 0
8535.5 -1.42857
8536.5 0
8537.5 0
8538.5 1
8539.5 1
8540.5 0
8541.5 0
8542.5 0
8543.5 1
8544.5 0
8545.5 -1.42857
8546.5 1
8547.5 0
8548.5 0
8549.5 0
8550.5 0
8551.5 0
8552.5 0
8553.5 0
8554.5 0
8555.5 0
8556.5 0
8557.5 0
8558.5 0
8559.5 0
8560.5 -1.42857
8561.5 0
8562.5 0
8563.5 0
8564.5 0
8565.5 0
8566.5 0
8567.5 0
8568.5 0
8569.5 0
8570.5 0
8571.5 0
8572.5 0
8573.5 0
8574.5 -0.428571
8575.5 0
8576.5 0
8577.5 0
8578.5 -1.42857
8579.5 1
8580.5 0
8581.5 -0.428571
8582.5 0
8583.5 0
8584.5 0
8585.5 1
8586.5 0
8587.5 0
8588.5 0
8589.5 0
8590.5 0
8591.5 0
8592.5 0
8593.5 0
8594.5 0
8595.5 0
8596.5 0
8597.5 1
8598.5 0
8599.5 0
8600.5 0
8601.5 0
8602.5 0
8603.5 1
8604.5 0
8605.5 0
8606.5 0
8607.5 0
8608.5 0
8609.5 0
8610.5 -1.42857
8611.5 0
8612.5 -1.42857
8613.5 0
8614.5 0
8615.5 0
8616.5 0
8617.5 0
8618.5 0
8619.5 0
8620.5 -2.85714
8621.5 0
8622.5 0
8623.5 0
8624.5 0
8625.5 0
8626.5 0
8627.5 0
8628.5 0
8629.5 0
8630.5 0
8631.5 -1.42857
8632.5 1
8633.5 -1.42857
8634.5 0
8635.5 1
8636.5 1
8637.5 0
8638.5 0
8639.5 0
8640.5 1
8641.5 1
8642.5 0
8643.5 0
8644.5 0
8645.5 0
8646.5 0
8647.5 0
8648.5 0
8649.5 0
8650.5 0
8651.5 0
8652.5 0
8653.5 0
8654.5 0
8655.5 2
8656.5 0
8657.5 -1.42857
8658.5 0
8659.5 0
8660.5 0
8661.5 0
8662.5 -1.42857
8663.5 0
8664.5 0
8665.5 0
8666.5 0
8667.5 0
8668.5 0
8669.5 0
8670.5 0
8671.5 0
8672.5 -1.42857
8673.5 0
8674.5 0
8675.5 0
8676.5 0
8677.5 0
8678.5 -1.42857
8679.5 0
8680.5 0
8681.5 0
8682.5 0
8683.5 0
8684.5 0
8685.5 0
8686.5 0
8687.5 0
8688.5 0
8689.5 0
8690.5 0
8691.5 0
8692.5 0
8693.5 0
8694.5 0
8695.5 0
8696.5 0
8697.5 0
8698.5 0
8699.5 0
8700.5 0
8701.5 0
8702.5 0
8703.5 0
8704.5 0
8705.5 1
8706.5 1
8707.5 0
8708.5 0
8709.5 0
8710.5 0
8711.5 0
8712.5 -1.42857
8713.5 0
8714.5 0
8715.5 0
8716.5 0
8717.5 0
8718.5 0
8719.5 0
8720.5 -1.42857
8721.5 0
8722.5 0
8723.5 0
8724.5 0
8725.5 0
8726.5 0
8727.5 -1.42857
8728.5 0
8729.5 0
8730.5 0
8731.5 -1.42857
8732.5 0
8733.5 0
8734.5 -0.428571
8735.5 0
8736.5 0
8737.5 0
8738.5 0
8739.5 0
8740.5 0
8741.5 0
8742.5 1
8743.5 0
8744.5 -1.42857
8745.5 0
8746.5 0
8747.5 0
8748.5 0
8749.5 0
8750.5 1
8751.5 0
8752.5 0
8753.5 0
8754.5 0
8755.5 0
8756.5 0
8757.5 0
8758.5 0
8759.5 0
8760.5 0
8761.5 0
8762.5 0
8763.5 0
8764.5 0
8765.5 0
8766.5 0
8767.5 0
8768.5 0
8769.5 0
8770.5 0
8771.5 0
8772.5 0
8773.5 0
8774.5 0
8775.5 0
8776.5 0
8777.5 0
8778.5 1
8779.5 0
8780.5 0
8781.5 1
8782.5 0
8783.5 0
8784.5 0
8785.5 0
8786.5 0
8787.5 0
8788.5 0
8789.5 0
8790.5 0
8791.5 0
8792.5 0
8793.5 0
8794.5 0
8795.5 0
8796.5 0
8797.5 0
8798.5 0
8799.5 0
8800.5 0
8801.5 0
8802.5 0
8803.5 0
8804.5 0
8805.5 1
8806.5 0
8807.5 0
8808.5 0
8809.5 0
8810.5 1
8811.5 0
8812.5 0
8813.5 0
8814.5 1
8815.5 0
8816.5 0
8817.5 0
8818.5 0
8819.5 0
8820.5 0
8821.5 -2.85714
8822.5 0
8823.5 0
8824.5 0
8825.5 0
8826.5 0
8827.5 0
8828.5 0
8829.5 0
8830.5 0
8831.5 0
8832.5 1
8833.5 0
8834.5 0
8835.5 0
8836.5 0
8837.5 0
8838.5 0
8839.5 0
8840.5 0
8841.5 0
8842.5 0
8843.5 0
8844.5 0
8845.5 0
8846.5 -1.42857
8847.5 1
8848.5 0
8849.5 0
8850.5 0
8851.5 0
8852.5 0
8853.5 0
8854.5 0
8855.5 0
8856.5 0
8857.5 2
8858.5 0
8859.5 0
8860.5 0
8861.5 0
8862.5 0
8863.5 0
8864.5 0
8865.5 1
8866.5 0
8867.5 0
8868.5 0
8869.5 -1.42857
8870.5 0
8871.5 0
8872.5 0
8873.5 0
8874.5 0
8875.5 0
8876.5 -1.42857
8877.5 0
8878.5 0
8879.5 0
8880.5 1
8881.5 0
8882.5 0
8883.5 0
8884.5 0
8885.5 0
8886.5 0
8887.5 0
8888.5 0
8889.5 0
8890.5 0
8891.5 0
8892.5 0
8893.5 0
8894.5 -1.42857
8895.5 0
8896.5 0
8897.5 0
8898.5 0
8899.5 0
8900.5 0
8901.5 0
8902.5 0
8903.5 0
8904.5 0
8905.5 0
8906.5 -1.42857
8907.5 0
8908.5 -0.428571
8909.5 0
8910.5 0
8911.5 1
8912.5 1
8913.5 0
8914.5 0
8915.5 0
8916.5 1
8917.5 0
8918.5 0
8919.5 0
8920.5 2
8921.5 0
8922.5 0
8923.5 0
8924.5 0
8925.5 0
8926.5 0
8927.5 0
8928.5 0
8929.5 0
8930.5 -1.42857
8931.5 0
8932.5 0
8933.5 -1.42857
8934.5 0
8935.5 0
8936.5 0
8937.5 0
8938.5 0
8939.5 0
8940.5 0
8941.5 0
8942.5 0
8943.5 0
8944.5 0
8945.5 0
8946.5 0
8947.5 0
8948.5 0
8949.5 0
8950.5 -1.42857
8951.5 0
8952.5 1
8953.5 1
8954.5 0
8955.5 0
8956.5 0
8957.5 0
8958.5 0
8959.5 0
8960.5 0
8961.5 0
8962.5 1
8963.5 0
8964.5 0
8965.5 0
8966.5 0
8967.5 0
8968.5 0
8969.5 0
8970.5 0
8971.5 0
8972.5 0
8973.5 0
8974.5 1
8975.5 0
8976.5 0
8977.5 0
8978.5 -1.42857
8979.5 0
8980.5 0
8981.5 1
8982.5 0
8983.5 0
8984.5 0
8985.5 0
8986.5 0
8987.5 0
8988.5 0
8989.5 0
8990.5 0
8991.5 0
8992.5 0
8993.5 0
8994.5 0
8995.5 0
8996.5 0
8997.5 0
8998.5 0
8999.5 0
9000.5 0
9001.5 0
9002.5 0
9003.5 0
9004.5 0
9005.5 0
9006.5 0
9007.5 0
9008.5 0
9009.5 0
9010.5 0
9011.5 0
9012.5 0
9013.5 0
9014.5 0
9015.5 0
9016.5 0
9017.5 0
9018.5 1
9019.5 0
9020.5 0
9021.5 0
9022.5 0
9023.5 0
9024.5 0
9025.5 0
9026.5 0
9027.5 0
9028.5 0
9029.5 -1.42857
9030.5 0
9031.5 0
9032.5 0
9033.5 0
9034.5 0
9035.5 0
9036.5 0
9037.5 0
9038.5 0
9039.5 0
9040.5 0
9041.5 0
9042.5 0
9043.5 0
9044.5 0
9045.5 0
9046.5 0
9047.5 0
9048.5 0
9049.5 0
9050.5 0
9051.5 0
9052.5 0
9053.5 0
9054.5 0
9055.5 1
9056.5 0
9057.5 0
9058.5 1
9059.5 0
9060.5 0
9061.5 0
9062.5 0
9063.5 0
9064.5 0
9065.5 0
9066.5 -1.42857
9067.5 0
9068.5 0
9069.5 -1.42857
9070.5 0
9071.5 0
9072.5 1
9073.5 -1.42857
9074.5 0
9075.5 0
9076.5 0
9077.5 0
9078.5 0
9079.5 0
9080.5 0
9081.5 0
9082.5 0
9083.5 0
9084.5 -1.42857
9085.5 0
9086.5 -1.42857
9087.5 0
9088.5 0
9089.5 0
9090.5 0
9091.5 -0.428571
9092.5 0
9093.5 0
9094.5 0
9095.5 0
9096.5 -1.42857
9097.5 0
9098.5 0
9099.5 0
9100.5 0
9101.5 0
9102.5 0
9103.5 0
9104.5 0
9105.5 0
9106.5 1
9107.5 0
9108.5 0
9109.5 0
9110.5 0
9111.5 0
9112.5 0
9113.5 0
9114.5 0
9115.5 0
9116.5 0
9117.5 0
9118.5 0
9119.5 0
9120.5 0
9121.5 0
9122.5 0
9123.5 0
9124.5 -1.42857
9125.5 0
9126.5 0
9127.5 0
9128.5 0
9129.5 0
9130.5 0
9131.5 0
9132.5 0
9133.5 0
9134.5 0
9135.5 0
9136.5 0
9137.5 0
9138.5 0
9139.5 0
9140.5 0
9141.5 0
9142.5 0
9143.5 0
9144.5 0
9145.5 -1.42857
9146.5 0
9147.5 0
9148.5 0
9149.5 0
9150.5 0
9151.5 0
9152.5 0
9153.5 0
9154.5 0
9155.5 0
9156.5 0
9157.5 0
9158.5 1
9159.5 0
9160.5 0
9161.5 0
9162.5 0
9163.5 0
9164.5 0
9165.5 0
9166.5 0
9167.5 0
9168.5 0
9169.5 0
9170.5 0
9171.5 0
9172.5 0
9173.5 0
9174.5 0
9175.5 0
9176.5 1
9177.5 0
9178.5 0
9179.5 0
9180.5 0
9181.5 0
9182.5 0
9183.5 0
9184.5 0
9185.5 0
9186.5 0
9187.5 0
9188.5 0
9189.5 0
9190.5 0
9191.5 0
9192.5 1
9193.5 0
9194.5 0
9195.5 0
9196.5 0
9197.5 0
9198.5 0
9199.5 0
9200.5 0
9201.5 0
9202.5 0
9203.5 0
9204.5 0
9205.5 0
9206.5 0
9207.5 -1.42857
9208.5 0
9209.5 0
9210.5 0
9211.5 1
9212.5 1
9213.5 0
9214.5 0
9215.5 0
9216.5 0
9217.5 0
9218.5 0
9219.5 0
9220.5 -1.42857
9221.5 0
9222.5 0
9223.5 0
9224.5 -1.42857
9225.5 0
9226.5 0
9227.5 0
9228.5 0
9229.5 0
9230.5 0
9231.5 0
9232.5 0
9233.5 0
9234.5 0
9235.5 0
9236.5 0
9237.5 0
9238.5 0
9239.5 1
9240.5 0
9241.5 0
9242.5 0
9243.5 0
9244.5 0
9245.5 0
9246.5 0
9247.5 0
9248.5 0
9249.5 0
9250.5 0
9251.5 0
9252.5 0
9253.5 0
9254.5 0
9255.5 0
9256.5 0
9257.5 0
9258.5 0
9259.5 0
9260.5 0
9261.5 0
9262.5 0
9263.5 0
9264.5 0
9265.5 0
9266.5 0
9267.5 0
9268.5 0
9269.5 0
9270.5 1
9271.5 0
9272.5 -1.42857
9273.5 1
9274.5 1
9275.5 -1.42857
9276.5 0
9277.5 0
9278.5 1
9279.5 0
9280.5 0
9281.5 0
9282.5 0
9283.5 0
9284.5 0
9285.5 -1.42857
9286.5 0
9287.5 0
9288.5 0
9289.5 0
9290.5 -1.42857
9291.5 0
9292.5 0
9293.5 0
9294.5 -1.42857
9295.5 1
9296.5 0
9297.5 0
9298.5 -1.42857
9299.5 0
9300.5 0
9301.5 0
9302.5 0
9303.5 0
9304.5 1
9305.5 0
9306.5 0
9307.5 0
9308.5 0
9309.5 0
9310.5 0
9311.5 -1.42857
9312.5 0
9313.5 0
9314.5 0
9315.5 0
9316.5 0
9317.5 0
9318.5 0
9319.5 0
9320.5 0
9321.5 0
9322.5 -1.42857
9323.5 0
9324.5 0
9325.5 0
9326.5 0
9327.5 0
9328.5 0
9329.5 0
9330.5 0
9331.5 0
9332.5 0
9333.5 0
9334.5 0
9335.5 0
9336.5 0
9337.5 0
9338.5 0
9339.5 0
9340.5 0
9341.5 0
9342.5 0
9343.5 0
9344.5 0
9345.5 0
9346.5 0
9347.5 0
9348.5 0
9349.5 0
9350.5 0
9351.5 0
9352.5 0
9353.5 0
9354.5 0
9355.5 0
9356.5 0
9357.5 0
9358.5 0
9359.5 0
9360.5 0
9361.5 0
9362.5 0
9363.5 -1.42857
9364.5 0
9365.5 0
9366.5 0
9367.5 -1.42857
9368.5 0
9369.5 0
9370.5 0
9371.5 0
9372.5 0
9373.5 0
9374.5 0
9375.5 0
9376.5 0
9377.5 0
9378.5 0
9379.5 0
9380.5 0
9381.5 0
9382.5 0
9383.5 0
9384.5 0
9385.5 0
9386.5 0
9387.5 0
9388.5 0
9389.5 0
9390.5 0
9391.5 0
9392.5 0
9393.5 0
9394.5 0
9395.5 1
9396.5 0
9397.5 0
9398.5 0
9399.5 0
9400.5 0
9401.5 0
9402.5 0
9403.5 0
9404.5 0
9405.5 0
9406.5 0
9407.5 -1.42857
9408.5 0
9409.5 0
9410.5 0
9411.5 0
9412.5 0
9413.5 0
9414.5 1
9415.5 0
9416.5 0
9417.5 0
9418.5 0
9419.5 0
9420.5 0
9421.5 0
9422.5 1
9423.5 0
9424.5 -1.42857
9425.5 0
9426.5 0
9427.5 0
9428.5 0
9429.5 0
9430.5 1
9431.5 0
9432.5 0
9433.5 0
9434.5 0
9435.5 0
9436.5 0
9437.5 0
9438.5 0
9439.5 0
9440.5 0
9441.5 0
9442.5 0
9443.5 0
9444.5 0
9445.5 0
9446.5 -1.42857
9447.5 0
9448.5 0
9449.5 0
9450.5 0
9451.5 0
9452.5 0
9453.5 0
9454.5 0
9455.5 0
9456.5 0
9457.5 1
9458.5 0
9459.5 0
9460.5 0
9461.5 0
9462.5 0
9463.5 0
9464.5 0
9465.5 0
9466.5 0
9467.5 0
9468.5 0
9469.5 0
9470.5 0
9471.5 0
9472.5 0
9473.5 0
9474.5 0
9475.5 0
9476.5 0
9477.5 0
9478.5 0
9479.5 0
9480.5 0
9481.5 0
9482.5 0
9483.5 0
9484.5 0
9485.5 0
9486.5 0
9487.5 0
9488.5 0
9489.5 0
9490.5 0
9491.5 0
9492.5 0
9493.5 0
9494.5 0
9495.5 0
9496.5 0
9497.5 0
9498.5 0
9499.5 0
9500.5 1
9501.5 -1.42857
9502.5 0
9503.5 -1.42857
9504.5 0
9505.5 0
9506.5 0
9507.5 0
9508.5 0
9509.5 0
9510.5 -1.42857
9511.5 0
9512.5 0
9513.5 0
9514.5 0
9515.5 0
9516.5 0
9517.5 0
9518.5 0
9519.5 0
9520.5 0
9521.5 0
9522.5 0
9523.5 0
9524.5 0
9525.5 0
9526.5 0
9527.5 0
9528.5 0
9529.5 0
9530.5 0
9531.5 0
9532.5 0
9533.5 0
9534.5 0
9535.5 0
9536.5 0
9537.5 0
9538.5 0
9539.5 0
9540.5 0
9541.5 0
9542.5 0
9543.5 0
9544.5 0
9545.5 0
9546.5 0
9547.5 0
9548.5 0
9549.5 0
9550.5 0
9551.5 0
9552.5 0
9553.5 0
9554.5 0
9555.5 0
9556.5 0
9557.5 0
9558.5 0
9559.5 0
9560.5 0
9561.5 0
9562.5 0
9563.5 0
9564.5 0
9565.5 0
9566.5 0
9567.5 0
9568.5 0
9569.5 0
9570.5 0
9571.5 0
9572.5 0
9573.5 -1.42857
9574.5 0
9575.5 0
9576.5 0
9577.5 0
9578.5 -1.42857
9579.5 0
9580.5 0
9581.5 0
9582.5 0
9583.5 0
9584.5 0
9585.5 0
9586.5 0
9587.5 0
9588.5 0
9589.5 0
9590.5 0
9591.5 0
9592.5 0
9593.5 0
9594.5 0
9595.5 0
9596.5 0
9597.5 0
9598.5 0
9599.5 0
9600.5 0
9601.5 0
9602.5 -1.42857
9603.5 0
9604.5 0
9605.5 0
9606.5 0
9607.5 0
9608.5 1
9609.5 0
9610.5 0
9611.5 0
9612.5 0
9613.5 0
9614.5 0
9615.5 0
9616.5 0
9617.5 0
9618.5 0
9619.5 0
9620.5 0
9621.5 0
9622.5 0
9623.5 0
9624.5 0
9625.5 0
9626.5 0
9627.5 0
9628.5 0
9629.5 0
9630.5 0
9631.5 0
9632.5 0
9633.5 0
9634.5 0
9635.5 0
9636.5 0
9637.5 0
9638.5 -1.42857
9639.5 0
9640.5 0
9641.5 0
9642.5 0
9643.5 0
9644.5 0
9645.5 0
9646.5 1
9647.5 0
9648.5 0
9649.5 0
9650.5 0
9651.5 0
9652.5 0
9653.5 0
9654.5 0
9655.5 0
9656.5 0
9657.5 0
9658.5 0
9659.5 0
9660.5 0
9661.5 0
9662.5 0
9663.5 0
9664.5 0
9665.5 0
9666.5 0
9667.5 0
9668.5 -1.42857
9669.5 1
9670.5 0
9671.5 0
9672.5 0
9673.5 0
9674.5 0
9675.5 0
9676.5 0
9677.5 0
9678.5 0
9679.5 0
9680.5 0
9681.5 0
9682.5 0
9683.5 0
9684.5 0
9685.5 0
9686.5 0
9687.5 0
9688.5 0
9689.5 0
9690.5 0
9691.5 0
9692.5 0
9693.5 0
9694.5 0
9695.5 0
9696.5 0
9697.5 0
9698.5 0
9699.5 0
9700.5 0
9701.5 0
9702.5 1
9703.5 0
9704.5 0
9705.5 0
9706.5 0
9707.5 0
9708.5 1
9709.5 0
9710.5 0
9711.5 0
9712.5 0
9713.5 0
9714.5 0
9715.5 0
9716.5 1
9717.5 0
9718.5 0
9719.5 0
9720.5 0
9721.5 0
9722.5 0
9723.5 1
9724.5 0
9725.5 0
9726.5 0
9727.5 0
9728.5 0
9729.5 -1.42857
9730.5 0
9731.5 0
9732.5 0
9733.5 0
9734.5 0
9735.5 0
9736.5 0
9737.5 -1.42857
9738.5 0
9739.5 1
9740.5 0
9741.5 0
9742.5 0
9743.5 0
9744.5 0
9745.5 0
9746.5 0
9747.5 0
9748.5 0
9749.5 0
9750.5 0
9751.5 0
9752.5 0
9753.5 0
9754.5 0
9755.5 0
9756.5 0
9757.5 0
9758.5 0
9759.5 0
9760.5 0
9761.5 0
9762.5 -1.42857
9763.5 1
9764.5 1
9765.5 0
9766.5 0
9767.5 0
9768.5 0
9769.5 0
9770.5 0
9771.5 0
9772.5 0
9773.5 0
9774.5 0
9775.5 0
9776.5 0
9777.5 0
9778.5 0
9779.5 0
9780.5 0
9781.5 0
9782.5 0
9783.5 0
9784.5 0
9785.5 0
9786.5 0
9787.5 0
9788.5 0
9789.5 0
9790.5 0
9791.5 0
9792.5 0
9793.5 0
9794.5 -1.42857
9795.5 1
9796.5 0
9797.5 0
9798.5 0
9799.5 0
9800.5 0
9801.5 0
9802.5 0
9803.5 0
9804.5 0
9805.5 0
9806.5 1
9807.5 0
9808.5 0
9809.5 0
9810.5 0
9811.5 0
9812.5 0
9813.5 0
9814.5 0
9815.5 0
9816.5 0
9817.5 0
9818.5 0
9819.5 0
9820.5 0
9821.5 0
9822.5 0
9823.5 0
9824.5 0
9825.5 0
9826.5 0
9827.5 0
9828.5 0
9829.5 0
9830.5 0
9831.5 0
9832.5 0
9833.5 0
9834.5 0
9835.5 0
9836.5 0
9837.5 0
9838.5 0
9839.5 0
9840.5 1
9841.5 0
9842.5 0
9843.5 0
9844.5 0
9845.5 0
9846.5 0
9847.5 0
9848.5 0
9849.5 0
9850.5 0
9851.5 0
9852.5 0
9853.5 0
9854.5 0
9855.5 0
9856.5 0
9857.5 0
9858.5 0
9859.5 0
9860.5 0
9861.5 0
9862.5 0
9863.5 0
9864.5 0
9865.5 0
9866.5 0
9867.5 0
9868.5 0
9869.5 0
9870.5 0
9871.5 0
9872.5 0
9873.5 0
9874.5 0
9875.5 0
9876.5 0
9877.5 0
9878.5 0
9879.5 0
9880.5 -1.42857
9881.5 0
9882.5 0
9883.5 0
9884.5 -1.42857
9885.5 0
9886.5 0
9887.5 0
9888.5 0
9889.5 0
9890.5 0
9891.5 0
9892.5 0
9893.5 0
9894.5 0
9895.5 0
9896.5 0
9897.5 0
9898.5 0
9899.5 0
9900.5 0
9901.5 0
9902.5 0
9903.5 0
9904.5 0
9905.5 0
9906.5 0
9907.5 0
9908.5 0
9909.5 0
9910.5 0
9911.5 0
9912.5 0
9913.5 0
9914.5 0
9915.5 0
9916.5 0
9917.5 0
9918.5 0
9919.5 0
9920.5 0
9921.5 0
9922.5 0
9923.5 1
9924.5 0
9925.5 0
9926.5 0
9927.5 0
9928.5 0
9929.5 0
9930.5 0
9931.5 0
9932.5 0
9933.5 0
9934.5 0
9935.5 0
9936.5 1
9937.5 0
9938.5 0
9939.5 0
9940.5 0
9941.5 0
9942.5 0
9943.5 0
9944.5 0
9945.5 0
9946.5 0
9947.5 0
9948.5 0
9949.5 0
9950.5 0
9951.5 0
9952.5 0
9953.5 0
9954.5 0
9955.5 0
9956.5 0
9957.5 -1.42857
9958.5 0
9959.5 0
9960.5 0
9961.5 0
9962.5 0
9963.5 0
9964.5 0
9965.5 0
9966.5 0
9967.5 0
9968.5 0
9969.5 0
9970.5 0
9971.5 0
9972.5 1
9973.5 0
9974.5 0
9975.5 0
9976.5 0
9977.5 0
9978.5 0
9979.5 0
9980.5 0
9981.5 0
9982.5 0
9983.5 0
9984.5 0
9985.5 0
9986.5 0
9987.5 0
9988.5 0
9989.5 0
9990.5 0
9991.5 0
9992.5 0
9993.5 0
9994.5 0
9995.5 0
9996.5 0
9997.5 0
9998.5 0
9999.5 0
10000.5 0
10001.5 0
10002.5 0
10003.5 0
10004.5 0
10005.5 0
10006.5 0
10007.5 0
10008.5 0
10009.5 0
10010.5 0
10011.5 0
10012.5 0
10013.5 0
10014.5 0
10015.5 0
10016.5 0
10017.5 0
10018.5 0
10019.5 0
10020.5 0
10021.5 0
10022.5 0
10023.5 0
10024.5 0
10025.5 0
10026.5 0
10027.5 0
10028.5 0
10029.5 0
10030.5 0
10031.5 0
10032.5 0
10033.5 0
10034.5 0
10035.5 0
10036.5 1
10037.5 0
10038.5 0
10039.5 0
10040.5 0
10041.5 0
10042.5 0
10043.5 0
10044.5 0
10045.5 0
10046.5 0
10047.5 0
10048.5 0
10049.5 0
10050.5 0
10051.5 0
10052.5 0
10053.5 0
10054.5 0
10055.5 0
10056.5 0
10057.5 0
10058.5 0
10059.5 0
10060.5 0
10061.5 0
10062.5 0
10063.5 0
10064.5 0
10065.5 0
10066.5 0
10067.5 0
10068.5 0
10069.5 0
10070.5 0
10071.5 0
10072.5 0
10073.5 0
10074.5 0
10075.5 0
10076.5 0
10077.5 0
10078.5 0
10079.5 0
10080.5 0
10081.5 0
10082.5 0
10083.5 0
10084.5 0
10085.5 0
10086.5 0
10087.5 0
10088.5 0
10089.5 0
10090.5 0
10091.5 0
10092.5 0
10093.5 0
10094.5 0
10095.5 0
10096.5 0
10097.5 0
10098.5 0
10099.5 0
10100.5 0
10101.5 0
10102.5 0
10103.5 0
10104.5 0
10105.5 0
10106.5 0
10107.5 0
10108.5 0
10109.5 0
10110.5 0
10111.5 0
10112.5 0
10113.5 0
10114.5 0
10115.5 0
10116.5 0
10117.5 0
10118.5 0
10119.5 0
10120.5 0
10121.5 0
10122.5 0
10123.5 0
10124.5 0
10125.5 0
10126.5 0
10127.5 0
10128.5 0
10129.5 0
10130.5 0
10131.5 0
10132.5 0
10133.5 0
10134.5 0
10135.5 0
10136.5 0
10137.5 0
10138.5 0
10139.5 0
10140.5 0
10141.5 0
10142.5 0
10143.5 0
10144.5 0
10145.5 1
10146.5 0
10147.5 0
10148.5 0
10149.5 0
10150.5 0
10151.5 0
10152.5 0
10153.5 0
10154.5 0
10155.5 0
10156.5 0
10157.5 0
10158.5 0
10159.5 0
10160.5 1
10161.5 0
10162.5 0
10163.5 0
10164.5 0
10165.5 0
10166.5 0
10167.5 0
10168.5 0
10169.5 0
10170.5 0
10171.5 0
10172.5 0
10173.5 0
10174.5 0
10175.5 0
10176.5 0
10177.5 0
10178.5 0
10179.5 0
10180.5 0
10181.5 1
10182.5 0
10183.5 0
10184.5 0
10185.5 0
10186.5 0
10187.5 0
10188.5 0
10189.5 1
10190.5 0
10191.5 0
10192.5 0
10193.5 0
10194.5 0
10195.5 0
10196.5 0
10197.5 0
10198.5 0
10199.5 0
10200.5 0
10201.5 0
10202.5 0
10203.5 0
10204.5 0
10205.5 0
10206.5 0
10207.5 0
10208.5 0
10209.5 0
10210.5 0
10211.5 0
10212.5 0
10213.5 0
10214.5 0
10215.5 0
10216.5 0
10217.5 0
10218.5 0
10219.5 0
10220.5 0
10221.5 0
10222.5 0
10223.5 0
10224.5 0
10225.5 0
10226.5 0
10227.5 0
10228.5 0
10229.5 0
10230.5 0
10231.5 0
10232.5 0
10233.5 0
10234.5 0
10235.5 0
10236.5 0
10237.5 0
10238.5 0
10239.5 0
10240.5 0
10241.5 0
10242.5 0
10243.5 0
10244.5 0
10245.5 0
10246.5 0
10247.5 0
10248.5 0
10249.5 0
10250.5 0
10251.5 0
10252.5 0
10253.5 0
10254.5 0
10255.5 0
10256.5 0
10257.5 0
10258.5 0
10259.5 0
10260.5 0
10261.5 0
10262.5 0
10263.5 0
10264.5 -0.428571
10265.5 0
10266.5 0
10267.5 0
10268.5 0
10269.5 0
10270.5 0
10271.5 0
10272.5 0
10273.5 0
10274.5 0
10275.5 0
10276.5 0
10277.5 0
10278.5 0
10279.5 0
10280.5 0
10281.5 0
10282.5 0
10283.5 0
10284.5 0
10285.5 0
10286.5 0
10287.5 0
10288.5 0
10289.5 0
10290.5 0
10291.5 0
10292.5 0
10293.5 0
10294.5 0
10295.5 0
10296.5 0
10297.5 0
10298.5 0
10299.5 0
10300.5 0
10301.5 0
10302.5 0
10303.5 0
10304.5 0
10305.5 0
10306.5 0
10307.5 0
10308.5 0
10309.5 0
10310.5 0
10311.5 0
10312.5 0
10313.5 0
10314.5 0
10315.5 0
10316.5 0
10317.5 0
10318.5 0
10319.5 0
10320.5 0
10321.5 0
10322.5 0
10323.5 0
10324.5 0
10325.5 0
10326.5 0
10327.5 0
10328.5 0
10329.5 0
10330.5 0
10331.5 0
10332.5 0
10333.5 0
10334.5 0
10335.5 0
10336.5 0
10337.5 0
10338.5 0
10339.5 0
10340.5 0
10341.5 0
10342.5 0
10343.5 0
10344.5 0
10345.5 0
10346.5 0
10347.5 0
10348.5 0
10349.5 0
10350.5 0
10351.5 0
10352.5 0
10353.5 0
10354.5 0
10355.5 0
10356.5 0
10357.5 0
10358.5 0
10359.5 0
10360.5 0
10361.5 0
10362.5 0
10363.5 0
10364.5 0
10365.5 0
10366.5 0
10367.5 0
10368.5 0
10369.5 0
10370.5 0
10371.5 0
10372.5 0
10373.5 0
10374.5 0
10375.5 0
10376.5 0
10377.5 0
10378.5 0
10379.5 0
10380.5 0
10381.5 0
10382.5 0
10383.5 0
10384.5 0
10385.5 0
10386.5 0
10387.5 0
10388.5 0
10389.5 0
10390.5 0
10391.5 0
10392.5 0
10393.5 0
10394.5 0
10395.5 0
10396.5 0
10397.5 0
10398.5 0
10399.5 0
10400.5 0
10401.5 0
10402.5 0
10403.5 0
10404.5 0
10405.5 0
10406.5 0
10407.5 0
10408.5 0
10409.5 0
10410.5 0
10411.5 0
10412.5 0
10413.5 0
10414.5 0
10415.5 0
10416.5 0
10417.5 0
10418.5 0
10419.5 0
10420.5 0
10421.5 0
10422.5 0
10423.5 0
10424.5 0
10425.5 0
10426.5 0
10427.5 0
10428.5 1
10429.5 0
10430.5 0
10431.5 1
10432.5 0
10433.5 0
10434.5 0
10435.5 0
10436.5 0
10437.5 0
10438.5 0
10439.5 0
10440.5 0
10441.5 0
10442.5 0
10443.5 0
10444.5 0
10445.5 0
10446.5 0
10447.5 0
10448.5 0
10449.5 0
10450.5 0
10451.5 0
10452.5 0
10453.5 0
10454.5 0
10455.5 0
10456.5 0
10457.5 0
10458.5 0
10459.5 0
10460.5 0
10461.5 0
10462.5 0
10463.5 0
10464.5 0
10465.5 0
10466.5 0
10467.5 0
10468.5 0
10469.5 0
10470.5 0
10471.5 0
10472.5 0
10473.5 0
10474.5 0
10475.5 0
10476.5 0
10477.5 0
10478.5 0
10479.5 0
10480.5 0
10481.5 0
10482.5 0
10483.5 0
10484.5 0
10485.5 0
10486.5 0
10487.5 0
10488.5 0
10489.5 0
10490.5 0
10491.5 0
10492.5 0
10493.5 0
10494.5 0
10495.5 0
10496.5 0
10497.5 0
10498.5 0
10499.5 0
10500.5 0
10501.5 0
10502.5 0
10503.5 0
10504.5 0
10505.5 0
10506.5 0
10507.5 0
10508.5 0
10509.5 0
10510.5 0
10511.5 0
10512.5 0
10513.5 0
10514.5 0
10515.5 0
10516.5 0
10517.5 0
10518.5 0
10519.5 0
10520.5 0
10521.5 0
10522.5 0
10523.5 0
10524.5 0
10525.5 0
10526.5 0
10527.5 0
10528.5 0
10529.5 0
10530.5 0
10531.5 0
10532.5 0
10533.5 0
10534.5 0
10535.5 0
10536.5 0
10537.5 0
10538.5 0
10539.5 0
10540.5 0
10541.5 0
10542.5 0
10543.5 0
10544.5 0
10545.5 0
10546.5 0
10547.5 0
10548.5 0
10549.5 0
10550.5 0
10551.5 0
10552.5 0
10553.5 0
10554.5 0
10555.5 0
10556.5 0
10557.5 0
10558.5 0
10559.5 0
10560.5 0
10561.5 0
10562.5 0
10563.5 0
10564.5 0
10565.5 0
10566.5 0
10567.5 0
10568.5 0
10569.5 0
10570.5 0
10571.5 0
10572.5 0
10573.5 0
10574.5 0
10575.5 0
10576.5 0
10577.5 0
10578.5 0
10579.5 0
10580.5 0
10581.5 0
10582.5 0
10583.5 0
10584.5 0
10585.5 0
10586.5 0
10587.5 0
10588.5 0
10589.5 0
10590.5 0
10591.5 0
10592.5 0
10593.5 0
10594.5 0
10595.5 0
10596.5 0
10597.5 0
10598.5 0
10599.5 0
10600.5 0
10601.5 0
10602.5 0
10603.5 0
10604.5 0
10605.5 0
10606.5 0
10607.5 0
10608.5 0
10609.5 0
10610.5 0
10611.5 0
10612.5 0
10613.5 0
10614.5 0
10615.5 0
10616.5 0
10617.5 0
10618.5 0
10619.5 0
10620.5 -1.42857
10621.5 0
10622.5 0
10623.5 0
10624.5 0
10625.5 0
10626.5 0
10627.5 0
10628.5 0
10629.5 0
10630.5 0
10631.5 0
10632.5 0
10633.5 0
10634.5 0
10635.5 0
10636.5 0
10637.5 0
10638.5 0
10639.5 0
10640.5 0
10641.5 0
10642.5 0
10643.5 0
10644.5 0
10645.5 0
10646.5 0
10647.5 0
10648.5 0
10649.5 0
10650.5 0
10651.5 0
10652.5 0
10653.5 0
10654.5 0
10655.5 0
10656.5 0
10657.5 0
10658.5 0
10659.5 0
10660.5 0
10661.5 0
10662.5 0
10663.5 0
10664.5 0
10665.5 0
10666.5 0
10667.5 0
10668.5 0
10669.5 0
10670.5 0
10671.5 0
10672.5 0
10673.5 0
10674.5 0
10675.5 0
10676.5 0
10677.5 0
10678.5 0
10679.5 0
10680.5 0
10681.5 0
10682.5 0
10683.5 0
10684.5 0
10685.5 0
10686.5 0
10687.5 0
10688.5 0
10689.5 0
10690.5 0
10691.5 0
10692.5 0
10693.5 0
10694.5 0
10695.5 0
10696.5 0
10697.5 0
10698.5 0
10699.5 0
10700.5 0
10701.5 0
10702.5 0
10703.5 0
10704.5 0
10705.5 0
10706.5 0
10707.5 0
10708.5 0
10709.5 0
10710.5 0
10711.5 0
10712.5 0
10713.5 0
10714.5 0
10715.5 0
10716.5 0
10717.5 0
10718.5 0
10719.5 0
10720.5 0
10721.5 0
10722.5 0
10723.5 0
10724.5 0
10725.5 0
10726.5 0
10727.5 0
10728.5 0
10729.5 0
10730.5 0
10731.5 0
10732.5 0
10733.5 0
10734.5 0
10735.5 0
10736.5 0
10737.5 0
10738.5 0
10739.5 0
10740.5 0
10741.5 0
10742.5 0
10743.5 0
10744.5 0
10745.5 0
10746.5 0
10747.5 0
10748.5 0
10749.5 0
10750.5 0
10751.5 0
10752.5 0
10753.5 0
10754.5 0
10755.5 0
10756.5 0
10757.5 0
10758.5 0
10759.5 0
10760.5 0
10761.5 0
10762.5 0
10763.5 0
10764.5 0
10765.5 0
10766.5 0
10767.5 0
10768.5 0
10769.5 0
10770.5 0
10771.5 0
10772.5 0
10773.5 0
10774.5 0
10775.5 0
10776.5 0
10777.5 0
10778.5 0
10779.5 0
10780.5 0
10781.5 0
10782.5 0
10783.5 0
10784.5 0
10785.5 0
10786.5 0
10787.5 0
10788.5 0
10789.5 0
10790.5 0
10791.5 0
10792.5 0
10793.5 0
10794.5 0
10795.5 0
10796.5 0
10797.5 0
10798.5 0
10799.5 0
10800.5 0
10801.5 0
10802.5 0
10803.5 0
10804.5 0
10805.5 0
10806.5 0
10807.5 0
10808.5 0
10809.5 0
10810.5 0
10811.5 0
10812.5 0
10813.5 0
10814.5 0
10815.5 0
10816.5 0
10817.5 0
10818.5 0
10819.5 0
10820.5 0
10821.5 0
10822.5 0
10823.5 0
10824.5 0
10825.5 0
10826.5 0
10827.5 -1.42857
10828.5 0
10829.5 0
10830.5 0
10831.5 0
10832.5 0
10833.5 0
10834.5 0
10835.5 0
10836.5 0
10837.5 0
10838.5 0
10839.5 0
10840.5 0
10841.5 0
10842.5 0
10843.5 0
10844.5 0
10845.5 0
10846.5 0
10847.5 0
10848.5 0
10849.5 0
10850.5 0
10851.5 0
10852.5 0
10853.5 0
10854.5 0
10855.5 0
10856.5 0
10857.5 0
10858.5 0
10859.5 0
10860.5 0
10861.5 0
10862.5 0
10863.5 0
10864.5 0
10865.5 0
10866.5 0
10867.5 1
10868.5 0
10869.5 0
10870.5 0
10871.5 0
10872.5 0
10873.5 0
10874.5 0
10875.5 0
10876.5 0
10877.5 0
10878.5 0
10879.5 0
10880.5 0
10881.5 0
10882.5 0
10883.5 0
10884.5 0
10885.5 0
10886.5 0
10887.5 0
10888.5 0
10889.5 0
10890.5 0
10891.5 0
10892.5 0
10893.5 0
10894.5 0
10895.5 0
10896.5 0
10897.5 0
10898.5 0
10899.5 0
10900.5 0
10901.5 0
10902.5 0
10903.5 0
10904.5 0
10905.5 0
10906.5 0
10907.5 0
10908.5 0
10909.5 0
10910.5 0
10911.5 0
10912.5 0
10913.5 0
10914.5 0
10915.5 0
10916.5 0
10917.5 0
10918.5 0
10919.5 0
10920.5 0
10921.5 0
10922.5 0
10923.5 0
10924.5 0
10925.5 0
10926.5 0
10927.5 0
10928.5 0
10929.5 0
10930.5 0
10931.5 0
10932.5 0
10933.5 0
10934.5 0
10935.5 0
10936.5 0
10937.5 0
10938.5 0
10939.5 0
10940.5 0
10941.5 0
10942.5 0
10943.5 0
10944.5 0
10945.5 0
10946.5 0
10947.5 0
10948.5 0
10949.5 0
10950.5 0
10951.5 0
10952.5 0
10953.5 0
10954.5 0
10955.5 0
10956.5 0
10957.5 0
10958.5 0
10959.5 0
10960.5 0
10961.5 0
10962.5 0
10963.5 0
10964.5 0
10965.5 0
10966.5 0
10967.5 0
10968.5 0
10969.5 0
10970.5 0
10971.5 0
10972.5 0
10973.5 0
10974.5 0
10975.5 0
10976.5 0
10977.5 0
10978.5 0
10979.5 0
10980.5 0
10981.5 0
10982.5 0
10983.5 0
10984.5 0
10985.5 0
10986.5 0
10987.5 0
10988.5 0
10989.5 0
10990.5 0
10991.5 0
10992.5 0
10993.5 0
10994.5 0
10995.5 0
10996.5 0
10997.5 0
10998.5 0
10999.5 0
11000.5 0
11001.5 0
11002.5 0
11003.5 0
11004.5 0
11005.5 0
11006.5 0
11007.5 0
11008.5 0
11009.5 0
11010.5 0
11011.5 0
11012.5 0
11013.5 0
11014.5 0
11015.5 0
11016.5 0
11017.5 0
11018.5 0
11019.5 0
11020.5 0
11021.5 0
11022.5 0
11023.5 0
11024.5 0
11025.5 0
11026.5 0
11027.5 0
11028.5 0
11029.5 0
11030.5 0
11031.5 0
11032.5 0
11033.5 0
11034.5 0
11035.5 0
11036.5 0
11037.5 0
11038.5 0
11039.5 0
11040.5 0
11041.5 0
11042.5 0
11043.5 0
11044.5 0
11045.5 0
11046.5 0
11047.5 0
11048.5 0
11049.5 0
11050.5 0
11051.5 0
11052.5 0
11053.5 0
11054.5 0
11055.5 0
11056.5 0
11057.5 0
11058.5 0
11059.5 0
11060.5 0
11061.5 0
11062.5 0
11063.5 0
11064.5 0
11065.5 0
11066.5 0
11067.5 0
11068.5 0
11069.5 0
11070.5 0
11071.5 0
11072.5 0
11073.5 0
11074.5 0
11075.5 0
11076.5 0
11077.5 0
11078.5 0
11079.5 0
11080.5 0
11081.5 0
11082.5 0
11083.5 0
11084.5 0
11085.5 0
11086.5 0
11087.5 0
11088.5 0
11089.5 0
11090.5 0
11091.5 0
11092.5 0
11093.5 0
11094.5 0
11095.5 0
11096.5 0
11097.5 0
11098.5 0
11099.5 0
11100.5 0
11101.5 0
11102.5 0
11103.5 0
11104.5 0
11105.5 0
11106.5 0
11107.5 0
11108.5 0
11109.5 0
11110.5 0
11111.5 0
11112.5 0
11113.5 0
11114.5 0
11115.5 0
11116.5 0
11117.5 0
11118.5 0
11119.5 0
11120.5 0
11121.5 0
11122.5 0
11123.5 0
11124.5 0
11125.5 0
11126.5 0
11127.5 0
11128.5 0
11129.5 0
11130.5 0
11131.5 0
11132.5 0
11133.5 0
11134.5 0
11135.5 0
11136.5 0
11137.5 0
11138.5 0
11139.5 0
11140.5 0
11141.5 0
11142.5 0
11143.5 0
11144.5 0
11145.5 0
11146.5 0
11147.5 0
11148.5 0
11149.5 0
11150.5 0
11151.5 0
11152.5 0
11153.5 0
11154.5 0
11155.5 0
11156.5 0
11157.5 0
11158.5 0
11159.5 0
11160.5 0
11161.5 0
11162.5 0
11163.5 0
11164.5 0
11165.5 0
11166.5 0
11167.5 0
11168.5 0
11169.5 0
11170.5 0
11171.5 0
11172.5 0
11173.5 0
11174.5 0
11175.5 0
11176.5 0
11177.5 0
11178.5 0
11179.5 0
11180.5 0
11181.5 0
11182.5 0
11183.5 0
11184.5 0
11185.5 0
11186.5 0
11187.5 0
11188.5 0
11189.5 0
11190.5 1
11191.5 0
11192.5 0
11193.5 0
11194.5 0
11195.5 0
11196.5 0
11197.5 0
11198.5 0
11199.5 0
11200.5 0
11201.5 0
11202.5 0
11203.5 0
11204.5 0
11205.5 0
11206.5 0
11207.5 0
11208.5 0
11209.5 0
11210.5 0
11211.5 0
11212.5 0
11213.5 0
11214.5 0
11215.5 0
11216.5 0
11217.5 0
11218.5 0
11219.5 0
11220.5 0
11221.5 0
11222.5 0
11223.5 0
11224.5 0
11225.5 0
11226.5 0
11227.5 0
11228.5 0
11229.5 0
11230.5 0
11231.5 0
11232.5 0
11233.5 0
11234.5 0
11235.5 0
11236.5 0
11237.5 0
11238.5 0
11239.5 0
11240.5 0
11241.5 0
11242.5 0
11243.5 0
11244.5 0
11245.5 0
11246.5 0
11247.5 0
11248.5 0
11249.5 0
11250.5 0
11251.5 0
11252.5 0
11253.5 0
11254.5 0
11255.5 0
11256.5 0
11257.5 0
11258.5 0
11259.5 0
11260.5 0
11261.5 0
11262.5 0
11263.5 0
11264.5 0
11265.5 0
11266.5 0
11267.5 0
11268.5 0
11269.5 0
11270.5 0
11271.5 0
11272.5 0
11273.5 0
11274.5 0
11275.5 0
11276.5 0
11277.5 0
11278.5 0
11279.5 0
11280.5 0
11281.5 0
11282.5 0
11283.5 0
11284.5 0
11285.5 0
11286.5 1
11287.5 0
11288.5 0
11289.5 0
11290.5 0
11291.5 0
11292.5 0
11293.5 0
11294.5 0
11295.5 0
11296.5 0
11297.5 0
11298.5 0
11299.5 0
11300.5 0
11301.5 0
11302.5 0
11303.5 0
11304.5 0
11305.5 0
11306.5 0
11307.5 0
11308.5 -1.42857
11309.5 0
11310.5 0
11311.5 0
11312.5 0
11313.5 0
11314.5 0
11315.5 0
11316.5 0
11317.5 0
11318.5 0
11319.5 0
11320.5 0
11321.5 0
11322.5 0
11323.5 0
11324.5 0
11325.5 0
11326.5 0
11327.5 0
11328.5 0
11329.5 0
11330.5 0
11331.5 0
11332.5 0
11333.5 0
11334.5 0
11335.5 0
11336.5 0
11337.5 0
11338.5 0
11339.5 0
11340.5 0
11341.5 0
11342.5 0
11343.5 0
11344.5 0
11345.5 0
11346.5 0
11347.5 0
11348.5 0
11349.5 0
11350.5 0
11351.5 0
11352.5 0
11353.5 0
11354.5 0
11355.5 0
11356.5 0
11357.5 0
11358.5 0
11359.5 0
11360.5 0
11361.5 0
11362.5 0
11363.5 0
11364.5 0
11365.5 0
11366.5 0
11367.5 0
11368.5 0
11369.5 0
11370.5 0
11371.5 0
11372.5 0
11373.5 0
11374.5 0
11375.5 0
11376.5 0
11377.5 0
11378.5 0
11379.5 0
11380.5 0
11381.5 0
11382.5 0
11383.5 0
11384.5 0
11385.5 0
11386.5 0
11387.5 0
11388.5 0
11389.5 0
11390.5 0
11391.5 0
11392.5 0
11393.5 0
11394.5 0
11395.5 0
11396.5 0
11397.5 0
11398.5 0
11399.5 0
11400.5 0
11401.5 0
11402.5 0
11403.5 0
11404.5 0
11405.5 0
11406.5 0
11407.5 0
11408.5 0
11409.5 0
11410.5 0
11411.5 0
11412.5 0
11413.5 0
11414.5 0
11415.5 0
11416.5 0
11417.5 0
11418.5 0
11419.5 0
11420.5 0
11421.5 0
11422.5 0
11423.5 0
11424.5 0
11425.5 0
11426.5 0
11427.5 0
11428.5 0
11429.5 0
11430.5 0
11431.5 0
11432.5 0
11433.5 0
11434.5 0
11435.5 0
11436.5 0
11437.5 0
11438.5 0
11439.5 0
11440.5 0
11441.5 0
11442.5 0
11443.5 0
11444.5 0
11445.5 0
11446.5 0
11447.5 0
11448.5 0
11449.5 0
11450.5 0
11451.5 0
11452.5 0
11453.5 0
11454.5 0
11455.5 0
11456.5 0
11457.5 0
11458.5 0
11459.5 0
11460.5 0
11461.5 0
11462.5 0
11463.5 0
11464.5 0
11465.5 0
11466.5 0
11467.5 0
11468.5 0
11469.5 0
11470.5 0
11471.5 0
11472.5 0
11473.5 0
11474.5 0
11475.5 0
11476.5 0
11477.5 0
11478.5 0
11479.5 0
11480.5 0
11481.5 0
11482.5 0
11483.5 0
11484.5 0
11485.5 0
11486.5 0
11487.5 0
11488.5 0
11489.5 0
11490.5 0
11491.5 0
11492.5 0
11493.5 0
11494.5 0
11495.5 -1.42857
11496.5 0
11497.5 0
11498.5 0
11499.5 0
11500.5 0
11501.5 0
11502.5 0
11503.5 0
11504.5 0
11505.5 0
11506.5 0
11507.5 0
11508.5 0
11509.5 0
11510.5 0
11511.5 0
11512.5 0
11513.5 0
11514.5 0
11515.5 0
11516.5 0
11517.5 0
11518.5 0
11519.5 0
11520.5 0
11521.5 0
11522.5 0
11523.5 0
11524.5 0
11525.5 0
11526.5 0
11527.5 0
11528.5 0
11529.5 0
11530.5 0
11531.5 0
11532.5 0
11533.5 0
11534.5 0
11535.5 0
11536.5 0
11537.5 0
11538.5 0
11539.5 0
11540.5 0
11541.5 0
11542.5 0
11543.5 0
11544.5 0
11545.5 0
11546.5 0
11547.5 0
11548.5 0
11549.5 0
11550.5 0
11551.5 0
11552.5 0
11553.5 0
11554.5 0
11555.5 0
11556.5 0
11557.5 0
11558.5 0
11559.5 0
11560.5 0
11561.5 0
11562.5 0
11563.5 0
11564.5 0
11565.5 0
11566.5 0
11567.5 0
11568.5 0
11569.5 0
11570.5 0
11571.5 0
11572.5 0
11573.5 0
11574.5 0
11575.5 0
11576.5 1
11577.5 0
11578.5 0
11579.5 0
11580.5 0
11581.5 0
11582.5 0
11583.5 0
11584.5 0
11585.5 0
11586.5 0
11587.5 0
11588.5 0
11589.5 0
11590.5 0
11591.5 0
11592.5 0
11593.5 0
11594.5 0
11595.5 0
11596.5 0
11597.5 0
11598.5 0
11599.5 0
11600.5 0
11601.5 0
11602.5 0
11603.5 0
11604.5 0
11605.5 0
11606.5 0
11607.5 0
11608.5 0
11609.5 0
11610.5 0
11611.5 0
11612.5 0
11613.5 0
11614.5 0
11615.5 0
11616.5 0
11617.5 0
11618.5 0
11619.5 0
11620.5 0
11621.5 0
11622.5 0
11623.5 0
11624.5 0
11625.5 0
11626.5 0
11627.5 0
11628.5 0
11629.5 0
11630.5 0
11631.5 0
11632.5 0
11633.5 0
11634.5 0
11635.5 0
11636.5 0
11637.5 0
11638.5 0
11639.5 0
11640.5 0
11641.5 0
11642.5 0
11643.5 0
11644.5 0
11645.5 0
11646.5 0
11647.5 0
11648.5 0
11649.5 0
11650.5 0
11651.5 0
11652.5 0
11653.5 0
11654.5 0
11655.5 0
11656.5 0
11657.5 0
11658.5 0
11659.5 0
11660.5 0
11661.5 0
11662.5 0
11663.5 0
11664.5 0
11665.5 0
11666.5 0
11667.5 0
11668.5 0
11669.5 0
11670.5 0
11671.5 0
11672.5 0
11673.5 0
11674.5 0
11675.5 0
11676.5 0
11677.5 0
11678.5 0
11679.5 0
11680.5 0
11681.5 0
11682.5 0
11683.5 0
11684.5 0
11685.5 0
11686.5 0
11687.5 0
11688.5 0
11689.5 0
11690.5 0
11691.5 0
11692.5 0
11693.5 0
11694.5 0
11695.5 0
11696.5 0
11697.5 0
11698.5 0
11699.5 0
11700.5 0
11701.5 0
11702.5 0
11703.5 0
11704.5 0
11705.5 0
11706.5 0
11707.5 0
11708.5 0
11709.5 0
11710.5 0
11711.5 0
11712.5 0
11713.5 0
11714.5 0
11715.5 0
11716.5 0
11717.5 0
11718.5 0
11719.5 0
11720.5 0
11721.5 0
11722.5 0
11723.5 0
11724.5 0
11725.5 0
11726.5 0
11727.5 0
11728.5 0
11729.5 0
11730.5 0
11731.5 0
11732.5 0
11733.5 0
11734.5 0
11735.5 0
11736.5 0
11737.5 0
11738.5 0
11739.5 0
11740.5 0
11741.5 0
11742.5 0
11743.5 0
11744.5 0
11745.5 0
11746.5 0
11747.5 0
11748.5 0
11749.5 0
11750.5 0
11751.5 0
11752.5 0
11753.5 0
11754.5 0
11755.5 0
11756.5 0
11757.5 0
11758.5 0
11759.5 0
11760.5 0
11761.5 0
11762.5 0
11763.5 0
11764.5 0
11765.5 0
11766.5 0
11767.5 0
11768.5 0
11769.5 0
11770.5 0
11771.5 0
11772.5 0
11773.5 0
11774.5 0
11775.5 0
11776.5 0
11777.5 0
11778.5 0
11779.5 0
11780.5 0
11781.5 0
11782.5 0
11783.5 0
11784.5 0
11785.5 0
11786.5 0
11787.5 0
11788.5 0
11789.5 0
11790.5 0
11791.5 0
11792.5 0
11793.5 0
11794.5 0
11795.5 0
11796.5 0
11797.5 0
11798.5 0
11799.5 0
11800.5 0
11801.5 0
11802.5 0
11803.5 0
11804.5 0
11805.5 0
11806.5 0
11807.5 1
11808.5 0
11809.5 0
11810.5 0
11811.5 0
11812.5 0
11813.5 0
11814.5 0
11815.5 0
11816.5 0
11817.5 0
11818.5 0
11819.5 0
11820.5 0
11821.5 0
11822.5 0
11823.5 0
11824.5 0
11825.5 0
11826.5 0
11827.5 0
11828.5 0
11829.5 0
11830.5 0
11831.5 0
11832.5 0
11833.5 0
11834.5 0
11835.5 0
11836.5 0
11837.5 0
11838.5 0
11839.5 0
11840.5 0
11841.5 0
11842.5 0
11843.5 0
11844.5 0
11845.5 0
11846.5 0
11847.5 0
11848.5 0
11849.5 0
11850.5 0
11851.5 0
11852.5 0
11853.5 0
11854.5 0
11855.5 0
11856.5 0
11857.5 0
11858.5 0
11859.5 0
11860.5 0
11861.5 0
11862.5 0
11863.5 0
11864.5 0
11865.5 0
11866.5 0
11867.5 0
11868.5 0
11869.5 0
11870.5 0
11871.5 0
11872.5 0
11873.5 0
11874.5 0
11875.5 0
11876.5 0
11877.5 0
11878.5 0
11879.5 0
11880.5 0
11881.5 0
11882.5 0
11883.5 0
11884.5 0
11885.5 0
11886.5 0
11887.5 0
11888.5 0
11889.5 0
11890.5 0
11891.5 0
11892.5 0
11893.5 0
11894.5 0
11895.5 0
11896.5 0
11897.5 0
11898.5 0
11899.5 0
11900.5 1
11901.5 0
11902.5 0
11903.5 0
11904.5 0
11905.5 0
11906.5 0
11907.5 0
11908.5 0
11909.5 0
11910.5 0
11911.5 0
11912.5 0
11913.5 0
11914.5 0
11915.5 0
11916.5 0
11917.5 0
11918.5 0
11919.5 0
11920.5 0
11921.5 0
11922.5 0
11923.5 0
11924.5 0
11925.5 0
11926.5 0
11927.5 0
11928.5 0
11929.5 0
11930.5 0
11931.5 0
11932.5 0
11933.5 0
11934.5 0
11935.5 0
11936.5 0
11937.5 0
11938.5 0
11939.5 0
11940.5 0
11941.5 0
11942.5 0
11943.5 0
11944.5 0
11945.5 0
11946.5 0
11947.5 0
11948.5 0
11949.5 0
11950.5 0
11951.5 0
11952.5 0
11953.5 0
11954.5 0
11955.5 -1.42857
11956.5 0
11957.5 0
11958.5 0
11959.5 0
11960.5 0
11961.5 0
11962.5 0
11963.5 0
11964.5 0
11965.5 0
11966.5 0
11967.5 0
11968.5 0
11969.5 0
11970.5 0
11971.5 0
11972.5 0
11973.5 0
11974.5 0
11975.5 0
11976.5 0
11977.5 0
11978.5 0
11979.5 0
11980.5 0
11981.5 0
11982.5 0
11983.5 0
11984.5 0
11985.5 0
11986.5 0
11987.5 0
11988.5 0
11989.5 0
11990.5 0
11991.5 0
11992.5 0
11993.5 0
11994.5 0
11995.5 0
11996.5 0
11997.5 0
11998.5 0
11999.5 0
