# EGG_ProjY_E1016.5(4.5)_B1009.5(1.5)_B1033.0(2.0)
# X axis : Energy (keV) [Y axis]
# Y axis : Counts/1 keV
# N Bins : 12000
# X Min : 0
# X Max : 12000
# X value at the center of the bins
0.5 0
1.5 0
2.5 0
3.5 0
4.5 0
5.5 -33.8571
6.5 28.2857
7.5 -38.5714
8.5 35.1429
9.5 42.4286
10.5 0.428574
11.5 16.8571
12.5 40.5714
13.5 76
14.5 2.28572
15.5 76.8572
16.5 188.857
17.5 61.7143
18.5 232.714
19.5 190.714
20.5 207.857
21.5 364.714
22.5 284
23.5 626.857
24.5 658.286
25.5 787.286
26.5 700.286
27.5 848.429
28.5 765
29.5 729.572
30.5 1249.43
31.5 1000.57
32.5 1030.86
33.5 723.857
34.5 997.143
35.5 1034.86
36.5 915.143
37.5 1273.29
38.5 1172.86
39.5 862.429
40.5 740
41.5 658.143
42.5 -228.285
43.5 18.4288
44.5 1395.57
45.5 1249.71
46.5 1272
47.5 1165.71
48.5 791.286
49.5 1141.71
50.5 1129.14
51.5 1364.29
52.5 1138.86
53.5 1337.71
54.5 1255.14
55.5 1328.86
56.5 1866.43
57.5 1985.71
58.5 2145.71
59.5 1885
60.5 2047.29
61.5 1343
62.5 913.714
63.5 913.857
64.5 866.714
65.5 892.286
66.5 1225.57
67.5 1394.57
68.5 1109.71
69.5 908.429
70.5 1068.57
71.5 1275.71
72.5 1491.14
73.5 1753.57
74.5 2313.43
75.5 2594.29
76.5 3185.14
77.5 3449.71
78.5 1775.14
79.5 144.286
80.5 783.714
81.5 1309.86
82.5 1471.57
83.5 1338.14
84.5 1545
85.5 1396.43
86.5 1439.86
87.5 1487.14
88.5 722.715
89.5 330.857
90.5 -290.428
91.5 -1368.86
92.5 -1743.14
93.5 -1737.14
94.5 -929
95.5 98.2859
96.5 1319.57
97.5 1972
98.5 1809.86
99.5 1856.86
100.5 2064.43
101.5 2015
102.5 2138.29
103.5 3007.14
104.5 4601.14
105.5 5302.29
106.5 7138.29
107.5 7600
108.5 8040.86
109.5 8310.86
110.5 8118.43
111.5 8101.71
112.5 7189
113.5 3648.43
114.5 -338
115.5 -4434.71
116.5 -5802.86
117.5 -4825.29
118.5 -2675.71
119.5 -1456.14
120.5 -3522.14
121.5 -8343.14
122.5 -14689.6
123.5 -18982.7
124.5 -18349.6
125.5 -12577.6
126.5 -5750.43
127.5 -582.714
128.5 1677.43
129.5 2179.14
130.5 1889.71
131.5 2890.57
132.5 3276.71
133.5 4703
134.5 8409.57
135.5 14702.9
136.5 22615.1
137.5 28289.1
138.5 30961.9
139.5 31556.7
140.5 32140.7
141.5 31956.3
142.5 30500.4
143.5 25240.3
144.5 11790.6
145.5 -6237.29
146.5 -22631.4
147.5 -28375
148.5 -22265.1
149.5 -11435.6
150.5 -3249.57
151.5 318.429
152.5 1336.43
153.5 926.286
154.5 1035.71
155.5 1189.29
156.5 1766.29
157.5 1243.14
158.5 1908.43
159.5 1980.14
160.5 1606.29
161.5 1564.29
162.5 1749
163.5 2129.43
164.5 2405.57
165.5 1844
166.5 2135.71
167.5 2138.29
168.5 2455.71
169.5 2470
170.5 1854.29
171.5 1790.57
172.5 1575.14
173.5 1346.57
174.5 1570.29
175.5 1633.14
176.5 1575.43
177.5 1538.71
178.5 2100.14
179.5 1741.71
180.5 1816.29
181.5 1776.86
182.5 1520
183.5 2104.43
184.5 1830.43
185.5 2111.57
186.5 2212
187.5 2206.43
188.5 1999.43
189.5 2055.71
190.5 1920.86
191.5 1821
192.5 1710.29
193.5 1671.86
194.5 1581.14
195.5 1650
196.5 2225.71
197.5 2041
198.5 1323.71
199.5 949.715
200.5 2003.29
201.5 3344.14
202.5 2940.57
203.5 2663
204.5 1857
205.5 2151.57
206.5 2107.71
207.5 2210.86
208.5 2474.43
209.5 2670.14
210.5 2293.57
211.5 2238.57
212.5 2047.29
213.5 2634
214.5 2001.86
215.5 2078
216.5 2040.29
217.5 1881.29
218.5 1902.71
219.5 2044.29
220.5 2308.29
221.5 2115
222.5 1803.86
223.5 2136
224.5 1679.43
225.5 1648
226.5 1170.43
227.5 1076.57
228.5 958.572
229.5 1379.14
230.5 1557
231.5 1782
232.5 1763
233.5 1878.14
234.5 1812
235.5 1712.86
236.5 1872
237.5 2021.29
238.5 1989.86
239.5 2613.14
240.5 2409.43
241.5 2279.29
242.5 2842.71
243.5 2754
244.5 2483.14
245.5 3195.86
246.5 3043.86
247.5 2638.29
248.5 2116.14
249.5 1970.57
250.5 1464.14
251.5 1720.29
252.5 1220
253.5 1397
254.5 1813.14
255.5 1584.86
256.5 1183.14
257.5 1448.57
258.5 1576.14
259.5 1443.14
260.5 1174.86
261.5 1679
262.5 1171.29
263.5 1662.71
264.5 1641.29
265.5 1460.57
266.5 1479.57
267.5 1607.14
268.5 1730
269.5 1550.57
270.5 2122
271.5 1964
272.5 1618.43
273.5 1812.86
274.5 2149.29
275.5 1792.57
276.5 2002.14
277.5 1806.14
278.5 2420.29
279.5 2347
280.5 1805.86
281.5 1648.57
282.5 1292.43
283.5 1164.29
284.5 1255.14
285.5 1600.71
286.5 1519.43
287.5 1697.86
288.5 1517.86
289.5 1753.71
290.5 1910.57
291.5 1781.71
292.5 2149.43
293.5 2088.29
294.5 1925.57
295.5 1953.86
296.5 1704.57
297.5 1178.14
298.5 1414.43
299.5 1387.14
300.5 1552.71
301.5 1413
302.5 1763.71
303.5 1742
304.5 1379.86
305.5 1481.71
306.5 1551.29
307.5 1674.29
308.5 1812.14
309.5 1766.29
310.5 1342
311.5 1563
312.5 1400.71
313.5 1458.57
314.5 1188.86
315.5 1597.57
316.5 1144.71
317.5 1364
318.5 1327.14
319.5 1155.86
320.5 1500.57
321.5 1289.14
322.5 1479.14
323.5 1398.29
324.5 1427.57
325.5 1477.71
326.5 1811.57
327.5 1911
328.5 1773.57
329.5 1406
330.5 1253
331.5 1553.14
332.5 1317.71
333.5 1692.71
334.5 1448.86
335.5 1620.57
336.5 1214.57
337.5 1306.43
338.5 1542.86
339.5 1508.71
340.5 1320
341.5 1279.57
342.5 1211.57
343.5 1317.29
344.5 1010.57
345.5 1345.29
346.5 1168
347.5 995
348.5 1272
349.5 1315.71
350.5 1532.14
351.5 1105.43
352.5 1212.14
353.5 1057.86
354.5 1179.43
355.5 1109.86
356.5 1209.86
357.5 1399.14
358.5 2038.86
359.5 1573.43
360.5 1662.43
361.5 1399.29
362.5 1439.71
363.5 1340.14
364.5 1443.86
365.5 1431.86
366.5 1558.71
367.5 1312.57
368.5 1616.86
369.5 1711.43
370.5 1793.43
371.5 1945.29
372.5 1916.71
373.5 1702.43
374.5 1387.71
375.5 1348
376.5 1146
377.5 1315.14
378.5 1162.14
379.5 857.143
380.5 1144.86
381.5 1125.43
382.5 1182.43
383.5 1236.43
384.5 1060
385.5 1055
386.5 1284.14
387.5 1146.71
388.5 1485.14
389.5 1139.43
390.5 1413.86
391.5 1068.86
392.5 1101.86
393.5 392.572
394.5 111.714
395.5 311.857
396.5 596.857
397.5 404
398.5 1100
399.5 1133.86
400.5 1066.71
401.5 1072.29
402.5 1831.57
403.5 3663
404.5 2922.71
405.5 1564.71
406.5 1588
407.5 1788.29
408.5 1714.57
409.5 1675.57
410.5 1990
411.5 1730.86
412.5 1797.86
413.5 1957.71
414.5 2024.14
415.5 1796.57
416.5 1329.57
417.5 1079.29
418.5 907.286
419.5 617.286
420.5 1044.14
421.5 1196.71
422.5 1219
423.5 1349.29
424.5 915.857
425.5 790.572
426.5 936.857
427.5 1012
428.5 1034.43
429.5 1309.43
430.5 1153.57
431.5 989.714
432.5 1007.86
433.5 1042
434.5 1122.14
435.5 1297.57
436.5 1230.86
437.5 1324.29
438.5 1038.57
439.5 1149.14
440.5 1372.57
441.5 1493.57
442.5 1519.29
443.5 1403.43
444.5 1505.57
445.5 1466
446.5 1290.71
447.5 1393.29
448.5 1107
449.5 1105.57
450.5 1128.57
451.5 1086.43
452.5 1073
453.5 1141.29
454.5 1159.57
455.5 1237.71
456.5 1621.43
457.5 2441.14
458.5 1645.86
459.5 1149.57
460.5 991.286
461.5 946.572
462.5 751.857
463.5 474
464.5 -48.2856
465.5 -466.714
466.5 -765.571
467.5 -96.9999
468.5 374.572
469.5 939.714
470.5 924.572
471.5 1026.57
472.5 1160
473.5 1245.86
474.5 1202.86
475.5 1313.57
476.5 1429.14
477.5 1430
478.5 2092.86
479.5 2267.43
480.5 2695.43
481.5 2845.86
482.5 2592.29
483.5 2379.86
484.5 2467.71
485.5 2307.43
486.5 1665.29
487.5 1220.57
488.5 235.857
489.5 251.857
490.5 103
491.5 536.286
492.5 910
493.5 971.857
494.5 1016
495.5 1141.57
496.5 1172
497.5 774.857
498.5 1151.29
499.5 1244.29
500.5 833.429
501.5 1132.43
502.5 1003.71
503.5 986.857
504.5 837.286
505.5 1128.43
506.5 690.286
507.5 1463.71
508.5 2309
509.5 3533.71
510.5 4127.57
511.5 4906
512.5 3744.14
513.5 1903.86
514.5 1319
515.5 907.857
516.5 923.429
517.5 1162.14
518.5 1367.14
519.5 1216
520.5 1204.43
521.5 1232.43
522.5 1082.43
523.5 1047.43
524.5 1038.86
525.5 1207.57
526.5 1159.43
527.5 924
528.5 913.714
529.5 904.857
530.5 1201.57
531.5 612.572
532.5 923.572
533.5 898.572
534.5 812.714
535.5 880.714
536.5 948.429
537.5 1010.29
538.5 818
539.5 940.429
540.5 845.286
541.5 1017.57
542.5 984.143
543.5 893.714
544.5 790
545.5 971.572
546.5 1129.14
547.5 1123.29
548.5 1142.71
549.5 910.286
550.5 876.286
551.5 935.429
552.5 924.714
553.5 1019.86
554.5 840.572
555.5 1018.57
556.5 1224
557.5 948.857
558.5 849.572
559.5 993.143
560.5 1068.57
561.5 918.143
562.5 1170.29
563.5 869.714
564.5 959.286
565.5 1188.86
566.5 885.286
567.5 983
568.5 1013.29
569.5 1023.14
570.5 1399.14
571.5 802.143
572.5 1038.86
573.5 1055.14
574.5 1033.43
575.5 979.572
576.5 1089.43
577.5 1162.14
578.5 1128.71
579.5 1109.86
580.5 708.572
581.5 643.286
582.5 730.286
583.5 1152.43
584.5 863.429
585.5 910.572
586.5 861.857
587.5 1087.43
588.5 1071.86
589.5 1007
590.5 811.286
591.5 499.429
592.5 736.857
593.5 1004.43
594.5 943.286
595.5 597.572
596.5 522.572
597.5 338.714
598.5 182
599.5 -142.714
600.5 -60.9999
601.5 -37.5713
602.5 696.286
603.5 749
604.5 1307.29
605.5 1457.57
606.5 1333.43
607.5 958.714
608.5 920.572
609.5 880
610.5 1176.43
611.5 1347.71
612.5 1539.71
613.5 1571
614.5 1627.29
615.5 1594.29
616.5 2056.43
617.5 1805.43
618.5 2100.71
619.5 1760.57
620.5 1191.14
621.5 804.857
622.5 223.286
623.5 258.286
624.5 156.572
625.5 786.572
626.5 2593
627.5 9071
628.5 15892.1
629.5 10731.9
630.5 3645.14
631.5 1510.14
632.5 1062.14
633.5 821
634.5 798
635.5 686.429
636.5 814.857
637.5 1058.71
638.5 737.572
639.5 1047.43
640.5 761.714
641.5 687.429
642.5 1011.57
643.5 796.286
644.5 764.714
645.5 805.714
646.5 748.429
647.5 792
648.5 1007.86
649.5 926.572
650.5 731.143
651.5 566.143
652.5 737.714
653.5 987.429
654.5 910.429
655.5 428
656.5 885.714
657.5 722.572
658.5 733
659.5 893.857
660.5 942.857
661.5 682.572
662.5 845.714
663.5 752.429
664.5 358.143
665.5 335.857
666.5 861.286
667.5 1051.14
668.5 743.857
669.5 782.857
670.5 826.572
671.5 773.143
672.5 922.857
673.5 762.571
674.5 793.714
675.5 948.429
676.5 801.857
677.5 1002.71
678.5 710.857
679.5 821.143
680.5 995.143
681.5 1377.86
682.5 1329
683.5 1296.86
684.5 854.857
685.5 824.143
686.5 890
687.5 718.572
688.5 683.714
689.5 733.286
690.5 752.143
691.5 870.857
692.5 714.714
693.5 682.143
694.5 714.429
695.5 857.429
696.5 903.429
697.5 764.143
698.5 697.143
699.5 740
700.5 932.286
701.5 676.286
702.5 1004.43
703.5 837.857
704.5 943
705.5 941.429
706.5 850.429
707.5 899.857
708.5 891.571
709.5 895.143
710.5 1043.86
711.5 1192.43
712.5 938.857
713.5 586.286
714.5 719.714
715.5 667.857
716.5 492.286
717.5 875
718.5 685.857
719.5 585.429
720.5 778.857
721.5 991
722.5 1197.57
723.5 1145.86
724.5 826.286
725.5 642
726.5 952
727.5 751
728.5 749.429
729.5 650.143
730.5 689.143
731.5 754.571
732.5 700.429
733.5 1029.57
734.5 779.143
735.5 723.286
736.5 786.429
737.5 934.857
738.5 635.572
739.5 786.857
740.5 829.429
741.5 636.857
742.5 731.429
743.5 563.429
744.5 484
745.5 365.857
746.5 471.714
747.5 490.857
748.5 581
749.5 821.429
750.5 855.714
751.5 874.286
752.5 1036.86
753.5 746.571
754.5 969.429
755.5 919.714
756.5 798.714
757.5 1284.43
758.5 1402.14
759.5 3466.86
760.5 8878.71
761.5 9712.57
762.5 4708.29
763.5 1813.43
764.5 1382.29
765.5 1086.86
766.5 846
767.5 854.143
768.5 460.714
769.5 554.143
770.5 605
771.5 545.714
772.5 751.857
773.5 594.571
774.5 696
775.5 648.714
776.5 603
777.5 750
778.5 614.286
779.5 553.143
780.5 717.857
781.5 672
782.5 725.286
783.5 797
784.5 982
785.5 864
786.5 876
787.5 827.572
788.5 982.714
789.5 830.571
790.5 895.143
791.5 940
792.5 855.429
793.5 943.714
794.5 998.571
795.5 669
796.5 915.571
797.5 723
798.5 795.571
799.5 725.857
800.5 682.286
801.5 928
802.5 838.571
803.5 759.714
804.5 824
805.5 775
806.5 700
807.5 498.714
808.5 747.143
809.5 825
810.5 843
811.5 597.286
812.5 958.857
813.5 811.429
814.5 768.857
815.5 651.286
816.5 906.429
817.5 736.571
818.5 556.429
819.5 835.143
820.5 867
821.5 741.286
822.5 894
823.5 863.286
824.5 689.143
825.5 640.286
826.5 727.714
827.5 916
828.5 1028.14
829.5 1142.57
830.5 855
831.5 924.857
832.5 809.857
833.5 896
834.5 876.714
835.5 693.143
836.5 795.714
837.5 717.143
838.5 604.714
839.5 696.571
840.5 727.143
841.5 565.143
842.5 725.714
843.5 904.429
844.5 911
845.5 1032.57
846.5 697.286
847.5 582.286
848.5 862.429
849.5 577.857
850.5 532
851.5 610
852.5 585.857
853.5 637.714
854.5 549.286
855.5 738.429
856.5 896
857.5 924.143
858.5 1013.71
859.5 835.429
860.5 590.286
861.5 620.857
862.5 902.143
863.5 869
864.5 927.286
865.5 1276
866.5 1444.57
867.5 4363.29
868.5 10871.3
869.5 13355.9
870.5 7338.57
871.5 2694.86
872.5 1258
873.5 816.714
874.5 935.143
875.5 1134.14
876.5 1347.14
877.5 1022.71
878.5 1000.43
879.5 837.429
880.5 769.857
881.5 875.429
882.5 977.429
883.5 958.714
884.5 744
885.5 845.714
886.5 748.572
887.5 1031
888.5 837.572
889.5 837.286
890.5 920.143
891.5 839.572
892.5 563
893.5 747.286
894.5 912.572
895.5 1090.71
896.5 577.286
897.5 768.572
898.5 957.857
899.5 713.857
900.5 919.857
901.5 986
902.5 1063
903.5 1035.14
904.5 860.572
905.5 609.143
906.5 962.572
907.5 739.714
908.5 975.429
909.5 766
910.5 899.572
911.5 788.857
912.5 732.286
913.5 707.857
914.5 801.857
915.5 1041.57
916.5 805
917.5 785.143
918.5 657.572
919.5 1081
920.5 935.286
921.5 747.857
922.5 972.857
923.5 1085.71
924.5 810
925.5 1055.86
926.5 1003
927.5 858.143
928.5 813.429
929.5 918.429
930.5 750
931.5 914.429
932.5 948.429
933.5 887.429
934.5 691.714
935.5 720.143
936.5 1085
937.5 1103.29
938.5 1068.29
939.5 980.286
940.5 919.429
941.5 701.143
942.5 68.0001
943.5 -506.286
944.5 -569.143
945.5 144.857
946.5 761.286
947.5 735.429
948.5 778.714
949.5 968
950.5 776
951.5 835.857
952.5 715.429
953.5 712.714
954.5 851.286
955.5 482
956.5 864.286
957.5 842.571
958.5 621.857
959.5 729.571
960.5 760.286
961.5 560
962.5 408.143
963.5 417.714
964.5 660.429
965.5 1093.43
966.5 953.857
967.5 1065.43
968.5 721
969.5 543.571
970.5 521.857
971.5 704.571
972.5 778.857
973.5 891.286
974.5 981.857
975.5 969.571
976.5 641.857
977.5 951.143
978.5 715
979.5 742.286
980.5 710.571
981.5 684.714
982.5 722.714
983.5 357.143
984.5 554.571
985.5 750.714
986.5 472.571
987.5 640.143
988.5 820.571
989.5 445.429
990.5 668
991.5 453.714
992.5 447.286
993.5 545.857
994.5 619.714
995.5 691.429
996.5 625.286
997.5 650.143
998.5 793.857
999.5 1822.14
1000.5 5371.71
1001.5 10629.1
1002.5 9970.71
1003.5 4149.29
1004.5 1484.43
1005.5 774
1006.5 666.429
1007.5 582.857
1008.5 525.571
1009.5 461
1010.5 608.286
1011.5 572.714
1012.5 617
1013.5 548.571
1014.5 573.143
1015.5 602.714
1016.5 514
1017.5 545.857
1018.5 532
1019.5 467.571
1020.5 573.857
1021.5 477.143
1022.5 292.857
1023.5 415.857
1024.5 65.5716
1025.5 403.857
1026.5 333.143
1027.5 524
1028.5 539.143
1029.5 529.571
1030.5 298.143
1031.5 654
1032.5 416.714
1033.5 457.429
1034.5 508.857
1035.5 618.571
1036.5 426.714
1037.5 548.143
1038.5 513.714
1039.5 402.571
1040.5 581
1041.5 657
1042.5 502.571
1043.5 342.714
1044.5 479.286
1045.5 392.714
1046.5 479.571
1047.5 453.857
1048.5 373.429
1049.5 408.286
1050.5 651.571
1051.5 564.571
1052.5 442.714
1053.5 303.571
1054.5 508.143
1055.5 417.143
1056.5 623.429
1057.5 402
1058.5 527.714
1059.5 414.857
1060.5 530.429
1061.5 541.143
1062.5 1061.57
1063.5 1870.86
1064.5 1744.86
1065.5 1128.86
1066.5 564.429
1067.5 598.714
1068.5 626.286
1069.5 554.286
1070.5 566.143
1071.5 718.143
1072.5 965.572
1073.5 1640.29
1074.5 1930.57
1075.5 1401.43
1076.5 685
1077.5 436.857
1078.5 364.857
1079.5 447.857
1080.5 456.286
1081.5 496.143
1082.5 411.429
1083.5 437
1084.5 537.143
1085.5 320
1086.5 435
1087.5 314.857
1088.5 401.571
1089.5 256
1090.5 223.143
1091.5 444.429
1092.5 189
1093.5 264.571
1094.5 398.714
1095.5 429.143
1096.5 518
1097.5 449.143
1098.5 507.286
1099.5 334.571
1100.5 390.714
1101.5 550
1102.5 358.429
1103.5 403.429
1104.5 393.143
1105.5 214.429
1106.5 -162.143
1107.5 -241.857
1108.5 29.4286
1109.5 205.857
1110.5 424.143
1111.5 400.857
1112.5 337
1113.5 324.286
1114.5 426.143
1115.5 274.571
1116.5 180.286
1117.5 122.714
1118.5 475.571
1119.5 360
1120.5 316.429
1121.5 506.571
1122.5 667
1123.5 2151
1124.5 8231
1125.5 19486
1126.5 21234.7
1127.5 10073
1128.5 2790.86
1129.5 985.286
1130.5 665.857
1131.5 547.143
1132.5 560.714
1133.5 482.714
1134.5 531.286
1135.5 570.286
1136.5 483.143
1137.5 320
1138.5 243.429
1139.5 200.143
1140.5 91.2857
1141.5 163.714
1142.5 337.571
1143.5 316.286
1144.5 468.429
1145.5 494.143
1146.5 398.857
1147.5 260
1148.5 442.286
1149.5 286.429
1150.5 296.857
1151.5 296.571
1152.5 371.571
1153.5 1165.57
1154.5 4098.29
1155.5 14542.1
1156.5 29885.1
1157.5 31593.6
1158.5 13233.4
1159.5 2754.14
1160.5 603.857
1161.5 487.714
1162.5 343.571
1163.5 325.571
1164.5 309.286
1165.5 221.857
1166.5 239.714
1167.5 268.429
1168.5 206.286
1169.5 170
1170.5 206.857
1171.5 246.714
1172.5 287.857
1173.5 314
1174.5 375
1175.5 336.857
1176.5 431
1177.5 246.286
1178.5 352.143
1179.5 438.143
1180.5 415
1181.5 275.857
1182.5 577.143
1183.5 425.429
1184.5 218
1185.5 -30.5714
1186.5 -578.714
1187.5 -842.286
1188.5 -879.714
1189.5 -874.714
1190.5 -668.429
1191.5 -667.286
1192.5 -217
1193.5 126.429
1194.5 298.571
1195.5 636.857
1196.5 844
1197.5 908.143
1198.5 536.143
1199.5 590.429
1200.5 589
1201.5 764.571
1202.5 1069.57
1203.5 1238.14
1204.5 1416.43
1205.5 1491.43
1206.5 1582.43
1207.5 1543.43
1208.5 1205.14
1209.5 999.286
1210.5 539.857
1211.5 2.4286
1212.5 -432.143
1213.5 -459.571
1214.5 -355.143
1215.5 -179.571
1216.5 85.1429
1217.5 95.5715
1218.5 330.286
1219.5 252
1220.5 340.429
1221.5 368.571
1222.5 407.286
1223.5 658.286
1224.5 1420.29
1225.5 3207.71
1226.5 3056.71
1227.5 1551
1228.5 843.857
1229.5 742.857
1230.5 531.143
1231.5 374.714
1232.5 320
1233.5 271.714
1234.5 308.286
1235.5 247.714
1236.5 325.429
1237.5 239.714
1238.5 354.571
1239.5 342.143
1240.5 260
1241.5 354.857
1242.5 361.857
1243.5 276.143
1244.5 298
1245.5 325.714
1246.5 243.857
1247.5 168.714
1248.5 204.857
1249.5 276.857
1250.5 296.286
1251.5 170.714
1252.5 216.857
1253.5 369.714
1254.5 381.571
1255.5 344.286
1256.5 339.571
1257.5 297.429
1258.5 365.714
1259.5 253.571
1260.5 362.429
1261.5 377.429
1262.5 280.857
1263.5 289.143
1264.5 172.429
1265.5 445.429
1266.5 367.571
1267.5 384.571
1268.5 349
1269.5 345.857
1270.5 259
1271.5 279.571
1272.5 320.714
1273.5 307.571
1274.5 293
1275.5 159.571
1276.5 195.857
1277.5 249.429
1278.5 338
1279.5 453
1280.5 381.143
1281.5 317.571
1282.5 333.857
1283.5 198.429
1284.5 420.857
1285.5 320.143
1286.5 342.286
1287.5 263.571
1288.5 253.429
1289.5 176.286
1290.5 182
1291.5 254.286
1292.5 399.571
1293.5 302.571
1294.5 322.429
1295.5 278.429
1296.5 257.571
1297.5 260.143
1298.5 271.286
1299.5 117.143
1300.5 305.143
1301.5 294.857
1302.5 379.286
1303.5 319.571
1304.5 346.286
1305.5 285.143
1306.5 308.286
1307.5 337.429
1308.5 151.429
1309.5 287.857
1310.5 109.429
1311.5 217.429
1312.5 220.143
1313.5 301.857
1314.5 321.143
1315.5 247.571
1316.5 245.429
1317.5 326.571
1318.5 146.571
1319.5 258.286
1320.5 326.143
1321.5 300.286
1322.5 227.714
1323.5 240.429
1324.5 311
1325.5 273.286
1326.5 242.429
1327.5 242.714
1328.5 161.714
1329.5 235.143
1330.5 214.143
1331.5 313.857
1332.5 374.429
1333.5 197.714
1334.5 232.429
1335.5 316
1336.5 268.571
1337.5 207.143
1338.5 246.857
1339.5 255
1340.5 237.857
1341.5 314.286
1342.5 201.143
1343.5 213.286
1344.5 177.286
1345.5 388.286
1346.5 235.714
1347.5 182
1348.5 87.2857
1349.5 225.571
1350.5 139.571
1351.5 227.714
1352.5 272
1353.5 179.857
1354.5 330
1355.5 271.143
1356.5 252.857
1357.5 231.857
1358.5 331.143
1359.5 228.286
1360.5 203.143
1361.5 266.571
1362.5 306.714
1363.5 206.429
1364.5 345.286
1365.5 323.714
1366.5 322.571
1367.5 227.714
1368.5 396.143
1369.5 275.571
1370.5 178.429
1371.5 215.571
1372.5 310.429
1373.5 379
1374.5 260
1375.5 346.143
1376.5 327
1377.5 232
1378.5 227.571
1379.5 290
1380.5 178.714
1381.5 195.286
1382.5 351.143
1383.5 13
1384.5 180.714
1385.5 240.143
1386.5 113.571
1387.5 171
1388.5 328.571
1389.5 278.143
1390.5 285.429
1391.5 141.286
1392.5 214
1393.5 283.571
1394.5 320.143
1395.5 351.857
1396.5 414
1397.5 213.143
1398.5 234.714
1399.5 165
1400.5 196.857
1401.5 227.857
1402.5 167.857
1403.5 200.714
1404.5 196.857
1405.5 225.857
1406.5 258.571
1407.5 266.429
1408.5 314.143
1409.5 370.429
1410.5 308.429
1411.5 426
1412.5 806.857
1413.5 2048.29
1414.5 2319.71
1415.5 1565.57
1416.5 510.429
1417.5 338.714
1418.5 69.8572
1419.5 333
1420.5 353
1421.5 338.571
1422.5 125.571
1423.5 224.714
1424.5 291.286
1425.5 234.143
1426.5 298.857
1427.5 652.571
1428.5 597.286
1429.5 422.857
1430.5 170.429
1431.5 215
1432.5 176.286
1433.5 85.1429
1434.5 282.429
1435.5 190.857
1436.5 228.714
1437.5 239.286
1438.5 302.143
1439.5 266.143
1440.5 224.857
1441.5 192.143
1442.5 270.714
1443.5 125.143
1444.5 245.857
1445.5 160.714
1446.5 204
1447.5 263.857
1448.5 482.714
1449.5 478.571
1450.5 545.857
1451.5 183.714
1452.5 272
1453.5 203.143
1454.5 288.714
1455.5 176.714
1456.5 198.857
1457.5 82.2857
1458.5 25.7143
1459.5 -59.1428
1460.5 -98.5714
1461.5 113
1462.5 169
1463.5 193.857
1464.5 144.429
1465.5 92.5714
1466.5 200.571
1467.5 196.857
1468.5 191.714
1469.5 211
1470.5 194.286
1471.5 164.429
1472.5 293.571
1473.5 159.571
1474.5 175
1475.5 111.714
1476.5 61.4286
1477.5 133
1478.5 216
1479.5 145.714
1480.5 226.286
1481.5 90.8572
1482.5 255.143
1483.5 155
1484.5 233.143
1485.5 122.429
1486.5 185.286
1487.5 233
1488.5 232.429
1489.5 278.714
1490.5 329.286
1491.5 224
1492.5 242.286
1493.5 226.857
1494.5 287.857
1495.5 383.857
1496.5 808.286
1497.5 2566
1498.5 5927.29
1499.5 8481.71
1500.5 5571.29
1501.5 2012
1502.5 610.714
1503.5 284.143
1504.5 202.286
1505.5 175.143
1506.5 197.286
1507.5 153.286
1508.5 133.286
1509.5 184.857
1510.5 267.286
1511.5 244.143
1512.5 165.429
1513.5 231.714
1514.5 260.714
1515.5 312.714
1516.5 136.714
1517.5 32.5715
1518.5 253.429
1519.5 208
1520.5 245.143
1521.5 200.143
1522.5 175.571
1523.5 251.286
1524.5 120.286
1525.5 265.143
1526.5 131.571
1527.5 72
1528.5 136.714
1529.5 145
1530.5 152
1531.5 113.429
1532.5 91.4286
1533.5 194.571
1534.5 152.857
1535.5 214.143
1536.5 137.857
1537.5 85.7143
1538.5 141.714
1539.5 160.286
1540.5 185.286
1541.5 204.714
1542.5 175.714
1543.5 208.571
1544.5 292.143
1545.5 204.714
1546.5 208.286
1547.5 186.857
1548.5 205.857
1549.5 157.429
1550.5 265.286
1551.5 265.571
1552.5 194.714
1553.5 97.5714
1554.5 76.1429
1555.5 156.143
1556.5 170
1557.5 109.571
1558.5 223.286
1559.5 221.429
1560.5 186.286
1561.5 211
1562.5 269.571
1563.5 104.714
1564.5 148.286
1565.5 228
1566.5 257.429
1567.5 106.429
1568.5 140.571
1569.5 124.571
1570.5 143.143
1571.5 227.286
1572.5 77.4286
1573.5 222.143
1574.5 47.4286
1575.5 210.857
1576.5 329.429
1577.5 280.571
1578.5 278.571
1579.5 32.7143
1580.5 164.571
1581.5 210.857
1582.5 152.571
1583.5 173.857
1584.5 160.429
1585.5 202.429
1586.5 197.571
1587.5 329.571
1588.5 358.429
1589.5 463.143
1590.5 232.429
1591.5 121.571
1592.5 132.714
1593.5 336.286
1594.5 244.143
1595.5 301.286
1596.5 276
1597.5 408
1598.5 230.571
1599.5 354.857
1600.5 255.143
1601.5 203.286
1602.5 226
1603.5 216.714
1604.5 246.429
1605.5 303.857
1606.5 129.857
1607.5 107.143
1608.5 260.714
1609.5 262.143
1610.5 222
1611.5 149.571
1612.5 109.286
1613.5 121
1614.5 220
1615.5 72.4286
1616.5 174
1617.5 267
1618.5 266.286
1619.5 222.714
1620.5 195.143
1621.5 479.286
1622.5 711.429
1623.5 1256.71
1624.5 1567.86
1625.5 1308.71
1626.5 486.143
1627.5 346.857
1628.5 416.714
1629.5 770.571
1630.5 963.857
1631.5 944.143
1632.5 535.429
1633.5 297.286
1634.5 351.857
1635.5 250.857
1636.5 160.857
1637.5 330.143
1638.5 433.286
1639.5 594.714
1640.5 361
1641.5 365.714
1642.5 244.571
1643.5 267.143
1644.5 216.143
1645.5 290.143
1646.5 234.857
1647.5 464.857
1648.5 387.429
1649.5 305.857
1650.5 344.143
1651.5 269.714
1652.5 198.571
1653.5 195.857
1654.5 226.143
1655.5 101.286
1656.5 193.714
1657.5 263.429
1658.5 262.857
1659.5 216.571
1660.5 133.571
1661.5 150.571
1662.5 173.857
1663.5 150.429
1664.5 168.857
1665.5 197.571
1666.5 174.857
1667.5 217.286
1668.5 250.571
1669.5 164.714
1670.5 190.429
1671.5 172.571
1672.5 226.857
1673.5 264.429
1674.5 111.143
1675.5 200.286
1676.5 226.429
1677.5 163.714
1678.5 125.714
1679.5 133.857
1680.5 365
1681.5 179
1682.5 162.857
1683.5 213.571
1684.5 196.143
1685.5 70.5714
1686.5 122
1687.5 211.286
1688.5 133
1689.5 46.5714
1690.5 340.286
1691.5 185.286
1692.5 148.857
1693.5 122.857
1694.5 207.429
1695.5 214.286
1696.5 212.857
1697.5 266.571
1698.5 266
1699.5 270.286
1700.5 335.571
1701.5 348.143
1702.5 217.143
1703.5 257
1704.5 165.571
1705.5 316.286
1706.5 188.143
1707.5 195.143
1708.5 159.429
1709.5 318
1710.5 191.286
1711.5 53.8572
1712.5 132.286
1713.5 40.7143
1714.5 148.857
1715.5 129.857
1716.5 196.143
1717.5 311.286
1718.5 138.714
1719.5 139.714
1720.5 167.143
1721.5 95.8572
1722.5 138.714
1723.5 165.429
1724.5 178.857
1725.5 297.286
1726.5 312.286
1727.5 289.286
1728.5 245.714
1729.5 188.571
1730.5 300.429
1731.5 190.286
1732.5 264
1733.5 125.571
1734.5 130.714
1735.5 260.429
1736.5 241.286
1737.5 96.7143
1738.5 175.429
1739.5 83.1429
1740.5 199.571
1741.5 97.1429
1742.5 169.429
1743.5 238.286
1744.5 209
1745.5 100.429
1746.5 124.429
1747.5 143.714
1748.5 202.714
1749.5 94.5714
1750.5 68.4286
1751.5 136.286
1752.5 172
1753.5 207.429
1754.5 155.143
1755.5 141
1756.5 95.2857
1757.5 63.2857
1758.5 107.143
1759.5 67.2857
1760.5 164.286
1761.5 29.1429
1762.5 136.857
1763.5 157.571
1764.5 153.143
1765.5 189.857
1766.5 212.143
1767.5 255.857
1768.5 103.714
1769.5 249.714
1770.5 169.571
1771.5 137.571
1772.5 265.857
1773.5 254
1774.5 303
1775.5 325.857
1776.5 132.857
1777.5 189.286
1778.5 31.2857
1779.5 14
1780.5 241.143
1781.5 136.857
1782.5 165.143
1783.5 189.857
1784.5 221.286
1785.5 118.429
1786.5 94.5714
1787.5 200.143
1788.5 223.857
1789.5 246.857
1790.5 -11.8571
1791.5 88.7143
1792.5 166.857
1793.5 109.857
1794.5 181.143
1795.5 190.857
1796.5 143.857
1797.5 149.714
1798.5 56.7143
1799.5 42.2857
1800.5 215
1801.5 159.286
1802.5 196.857
1803.5 198
1804.5 143.286
1805.5 207.857
1806.5 100.429
1807.5 207.429
1808.5 123.714
1809.5 191.714
1810.5 108.857
1811.5 160.857
1812.5 137
1813.5 133
1814.5 252
1815.5 176.429
1816.5 111.286
1817.5 163.714
1818.5 212.286
1819.5 154.571
1820.5 48.7143
1821.5 132.714
1822.5 192.143
1823.5 238.143
1824.5 336.714
1825.5 473.286
1826.5 404.429
1827.5 177.571
1828.5 207.286
1829.5 126
1830.5 184
1831.5 219
1832.5 139.857
1833.5 78.2857
1834.5 3.28573
1835.5 152
1836.5 141.286
1837.5 171.429
1838.5 175.429
1839.5 193.143
1840.5 119.714
1841.5 242.857
1842.5 191.714
1843.5 328.857
1844.5 146.714
1845.5 225.714
1846.5 201.429
1847.5 177.571
1848.5 199.714
1849.5 55.5714
1850.5 59.4286
1851.5 248.286
1852.5 103.143
1853.5 244.429
1854.5 147
1855.5 257
1856.5 96.8572
1857.5 93.5714
1858.5 159
1859.5 221.429
1860.5 149
1861.5 170.857
1862.5 100
1863.5 60.4286
1864.5 250.286
1865.5 134.286
1866.5 305.857
1867.5 427.857
1868.5 383.571
1869.5 265.143
1870.5 238.143
1871.5 494
1872.5 337.143
1873.5 441.571
1874.5 320.571
1875.5 169.714
1876.5 114.429
1877.5 174.143
1878.5 92.7143
1879.5 145.857
1880.5 171.143
1881.5 206.714
1882.5 161.857
1883.5 300.571
1884.5 581.429
1885.5 1804.57
1886.5 3230.86
1887.5 3505.29
1888.5 1871.86
1889.5 594.143
1890.5 159
1891.5 260.571
1892.5 162.857
1893.5 105.571
1894.5 184.286
1895.5 142.286
1896.5 186.571
1897.5 107.429
1898.5 162
1899.5 95.2857
1900.5 87.8572
1901.5 138.143
1902.5 182
1903.5 216.857
1904.5 119.714
1905.5 192.429
1906.5 187
1907.5 58.1429
1908.5 93.8572
1909.5 49.5714
1910.5 24.7143
1911.5 4.4286
1912.5 44.5715
1913.5 89.8572
1914.5 120.571
1915.5 8.71431
1916.5 229.286
1917.5 154
1918.5 172.286
1919.5 215.429
1920.5 160.286
1921.5 202.286
1922.5 102.429
1923.5 205.429
1924.5 276.143
1925.5 315.571
1926.5 386.571
1927.5 227.571
1928.5 319.429
1929.5 111.857
1930.5 217.429
1931.5 257.714
1932.5 155.286
1933.5 86.2857
1934.5 74.1429
1935.5 36.5714
1936.5 -22.7143
1937.5 64
1938.5 127.143
1939.5 256.429
1940.5 140.857
1941.5 309.714
1942.5 260.143
1943.5 104.429
1944.5 171.857
1945.5 110.429
1946.5 92.7143
1947.5 173.286
1948.5 202.857
1949.5 83.7143
1950.5 141
1951.5 163
1952.5 104.143
1953.5 92
1954.5 131.714
1955.5 112.286
1956.5 214.857
1957.5 119.286
1958.5 120.429
1959.5 170.286
1960.5 327
1961.5 269
1962.5 155.857
1963.5 51
1964.5 195.429
1965.5 234
1966.5 72.1429
1967.5 139
1968.5 61.2857
1969.5 112.857
1970.5 165.143
1971.5 67.7143
1972.5 111.429
1973.5 154.143
1974.5 118.857
1975.5 115.571
1976.5 238
1977.5 175.143
1978.5 116.143
1979.5 161
1980.5 139.714
1981.5 201.571
1982.5 170.571
1983.5 174.286
1984.5 236.857
1985.5 115
1986.5 181.714
1987.5 128.286
1988.5 111.429
1989.5 87
1990.5 201.143
1991.5 160.857
1992.5 252.571
1993.5 321.143
1994.5 160.429
1995.5 125
1996.5 121.286
1997.5 102.857
1998.5 163.857
1999.5 56.5714
2000.5 161.571
2001.5 81.5714
2002.5 194.143
2003.5 121.571
2004.5 102.286
2005.5 11
2006.5 154.571
2007.5 124.143
2008.5 94.4286
2009.5 101.571
2010.5 156.429
2011.5 188.143
2012.5 276.286
2013.5 130.429
2014.5 139.571
2015.5 144.571
2016.5 191.286
2017.5 151.571
2018.5 174.429
2019.5 200.143
2020.5 145.429
2021.5 122.429
2022.5 170.857
2023.5 247.143
2024.5 172.286
2025.5 83.7143
2026.5 181.143
2027.5 113.571
2028.5 46.4286
2029.5 59
2030.5 144.857
2031.5 84.1429
2032.5 174.857
2033.5 210.714
2034.5 107.857
2035.5 81.2857
2036.5 191.429
2037.5 157.857
2038.5 126
2039.5 100.714
2040.5 113.143
2041.5 124
2042.5 125.714
2043.5 171.571
2044.5 31
2045.5 49.2857
2046.5 150
2047.5 142.857
2048.5 277.857
2049.5 255.143
2050.5 257.286
2051.5 273.143
2052.5 156.143
2053.5 137
2054.5 222.714
2055.5 124.143
2056.5 192.857
2057.5 172.429
2058.5 214
2059.5 103.286
2060.5 118.286
2061.5 153.143
2062.5 150.286
2063.5 150.571
2064.5 237.429
2065.5 140.143
2066.5 193.714
2067.5 126.429
2068.5 142.571
2069.5 112.571
2070.5 131.429
2071.5 71.2857
2072.5 -1.42856
2073.5 116.429
2074.5 73
2075.5 134.143
2076.5 111.286
2077.5 140.143
2078.5 146.857
2079.5 227.571
2080.5 239.143
2081.5 124.143
2082.5 165.714
2083.5 111.571
2084.5 188.286
2085.5 130.857
2086.5 232.571
2087.5 280.857
2088.5 178.714
2089.5 243.286
2090.5 200.286
2091.5 91.1429
2092.5 84.4286
2093.5 209.571
2094.5 84.7143
2095.5 275.143
2096.5 432.857
2097.5 897.143
2098.5 1507.43
2099.5 1376.86
2100.5 860.857
2101.5 315.714
2102.5 233.429
2103.5 191.857
2104.5 145.429
2105.5 154.143
2106.5 215
2107.5 88.2857
2108.5 106
2109.5 122.571
2110.5 121.571
2111.5 106.714
2112.5 93.1429
2113.5 136.857
2114.5 44.7143
2115.5 144.857
2116.5 -11.8571
2117.5 81
2118.5 177.143
2119.5 100.571
2120.5 140.286
2121.5 177.857
2122.5 124.571
2123.5 56.4286
2124.5 113.571
2125.5 103.286
2126.5 99
2127.5 82.8572
2128.5 181
2129.5 175.286
2130.5 160.857
2131.5 160.714
2132.5 74.5714
2133.5 31.2857
2134.5 81
2135.5 140.714
2136.5 140.429
2137.5 158
2138.5 148.571
2139.5 117.857
2140.5 171.571
2141.5 134.857
2142.5 276.286
2143.5 343.857
2144.5 235.429
2145.5 317.143
2146.5 88
2147.5 70
2148.5 -177
2149.5 -324
2150.5 -398.286
2151.5 -299.428
2152.5 24.0001
2153.5 76.2857
2154.5 128.286
2155.5 122.286
2156.5 89.1429
2157.5 192.857
2158.5 230.286
2159.5 108
2160.5 64.1429
2161.5 105.714
2162.5 157.429
2163.5 204.286
2164.5 216.143
2165.5 95.2857
2166.5 204.286
2167.5 184.571
2168.5 145.571
2169.5 98.1429
2170.5 119.714
2171.5 112.143
2172.5 92
2173.5 58.1429
2174.5 110.429
2175.5 117.286
2176.5 131.571
2177.5 194.714
2178.5 42.1429
2179.5 202.714
2180.5 140.714
2181.5 137.429
2182.5 111.571
2183.5 89.4286
2184.5 226.714
2185.5 151.429
2186.5 167.429
2187.5 78.1429
2188.5 132
2189.5 178
2190.5 170.143
2191.5 267.857
2192.5 178.143
2193.5 49.4286
2194.5 220.857
2195.5 117.714
2196.5 129.286
2197.5 163.286
2198.5 180
2199.5 151.714
2200.5 171.286
2201.5 167.714
2202.5 147
2203.5 18
2204.5 167.286
2205.5 62
2206.5 175.429
2207.5 -10.8571
2208.5 33.7143
2209.5 167.286
2210.5 79.7143
2211.5 90.8572
2212.5 145.143
2213.5 205.429
2214.5 232.714
2215.5 196.714
2216.5 293
2217.5 66.5714
2218.5 148
2219.5 200.429
2220.5 136.571
2221.5 203.714
2222.5 60
2223.5 161.429
2224.5 148.714
2225.5 112.571
2226.5 176.429
2227.5 229.714
2228.5 219.286
2229.5 94
2230.5 122.429
2231.5 213.857
2232.5 167.857
2233.5 107
2234.5 103.286
2235.5 97.2857
2236.5 105.857
2237.5 106.429
2238.5 -18.5714
2239.5 91.8572
2240.5 -3.99999
2241.5 108.714
2242.5 81.2857
2243.5 50.8572
2244.5 158.857
2245.5 101.857
2246.5 95.5714
2247.5 27.8572
2248.5 49
2249.5 176
2250.5 161.143
2251.5 96.5714
2252.5 154.571
2253.5 32.4286
2254.5 109.571
2255.5 140.286
2256.5 157.714
2257.5 174.857
2258.5 310
2259.5 235.857
2260.5 254.857
2261.5 170.429
2262.5 56.8572
2263.5 49.1429
2264.5 89.4286
2265.5 60.4286
2266.5 47.4286
2267.5 113.857
2268.5 35.4286
2269.5 103.143
2270.5 88.7143
2271.5 60.2857
2272.5 67
2273.5 164.571
2274.5 307
2275.5 547.714
2276.5 1259.57
2277.5 1837.71
2278.5 1487
2279.5 871.143
2280.5 275.571
2281.5 190.286
2282.5 314
2283.5 201
2284.5 107.571
2285.5 137.429
2286.5 43.8572
2287.5 96.8572
2288.5 29.2857
2289.5 16.2857
2290.5 164.857
2291.5 201.429
2292.5 88.2857
2293.5 96.8572
2294.5 61.4286
2295.5 156.429
2296.5 221.286
2297.5 51.5715
2298.5 101.429
2299.5 171.857
2300.5 305
2301.5 9.14288
2302.5 267.857
2303.5 181
2304.5 79
2305.5 209
2306.5 245.857
2307.5 257.714
2308.5 247
2309.5 85
2310.5 159.286
2311.5 88
2312.5 127.857
2313.5 61.2857
2314.5 108.429
2315.5 39.2857
2316.5 133.143
2317.5 115.429
2318.5 50.5714
2319.5 30.2857
2320.5 143.429
2321.5 146.143
2322.5 135
2323.5 116.857
2324.5 51.7143
2325.5 117.571
2326.5 103.571
2327.5 118.286
2328.5 145.857
2329.5 100.857
2330.5 107.286
2331.5 99.1429
2332.5 146.571
2333.5 137
2334.5 217.571
2335.5 238.571
2336.5 201.286
2337.5 48.7143
2338.5 52
2339.5 118
2340.5 91.8572
2341.5 180.429
2342.5 67
2343.5 76.5714
2344.5 121.571
2345.5 75.2857
2346.5 71
2347.5 124.429
2348.5 157.714
2349.5 111.571
2350.5 100.286
2351.5 74.2857
2352.5 128.286
2353.5 74.1429
2354.5 64.5714
2355.5 27.5714
2356.5 130.571
2357.5 76.1429
2358.5 155.714
2359.5 149.857
2360.5 124.286
2361.5 96
2362.5 91.8572
2363.5 44.2857
2364.5 102.714
2365.5 147.857
2366.5 159
2367.5 157.143
2368.5 120
2369.5 117.143
2370.5 138.429
2371.5 125.571
2372.5 80.1429
2373.5 67.8572
2374.5 73.8572
2375.5 90.7143
2376.5 206.429
2377.5 79.8572
2378.5 193.429
2379.5 77
2380.5 120.286
2381.5 48
2382.5 97.7143
2383.5 71
2384.5 124.857
2385.5 115.857
2386.5 81.8572
2387.5 146.286
2388.5 -0.999987
2389.5 73.4286
2390.5 98
2391.5 34.5714
2392.5 154.286
2393.5 -1.99999
2394.5 73.4286
2395.5 5.42858
2396.5 119.857
2397.5 189
2398.5 125.857
2399.5 80.5714
2400.5 102.143
2401.5 46.4286
2402.5 51.4286
2403.5 51.8572
2404.5 131.714
2405.5 147.857
2406.5 80.5714
2407.5 121.286
2408.5 93.8572
2409.5 114.429
2410.5 231.286
2411.5 142.286
2412.5 97.8572
2413.5 107.143
2414.5 34.5714
2415.5 7.42859
2416.5 73
2417.5 42.2857
2418.5 69.2857
2419.5 60.2857
2420.5 93.7143
2421.5 87.4286
2422.5 11.2857
2423.5 41.5714
2424.5 85.8572
2425.5 59.7143
2426.5 160
2427.5 23
2428.5 91.8572
2429.5 60.4286
2430.5 149.429
2431.5 37.1429
2432.5 63.4286
2433.5 237.571
2434.5 181.714
2435.5 115.571
2436.5 188.571
2437.5 228.714
2438.5 229.857
2439.5 235
2440.5 45.7143
2441.5 146.571
2442.5 67
2443.5 -20.4286
2444.5 32.5714
2445.5 101.286
2446.5 60.2857
2447.5 132.857
2448.5 160.286
2449.5 128.143
2450.5 44.8572
2451.5 155.429
2452.5 131.857
2453.5 68.8572
2454.5 54
2455.5 102.143
2456.5 113.429
2457.5 24.1429
2458.5 45.1429
2459.5 140.429
2460.5 98.1429
2461.5 84
2462.5 136.286
2463.5 136
2464.5 83.8572
2465.5 154.714
2466.5 62.4286
2467.5 29.7143
2468.5 92
2469.5 141.571
2470.5 90
2471.5 189.429
2472.5 72
2473.5 63.1429
2474.5 223.286
2475.5 98.4286
2476.5 61.1429
2477.5 79.4286
2478.5 -12.8571
2479.5 127.143
2480.5 37.8572
2481.5 50.5714
2482.5 77.1429
2483.5 71
2484.5 88.7143
2485.5 81.4286
2486.5 144.857
2487.5 101.286
2488.5 110.429
2489.5 85.4286
2490.5 160.714
2491.5 15.5714
2492.5 33.8572
2493.5 148.143
2494.5 47
2495.5 93.7143
2496.5 158.571
2497.5 116.143
2498.5 29.4286
2499.5 93.8572
2500.5 137
2501.5 111.429
2502.5 126.286
2503.5 63
2504.5 117.143
2505.5 26.7143
2506.5 139.286
2507.5 58.5714
2508.5 137.571
2509.5 134.143
2510.5 90.8572
2511.5 136.286
2512.5 73
2513.5 162.571
2514.5 130.571
2515.5 146.857
2516.5 65.2857
2517.5 134
2518.5 319.714
2519.5 109.429
2520.5 163.429
2521.5 192.143
2522.5 60.8572
2523.5 54.1429
2524.5 120.429
2525.5 71.7143
2526.5 174.571
2527.5 118
2528.5 200.143
2529.5 138.143
2530.5 96.8572
2531.5 151.571
2532.5 88.4286
2533.5 84.8572
2534.5 21.8572
2535.5 13.8572
2536.5 147.571
2537.5 39.5714
2538.5 102.286
2539.5 156
2540.5 163
2541.5 158
2542.5 65.7143
2543.5 108.286
2544.5 146.286
2545.5 63.8572
2546.5 130.286
2547.5 163
2548.5 173.143
2549.5 246.143
2550.5 278.571
2551.5 131.571
2552.5 56.5714
2553.5 102.143
2554.5 63.1429
2555.5 81.4286
2556.5 110.143
2557.5 56.2857
2558.5 9.42858
2559.5 11.1429
2560.5 73
2561.5 83.4286
2562.5 78.5714
2563.5 -7.85713
2564.5 4.85716
2565.5 97.5714
2566.5 177.571
2567.5 235
2568.5 123
2569.5 73
2570.5 105
2571.5 12.4286
2572.5 145
2573.5 225.857
2574.5 117.571
2575.5 126
2576.5 231.286
2577.5 201.286
2578.5 257.714
2579.5 122.429
2580.5 132.571
2581.5 143.286
2582.5 161.714
2583.5 114.857
2584.5 109.571
2585.5 85.8572
2586.5 83.2857
2587.5 99.1429
2588.5 117.571
2589.5 101.286
2590.5 143.571
2591.5 72.8572
2592.5 63.5714
2593.5 53.7143
2594.5 137
2595.5 90.1429
2596.5 67.8572
2597.5 111.857
2598.5 188.429
2599.5 154.143
2600.5 87.8572
2601.5 212.286
2602.5 203.286
2603.5 133.286
2604.5 183
2605.5 238
2606.5 203.143
2607.5 35.5714
2608.5 101.286
2609.5 89.5714
2610.5 52
2611.5 16.5714
2612.5 82.5714
2613.5 99.7143
2614.5 76.7143
2615.5 20.1429
2616.5 97.4286
2617.5 77.2857
2618.5 166.857
2619.5 140.429
2620.5 45
2621.5 171.714
2622.5 15.4286
2623.5 15.2857
2624.5 79
2625.5 124.571
2626.5 118.286
2627.5 16
2628.5 81
2629.5 89.7143
2630.5 166.714
2631.5 93.7143
2632.5 149.286
2633.5 56.7143
2634.5 99.1429
2635.5 85
2636.5 90.1429
2637.5 129.571
2638.5 107.286
2639.5 48.4286
2640.5 33.4286
2641.5 45.8572
2642.5 74.2857
2643.5 126.857
2644.5 57
2645.5 136
2646.5 56.4286
2647.5 102.143
2648.5 2.00001
2649.5 141.714
2650.5 61.7143
2651.5 64.7143
2652.5 214.286
2653.5 195
2654.5 344
2655.5 490.143
2656.5 709.429
2657.5 610.429
2658.5 341.857
2659.5 160.429
2660.5 96.7143
2661.5 24.7143
2662.5 130.571
2663.5 77.7143
2664.5 127.571
2665.5 98.5714
2666.5 86.5714
2667.5 96.1429
2668.5 65.7143
2669.5 150.857
2670.5 134.571
2671.5 91.1429
2672.5 53.2857
2673.5 168
2674.5 75.2857
2675.5 104.571
2676.5 107.143
2677.5 129.857
2678.5 97.2857
2679.5 36.4286
2680.5 139.857
2681.5 111.857
2682.5 52.7143
2683.5 66.5714
2684.5 155.286
2685.5 47.4286
2686.5 24.1429
2687.5 93.7143
2688.5 104
2689.5 177.857
2690.5 125.143
2691.5 111.429
2692.5 112.286
2693.5 101.429
2694.5 87.2857
2695.5 67
2696.5 27
2697.5 2.57144
2698.5 123
2699.5 188.143
2700.5 54.2857
2701.5 129.143
2702.5 126.143
2703.5 119.857
2704.5 120.429
2705.5 73.4286
2706.5 122.429
2707.5 216.857
2708.5 119.429
2709.5 145.714
2710.5 90.2857
2711.5 89.2857
2712.5 89.8572
2713.5 70.8572
2714.5 35
2715.5 121.571
2716.5 206.429
2717.5 68.2857
2718.5 126.429
2719.5 48.5714
2720.5 40.1429
2721.5 75
2722.5 130.571
2723.5 232.714
2724.5 142.429
2725.5 126.714
2726.5 101.714
2727.5 130
2728.5 146.714
2729.5 57.5714
2730.5 66.2857
2731.5 68.5714
2732.5 96
2733.5 106.286
2734.5 25
2735.5 138.857
2736.5 -7.2857
2737.5 112.571
2738.5 78.2857
2739.5 91
2740.5 25.1429
2741.5 94.4286
2742.5 59.1429
2743.5 97.8572
2744.5 79.1429
2745.5 107.714
2746.5 24.1429
2747.5 41.4286
2748.5 62.8572
2749.5 49.2857
2750.5 127.143
2751.5 24.8572
2752.5 27.8572
2753.5 61.2857
2754.5 76.8572
2755.5 84.2857
2756.5 69.8572
2757.5 2.28573
2758.5 111
2759.5 94.4286
2760.5 104.143
2761.5 49.4286
2762.5 97.1429
2763.5 112.286
2764.5 26.5714
2765.5 150.714
2766.5 129.714
2767.5 125.143
2768.5 49.4286
2769.5 89.5714
2770.5 68
2771.5 140.286
2772.5 125.714
2773.5 108
2774.5 -16
2775.5 160.714
2776.5 76.1429
2777.5 70.1429
2778.5 59.7143
2779.5 -61.8571
2780.5 -8.42856
2781.5 -10.5714
2782.5 90.4286
2783.5 75.1429
2784.5 50.8572
2785.5 68.5714
2786.5 78.7143
2787.5 58.1429
2788.5 -0.571416
2789.5 92.1429
2790.5 96
2791.5 154.143
2792.5 62.2857
2793.5 10.5714
2794.5 127.714
2795.5 48.8572
2796.5 56.2857
2797.5 59.7143
2798.5 77.5714
2799.5 23
2800.5 103.429
2801.5 51.4286
2802.5 84.2857
2803.5 160.286
2804.5 53.7143
2805.5 83.5714
2806.5 80.2857
2807.5 153.429
2808.5 141.143
2809.5 140.857
2810.5 169.143
2811.5 120.429
2812.5 59.7143
2813.5 162.286
2814.5 155.857
2815.5 189.143
2816.5 124.286
2817.5 147.429
2818.5 42
2819.5 117.857
2820.5 58.2857
2821.5 84.8572
2822.5 128
2823.5 135.143
2824.5 38.8572
2825.5 141.286
2826.5 38.5714
2827.5 91.7143
2828.5 95.2857
2829.5 134.857
2830.5 102.286
2831.5 44.4286
2832.5 87.2857
2833.5 128.143
2834.5 155.429
2835.5 54.7143
2836.5 119.714
2837.5 75.5714
2838.5 63.2857
2839.5 -24
2840.5 73
2841.5 55.5714
2842.5 163.857
2843.5 150.286
2844.5 180.714
2845.5 320.143
2846.5 409
2847.5 321.571
2848.5 147.429
2849.5 130.857
2850.5 137.714
2851.5 140.143
2852.5 89
2853.5 6.14287
2854.5 131.286
2855.5 98.5714
2856.5 90.1429
2857.5 84.4286
2858.5 71.2857
2859.5 39
2860.5 48.5714
2861.5 96.2857
2862.5 50
2863.5 67.5714
2864.5 20
2865.5 74.8572
2866.5 32.4286
2867.5 92.7143
2868.5 17.5714
2869.5 107.571
2870.5 117.286
2871.5 169
2872.5 71.1429
2873.5 63.1429
2874.5 79.2857
2875.5 73
2876.5 101.571
2877.5 122
2878.5 177.143
2879.5 106.857
2880.5 139.571
2881.5 88.1429
2882.5 58.8572
2883.5 153
2884.5 76.7143
2885.5 85.1429
2886.5 200.286
2887.5 68.1429
2888.5 233.143
2889.5 151.143
2890.5 197
2891.5 67.5714
2892.5 98.7143
2893.5 140.429
2894.5 34.7143
2895.5 92.2857
2896.5 67.7143
2897.5 72.1429
2898.5 130.143
2899.5 115
2900.5 159.571
2901.5 113.429
2902.5 93.4286
2903.5 130
2904.5 -10.1428
2905.5 105
2906.5 114.857
2907.5 147
2908.5 41.4286
2909.5 28.4286
2910.5 37.7143
2911.5 36
2912.5 0.714297
2913.5 77.1429
2914.5 133.429
2915.5 8.14287
2916.5 100.429
2917.5 165.714
2918.5 141.143
2919.5 132.286
2920.5 104.429
2921.5 106
2922.5 112.857
2923.5 93.4286
2924.5 81.7143
2925.5 39.4286
2926.5 144
2927.5 73.5714
2928.5 114
2929.5 73.4286
2930.5 58.4286
2931.5 124.571
2932.5 100.286
2933.5 67.8572
2934.5 149.857
2935.5 79.2857
2936.5 96.5714
2937.5 138.286
2938.5 152.286
2939.5 61.5714
2940.5 -23.2857
2941.5 -27
2942.5 118.286
2943.5 162.143
2944.5 142.714
2945.5 301.571
2946.5 9.28577
2947.5 270
2948.5 93
2949.5 143
2950.5 109.571
2951.5 226.571
2952.5 173.429
2953.5 174.857
2954.5 197.286
2955.5 102.429
2956.5 120.286
2957.5 75.2857
2958.5 154.714
2959.5 61.5714
2960.5 31.5714
2961.5 1.85715
2962.5 16.8572
2963.5 78.1429
2964.5 23.1429
2965.5 41.4286
2966.5 77
2967.5 18.1429
2968.5 107.714
2969.5 58
2970.5 63.5714
2971.5 10.2857
2972.5 119.714
2973.5 133.429
2974.5 132
2975.5 77.7143
2976.5 61.4286
2977.5 54.7143
2978.5 53.5714
2979.5 72.8572
2980.5 168.714
2981.5 47.2857
2982.5 18
2983.5 77.2857
2984.5 15.8572
2985.5 9.00001
2986.5 84
2987.5 65.2857
2988.5 77
2989.5 31.4286
2990.5 24.5714
2991.5 40.1429
2992.5 -34
2993.5 101.286
2994.5 74.7143
2995.5 38.2857
2996.5 141.143
2997.5 23.4286
2998.5 36.2857
2999.5 68.7143
3000.5 62.2857
3001.5 115.857
3002.5 52.5714
3003.5 84.8572
3004.5 104.429
3005.5 153.571
3006.5 182.429
3007.5 89.1429
3008.5 230.286
3009.5 161.857
3010.5 115.143
3011.5 153.571
3012.5 172.571
3013.5 265.429
3014.5 133.714
3015.5 59.4286
3016.5 61.5714
3017.5 91
3018.5 25.5714
3019.5 78.4286
3020.5 6.28572
3021.5 65.2857
3022.5 123.286
3023.5 80.5714
3024.5 133.714
3025.5 38.7143
3026.5 142.857
3027.5 38.4286
3028.5 61
3029.5 104.143
3030.5 185.429
3031.5 84.5714
3032.5 93.7143
3033.5 103.143
3034.5 152
3035.5 100.143
3036.5 -9.14284
3037.5 -65.1428
3038.5 31.7143
3039.5 -74.5714
3040.5 -12.4286
3041.5 34.5714
3042.5 91.1429
3043.5 98.7143
3044.5 149.429
3045.5 102
3046.5 74
3047.5 102.857
3048.5 127.429
3049.5 178.857
3050.5 122.714
3051.5 209.143
3052.5 157
3053.5 123.857
3054.5 66.7143
3055.5 54.2857
3056.5 75.1429
3057.5 104.429
3058.5 147.857
3059.5 114.714
3060.5 167.857
3061.5 74.2857
3062.5 -5.2857
3063.5 126
3064.5 156.286
3065.5 69.4286
3066.5 103.714
3067.5 71.4286
3068.5 70.4286
3069.5 99.7143
3070.5 78.7143
3071.5 142.857
3072.5 164.714
3073.5 115.143
3074.5 114
3075.5 96
3076.5 118.143
3077.5 39.5714
3078.5 56.4286
3079.5 62.7143
3080.5 117.286
3081.5 79.2857
3082.5 166.714
3083.5 53.5714
3084.5 141.429
3085.5 69.2857
3086.5 3.42858
3087.5 70.1429
3088.5 105.857
3089.5 59.5714
3090.5 40.2857
3091.5 49.1429
3092.5 -19
3093.5 95.5714
3094.5 38.4286
3095.5 36.5714
3096.5 111.286
3097.5 30.2857
3098.5 78.2857
3099.5 102.571
3100.5 50
3101.5 23.8572
3102.5 93.8572
3103.5 113.429
3104.5 88.2857
3105.5 4.28572
3106.5 164.857
3107.5 68.1429
3108.5 75.8572
3109.5 83.1429
3110.5 168.286
3111.5 104.571
3112.5 150.571
3113.5 146.286
3114.5 174.571
3115.5 98.7143
3116.5 128.857
3117.5 2.00001
3118.5 180.857
3119.5 -3.57142
3120.5 60.7143
3121.5 84.5714
3122.5 82.1429
3123.5 60.7143
3124.5 14
3125.5 68
3126.5 89.1429
3127.5 90
3128.5 70.5714
3129.5 69.1429
3130.5 92.5714
3131.5 114.143
3132.5 42.7143
3133.5 -2.14285
3134.5 59.7143
3135.5 24
3136.5 46.8572
3137.5 53.1429
3138.5 59.2857
3139.5 41.5714
3140.5 134.571
3141.5 133.857
3142.5 110.714
3143.5 27.7143
3144.5 121.714
3145.5 85.5714
3146.5 135
3147.5 97.1429
3148.5 100.571
3149.5 164.286
3150.5 194.286
3151.5 107.143
3152.5 118.857
3153.5 105.571
3154.5 75
3155.5 77.1429
3156.5 75.7143
3157.5 102
3158.5 29.2857
3159.5 133.429
3160.5 56.5714
3161.5 92.5714
3162.5 59
3163.5 120.571
3164.5 83.1429
3165.5 35.2857
3166.5 80.1429
3167.5 99.5714
3168.5 59.5714
3169.5 120.429
3170.5 45.1429
3171.5 25.4286
3172.5 54.7143
3173.5 106.286
3174.5 129.286
3175.5 112.857
3176.5 173.286
3177.5 177.286
3178.5 127.714
3179.5 57.8572
3180.5 40.1429
3181.5 142.714
3182.5 54.4286
3183.5 88.1429
3184.5 154
3185.5 108
3186.5 187.571
3187.5 198.857
3188.5 165
3189.5 120.143
3190.5 87.4286
3191.5 82.7143
3192.5 45.1429
3193.5 154
3194.5 81.4286
3195.5 96.8572
3196.5 17.1429
3197.5 136.286
3198.5 106.143
3199.5 121.857
3200.5 116.857
3201.5 170.143
3202.5 103.714
3203.5 51.2857
3204.5 -25.2857
3205.5 87
3206.5 29
3207.5 51.1429
3208.5 114.857
3209.5 46
3210.5 9.57144
3211.5 47.1429
3212.5 15.2857
3213.5 47
3214.5 12.5714
3215.5 17.4286
3216.5 47.2857
3217.5 -58.8571
3218.5 37.2857
3219.5 45.1429
3220.5 91.1429
3221.5 79.8572
3222.5 6.85715
3223.5 67.8572
3224.5 60
3225.5 79.5714
3226.5 13.5714
3227.5 63.1429
3228.5 -3.42856
3229.5 40.1429
3230.5 85.1429
3231.5 45.7143
3232.5 87.7143
3233.5 93.4286
3234.5 33.7143
3235.5 112.571
3236.5 -66.2857
3237.5 142.429
3238.5 77.4286
3239.5 -15.5714
3240.5 10
3241.5 -0.142842
3242.5 48.7143
3243.5 38.4286
3244.5 62.8572
3245.5 171
3246.5 43.2857
3247.5 111.143
3248.5 187.857
3249.5 123.714
3250.5 113.571
3251.5 45.1429
3252.5 60.5714
3253.5 76.5714
3254.5 58
3255.5 62.8572
3256.5 107.143
3257.5 115
3258.5 87.4286
3259.5 112.571
3260.5 110.286
3261.5 132.429
3262.5 76.7143
3263.5 117.429
3264.5 165
3265.5 13.5714
3266.5 150.857
3267.5 30.4286
3268.5 124.286
3269.5 64.7143
3270.5 -13.4286
3271.5 78
3272.5 69.1429
3273.5 28.8572
3274.5 43
3275.5 82.7143
3276.5 27.2857
3277.5 53.7143
3278.5 147.571
3279.5 78.8572
3280.5 59.8572
3281.5 56.8572
3282.5 21.8572
3283.5 44
3284.5 71.1429
3285.5 70.4286
3286.5 104.857
3287.5 82.2857
3288.5 80.2857
3289.5 20.2857
3290.5 72.4286
3291.5 20.7143
3292.5 90.2857
3293.5 76.4286
3294.5 80.7143
3295.5 66.8572
3296.5 57.1429
3297.5 88.5714
3298.5 126.571
3299.5 48.7143
3300.5 110.857
3301.5 125.857
3302.5 67.7143
3303.5 73.2857
3304.5 7.28572
3305.5 67.7143
3306.5 52.4286
3307.5 64.1429
3308.5 95.5714
3309.5 117.857
3310.5 70.2857
3311.5 81.7143
3312.5 150.571
3313.5 85.2857
3314.5 62
3315.5 76.1429
3316.5 21.2857
3317.5 79.8572
3318.5 43.8572
3319.5 67.5714
3320.5 154.143
3321.5 180.714
3322.5 79.4286
3323.5 198.429
3324.5 111.286
3325.5 91.1429
3326.5 38.1429
3327.5 72
3328.5 47.5714
3329.5 90.1429
3330.5 56.7143
3331.5 83
3332.5 -32.7143
3333.5 41
3334.5 77.2857
3335.5 54.5714
3336.5 20.4286
3337.5 47
3338.5 68.7143
3339.5 93.7143
3340.5 139.143
3341.5 14
3342.5 48.8572
3343.5 61.4286
3344.5 83.2857
3345.5 81.8572
3346.5 56.7143
3347.5 89
3348.5 83.2857
3349.5 30.1429
3350.5 52.4286
3351.5 59
3352.5 50
3353.5 137.429
3354.5 125.571
3355.5 73.5714
3356.5 93.5714
3357.5 32.1429
3358.5 16.4286
3359.5 45.2857
3360.5 59.7143
3361.5 113.286
3362.5 50.4286
3363.5 62.8572
3364.5 68.8572
3365.5 31.7143
3366.5 192.143
3367.5 0.142869
3368.5 99.8572
3369.5 37.1429
3370.5 11.4286
3371.5 31.2857
3372.5 119
3373.5 77.8572
3374.5 34.4286
3375.5 92.4286
3376.5 95.8572
3377.5 87.5714
3378.5 52.7143
3379.5 46.2857
3380.5 109.714
3381.5 60.7143
3382.5 94.5714
3383.5 24.1429
3384.5 68.7143
3385.5 42.4286
3386.5 -6.71428
3387.5 39.5714
3388.5 9.71429
3389.5 44.4286
3390.5 23.8572
3391.5 48.1429
3392.5 112.714
3393.5 53.4286
3394.5 90.8572
3395.5 47.1429
3396.5 -15.5714
3397.5 32
3398.5 12.7143
3399.5 116.571
3400.5 167.714
3401.5 68.4286
3402.5 -5.71428
3403.5 40.5714
3404.5 26.8571
3405.5 38.5714
3406.5 -11
3407.5 39.7143
3408.5 131.286
3409.5 165.429
3410.5 162.429
3411.5 89.5714
3412.5 165.429
3413.5 128
3414.5 77.4286
3415.5 92.2857
3416.5 45.1429
3417.5 145.857
3418.5 130.571
3419.5 143.429
3420.5 123.714
3421.5 51.2857
3422.5 81.4286
3423.5 60.5714
3424.5 97.5714
3425.5 -15.8571
3426.5 71.7143
3427.5 92.4286
3428.5 136.857
3429.5 111
3430.5 24.5714
3431.5 90.2857
3432.5 80.7143
3433.5 47.1429
3434.5 109.857
3435.5 145.429
3436.5 121.714
3437.5 90.7143
3438.5 46.1429
3439.5 156
3440.5 104.286
3441.5 115.571
3442.5 162
3443.5 46
3444.5 160.143
3445.5 19.7143
3446.5 64.2857
3447.5 81.1429
3448.5 102.571
3449.5 154
3450.5 63.2857
3451.5 171.143
3452.5 67.4286
3453.5 12.5714
3454.5 86.1429
3455.5 40
3456.5 39.4286
3457.5 101.143
3458.5 97.7143
3459.5 76.2857
3460.5 21.4286
3461.5 92.4286
3462.5 64.8572
3463.5 27.7143
3464.5 49.2857
3465.5 -4.85713
3466.5 31.2857
3467.5 75
3468.5 136
3469.5 112.571
3470.5 98.1429
3471.5 127.857
3472.5 103.286
3473.5 70.4286
3474.5 71.8571
3475.5 71.8571
3476.5 -0.428564
3477.5 -4.71428
3478.5 32.4286
3479.5 80.7143
3480.5 76.2857
3481.5 61.2857
3482.5 10.4286
3483.5 39
3484.5 12.2857
3485.5 48.7143
3486.5 32
3487.5 93.4286
3488.5 82.5714
3489.5 30.8572
3490.5 120.714
3491.5 133.429
3492.5 234.857
3493.5 89.2857
3494.5 119.571
3495.5 105.714
3496.5 141.857
3497.5 56.2857
3498.5 82.5714
3499.5 99.1429
3500.5 10.1429
3501.5 35.7143
3502.5 26.2857
3503.5 35.2857
3504.5 135.714
3505.5 79.2857
3506.5 104.429
3507.5 91.5714
3508.5 34.8572
3509.5 52.7143
3510.5 99
3511.5 114.286
3512.5 159.143
3513.5 98.5714
3514.5 78.2857
3515.5 28.4286
3516.5 120.286
3517.5 108.571
3518.5 50.5714
3519.5 94.4286
3520.5 106.143
3521.5 65
3522.5 37.2857
3523.5 45
3524.5 -3.99999
3525.5 -19.7143
3526.5 31.2857
3527.5 52.8572
3528.5 16.5714
3529.5 100.714
3530.5 96.5714
3531.5 34
3532.5 102.571
3533.5 135.143
3534.5 136.571
3535.5 -18.5714
3536.5 80.1429
3537.5 58
3538.5 76
3539.5 31.1429
3540.5 72.2857
3541.5 107.857
3542.5 43.2857
3543.5 102.571
3544.5 76.1429
3545.5 91.7143
3546.5 98.2857
3547.5 122.571
3548.5 83.8571
3549.5 96
3550.5 53.8571
3551.5 74.2857
3552.5 31.4286
3553.5 22.5714
3554.5 48
3555.5 52.2857
3556.5 48
3557.5 33.2857
3558.5 13.2857
3559.5 69.5714
3560.5 41.1429
3561.5 82.5714
3562.5 31.2857
3563.5 0.857152
3564.5 58.2857
3565.5 88
3566.5 86.8572
3567.5 86.4286
3568.5 56.5714
3569.5 75.4286
3570.5 61
3571.5 25.1429
3572.5 106.143
3573.5 105.857
3574.5 91
3575.5 80.7143
3576.5 61.1429
3577.5 55.7143
3578.5 39.1429
3579.5 -14
3580.5 100.857
3581.5 148
3582.5 52.1429
3583.5 61.8572
3584.5 73.7143
3585.5 34.7143
3586.5 31.7143
3587.5 44.4286
3588.5 8.85715
3589.5 55.7143
3590.5 120.429
3591.5 61.1429
3592.5 29.1429
3593.5 79.4286
3594.5 95.4286
3595.5 74
3596.5 110.571
3597.5 34.4286
3598.5 39.5714
3599.5 97.5714
3600.5 22.2857
3601.5 98.8571
3602.5 47.7143
3603.5 20.4286
3604.5 123.714
3605.5 51.1429
3606.5 88
3607.5 42.1429
3608.5 117.714
3609.5 124.429
3610.5 10.1429
3611.5 75.1429
3612.5 130.429
3613.5 6.14286
3614.5 86.7143
3615.5 71.8571
3616.5 99.1429
3617.5 57.8572
3618.5 43.2857
3619.5 88.2857
3620.5 19.1429
3621.5 205
3622.5 119.429
3623.5 111.857
3624.5 154.143
3625.5 47
3626.5 126
3627.5 80.7143
3628.5 96.4286
3629.5 67.2857
3630.5 59
3631.5 -0.714278
3632.5 70.4286
3633.5 57.2857
3634.5 69.7143
3635.5 119.429
3636.5 108.429
3637.5 105.429
3638.5 52.4286
3639.5 97.1429
3640.5 22.4286
3641.5 77.8571
3642.5 58.7143
3643.5 72
3644.5 176
3645.5 81.8572
3646.5 185.143
3647.5 21.4286
3648.5 165.714
3649.5 16.4286
3650.5 178
3651.5 104.286
3652.5 47.7143
3653.5 120.571
3654.5 64.4286
3655.5 96.5714
3656.5 20.2857
3657.5 -27
3658.5 111
3659.5 41.2857
3660.5 102.857
3661.5 137.143
3662.5 43.4286
3663.5 23.2857
3664.5 108.286
3665.5 68.7143
3666.5 66.8571
3667.5 114.429
3668.5 67.8571
3669.5 108.429
3670.5 0.571438
3671.5 92.4286
3672.5 66.7143
3673.5 124.429
3674.5 20.8572
3675.5 31.2857
3676.5 99.7143
3677.5 49.5714
3678.5 74.5714
3679.5 -34.7143
3680.5 12.7143
3681.5 -24.7143
3682.5 59.2857
3683.5 9.14287
3684.5 14
3685.5 13.2857
3686.5 80.8572
3687.5 68.8572
3688.5 72.7143
3689.5 40
3690.5 -18.1429
3691.5 0.85715
3692.5 34.1429
3693.5 106.714
3694.5 86.8572
3695.5 -15.8571
3696.5 99.1429
3697.5 91.8572
3698.5 30.1429
3699.5 77.2857
3700.5 94.1429
3701.5 23.7143
3702.5 93.4286
3703.5 26.2857
3704.5 40.7143
3705.5 76.2857
3706.5 61.5714
3707.5 74.7143
3708.5 72.4286
3709.5 50.7143
3710.5 102.286
3711.5 86.5714
3712.5 93
3713.5 111.714
3714.5 22.2857
3715.5 54.8572
3716.5 46.4286
3717.5 40.7143
3718.5 87.8571
3719.5 11.8572
3720.5 56.1429
3721.5 54.8572
3722.5 103.714
3723.5 55.7143
3724.5 47.7143
3725.5 79.5714
3726.5 106.429
3727.5 149.714
3728.5 126
3729.5 53.1429
3730.5 54.4286
3731.5 80.1429
3732.5 51.5714
3733.5 76.1429
3734.5 50.4286
3735.5 58.2857
3736.5 59.5714
3737.5 37.7143
3738.5 91.1429
3739.5 9.85715
3740.5 42.2857
3741.5 54.4286
3742.5 74.2857
3743.5 -13.8571
3744.5 41.1429
3745.5 110.571
3746.5 83.4286
3747.5 71.2857
3748.5 79.4286
3749.5 159.286
3750.5 99.5714
3751.5 47.7143
3752.5 17.7143
3753.5 58.4286
3754.5 74.4286
3755.5 68.4286
3756.5 100
3757.5 128.429
3758.5 19.7143
3759.5 126.571
3760.5 120.857
3761.5 98.1429
3762.5 67.8571
3763.5 110.286
3764.5 111.286
3765.5 103
3766.5 16.2857
3767.5 86.5714
3768.5 66.5714
3769.5 81.4286
3770.5 62.7143
3771.5 28.7143
3772.5 46.7143
3773.5 5.00001
3774.5 37.2857
3775.5 47.7143
3776.5 72.8571
3777.5 72.4286
3778.5 58.1429
3779.5 97.8571
3780.5 32.7143
3781.5 71
3782.5 144.714
3783.5 56.5714
3784.5 113.857
3785.5 63.4286
3786.5 115.714
3787.5 52.2857
3788.5 58
3789.5 95.7143
3790.5 102.571
3791.5 7.85715
3792.5 22.2857
3793.5 58.7143
3794.5 83.7143
3795.5 116.429
3796.5 41.8571
3797.5 92.8571
3798.5 73.2857
3799.5 -7.71428
3800.5 74.2857
3801.5 -5.99999
3802.5 2.00001
3803.5 56.4286
3804.5 19.1429
3805.5 55.8572
3806.5 64.4286
3807.5 86.8572
3808.5 71.1429
3809.5 143.714
3810.5 65
3811.5 35.1429
3812.5 -11.2857
3813.5 48.1429
3814.5 136.286
3815.5 71.2857
3816.5 28.7143
3817.5 49.2857
3818.5 28.8571
3819.5 75.1429
3820.5 76.7143
3821.5 44
3822.5 14.8572
3823.5 58.2857
3824.5 114.857
3825.5 121.714
3826.5 113.429
3827.5 71.4286
3828.5 82.5714
3829.5 13.4286
3830.5 161
3831.5 63.7143
3832.5 31.5714
3833.5 87.2857
3834.5 76.2857
3835.5 63.2857
3836.5 71.8571
3837.5 35.4286
3838.5 -16
3839.5 69.8571
3840.5 64
3841.5 59.2857
3842.5 44.7143
3843.5 54
3844.5 72
3845.5 75.7143
3846.5 81.5714
3847.5 48.2857
3848.5 7.14287
3849.5 100.143
3850.5 50.2857
3851.5 69.7143
3852.5 28.2857
3853.5 58.7143
3854.5 99
3855.5 77.2857
3856.5 61.7143
3857.5 22.4286
3858.5 162.857
3859.5 98.5714
3860.5 69.2857
3861.5 92.2857
3862.5 119.857
3863.5 13.5714
3864.5 74.8572
3865.5 18
3866.5 101.571
3867.5 103.429
3868.5 21.4286
3869.5 16.1429
3870.5 17.7143
3871.5 51.2857
3872.5 32.7143
3873.5 10.8572
3874.5 67.7143
3875.5 106.714
3876.5 75.5714
3877.5 54.5714
3878.5 88.8572
3879.5 28.5714
3880.5 21.4286
3881.5 13.7143
3882.5 18.7143
3883.5 22.1429
3884.5 92.8571
3885.5 58.1429
3886.5 85.8571
3887.5 68.2857
3888.5 93.1429
3889.5 50.1429
3890.5 123.571
3891.5 53.7143
3892.5 161.286
3893.5 169.143
3894.5 90.5714
3895.5 11.2857
3896.5 27.7143
3897.5 35.2857
3898.5 67.4286
3899.5 147.429
3900.5 67.4286
3901.5 23
3902.5 27.1429
3903.5 136.143
3904.5 93.7143
3905.5 42.2857
3906.5 143.143
3907.5 21.8572
3908.5 64.1429
3909.5 138.286
3910.5 40
3911.5 48.2857
3912.5 41
3913.5 25.1429
3914.5 74.1429
3915.5 67.2857
3916.5 122.857
3917.5 95.8571
3918.5 253.857
3919.5 333.571
3920.5 594
3921.5 803.714
3922.5 789.714
3923.5 593.143
3924.5 315.571
3925.5 84.2857
3926.5 94.5714
3927.5 106.857
3928.5 49.1429
3929.5 46.2857
3930.5 105
3931.5 69.7143
3932.5 15.7143
3933.5 16.8571
3934.5 108
3935.5 73.8571
3936.5 30.8571
3937.5 28.7143
3938.5 22.1429
3939.5 70.8571
3940.5 54.2857
3941.5 93
3942.5 52.4286
3943.5 62.4286
3944.5 91.8572
3945.5 59.2857
3946.5 94
3947.5 91.2857
3948.5 122
3949.5 27.4286
3950.5 30.7143
3951.5 93.8572
3952.5 52.4286
3953.5 102.714
3954.5 142.429
3955.5 188.571
3956.5 172.714
3957.5 131.714
3958.5 3.14287
3959.5 115
3960.5 85.8572
3961.5 64.2857
3962.5 64.7143
3963.5 29.1429
3964.5 96.5714
3965.5 49.2857
3966.5 73.2857
3967.5 84.2857
3968.5 95.7143
3969.5 70
3970.5 105.571
3971.5 81.2857
3972.5 122.714
3973.5 204.571
3974.5 35.7143
3975.5 76
3976.5 79.7143
3977.5 107.143
3978.5 84.7143
3979.5 56.2857
3980.5 26.4286
3981.5 90
3982.5 117.714
3983.5 14
3984.5 137.857
3985.5 48.7143
3986.5 9.71429
3987.5 17.1429
3988.5 27
3989.5 40
3990.5 111.571
3991.5 38.5714
3992.5 53.7143
3993.5 83.4286
3994.5 75.8571
3995.5 75.4286
3996.5 8.00001
3997.5 59.4286
3998.5 57.8572
3999.5 20.7143
4000.5 136.429
4001.5 67.1429
4002.5 30.7143
4003.5 65.1429
4004.5 36.1429
4005.5 54.8571
4006.5 45.2857
4007.5 23.7143
4008.5 59.4286
4009.5 62.5714
4010.5 47.4286
4011.5 84.2857
4012.5 52.4286
4013.5 54.1429
4014.5 64.8571
4015.5 52
4016.5 62.1429
4017.5 5.71429
4018.5 70
4019.5 91.7143
4020.5 49.7143
4021.5 10.4286
4022.5 152.429
4023.5 48.2857
4024.5 92.2857
4025.5 46.2857
4026.5 61.4286
4027.5 119.714
4028.5 43.2857
4029.5 34.1429
4030.5 130.286
4031.5 -1.99999
4032.5 43.8572
4033.5 68.1429
4034.5 76.8572
4035.5 17.1429
4036.5 95
4037.5 94.5714
4038.5 33.4286
4039.5 57
4040.5 82.2857
4041.5 55.2857
4042.5 57.7143
4043.5 80.7143
4044.5 95.8571
4045.5 50
4046.5 63.2857
4047.5 66.2857
4048.5 88
4049.5 76.7143
4050.5 51.5714
4051.5 -2.99999
4052.5 23.7143
4053.5 33.8571
4054.5 52.4286
4055.5 113.714
4056.5 75.4286
4057.5 27.1429
4058.5 63.4286
4059.5 87.4286
4060.5 41
4061.5 59.2857
4062.5 52.7143
4063.5 50.8571
4064.5 107.857
4065.5 78.7143
4066.5 27.5714
4067.5 39
4068.5 93.4286
4069.5 67.7143
4070.5 103.571
4071.5 65.7143
4072.5 23.2857
4073.5 131.286
4074.5 42.5714
4075.5 55.5714
4076.5 57.7143
4077.5 112.714
4078.5 61.5714
4079.5 52.2857
4080.5 117.286
4081.5 3.42858
4082.5 60.1429
4083.5 -1.99999
4084.5 56.5714
4085.5 52.2857
4086.5 87.2857
4087.5 15.5714
4088.5 38.8571
4089.5 116.714
4090.5 6.71429
4091.5 63.8571
4092.5 39
4093.5 39
4094.5 24.4286
4095.5 59.1429
4096.5 57.7143
4097.5 40.5714
4098.5 99.4286
4099.5 47.7143
4100.5 10.5714
4101.5 60.8571
4102.5 29.7143
4103.5 57
4104.5 33.5714
4105.5 52.7143
4106.5 62.7143
4107.5 50
4108.5 43.2857
4109.5 42.4286
4110.5 94.5714
4111.5 114.143
4112.5 39
4113.5 132.571
4114.5 70.4286
4115.5 52.8571
4116.5 59.4286
4117.5 64.2857
4118.5 47.4286
4119.5 86.1429
4120.5 41.8571
4121.5 58.4286
4122.5 -10.4286
4123.5 0.28572
4124.5 68.4286
4125.5 28.1429
4126.5 -8.14285
4127.5 68.7143
4128.5 43.8571
4129.5 14.1429
4130.5 67.1429
4131.5 75
4132.5 148
4133.5 176.714
4134.5 157.857
4135.5 122.429
4136.5 98
4137.5 89.4286
4138.5 36.4286
4139.5 82.1429
4140.5 68
4141.5 2.00001
4142.5 38.4286
4143.5 84.7143
4144.5 26.4286
4145.5 25
4146.5 92.2857
4147.5 87.8571
4148.5 188.143
4149.5 176
4150.5 57.8572
4151.5 79
4152.5 58
4153.5 28
4154.5 7.14286
4155.5 27
4156.5 82.7143
4157.5 7.57143
4158.5 65.7143
4159.5 53.2857
4160.5 -27.4286
4161.5 65
4162.5 -3.42857
4163.5 51.8571
4164.5 42
4165.5 48.7143
4166.5 12.2857
4167.5 9.00001
4168.5 135.429
4169.5 94.7143
4170.5 88.8571
4171.5 -21.2857
4172.5 57.4286
4173.5 32.5714
4174.5 32.2857
4175.5 46
4176.5 109.857
4177.5 50.2857
4178.5 51.7143
4179.5 37.8571
4180.5 88.1429
4181.5 29.5714
4182.5 16.5714
4183.5 26.4286
4184.5 -24.2857
4185.5 38.7143
4186.5 97.1429
4187.5 -16.1429
4188.5 32.2857
4189.5 37.5714
4190.5 36.7143
4191.5 28.7143
4192.5 31
4193.5 12.5714
4194.5 -12.1429
4195.5 36
4196.5 -13.7143
4197.5 12.4286
4198.5 78.1429
4199.5 60.1429
4200.5 95.7143
4201.5 76.4286
4202.5 106
4203.5 81.5714
4204.5 77.8571
4205.5 40.2857
4206.5 98.2857
4207.5 71
4208.5 98.4286
4209.5 133.714
4210.5 150
4211.5 11.2857
4212.5 111.143
4213.5 43.7143
4214.5 77.2857
4215.5 61.5714
4216.5 19.8572
4217.5 -3.71428
4218.5 103.286
4219.5 53.1429
4220.5 73.7143
4221.5 118
4222.5 112.286
4223.5 -0.428564
4224.5 93.8571
4225.5 55.4286
4226.5 64.7143
4227.5 46
4228.5 29.5714
4229.5 50.2857
4230.5 39.7143
4231.5 66.1429
4232.5 -7.57142
4233.5 23.8571
4234.5 82.2857
4235.5 51.2857
4236.5 102.857
4237.5 103.286
4238.5 67.8571
4239.5 62.4286
4240.5 43.4286
4241.5 47.2857
4242.5 92.4286
4243.5 50.5714
4244.5 18.8571
4245.5 65.7143
4246.5 45
4247.5 58.7143
4248.5 61.5714
4249.5 54.2857
4250.5 66.8571
4251.5 42
4252.5 58.5714
4253.5 32.1429
4254.5 86.1429
4255.5 87.1429
4256.5 131.143
4257.5 68
4258.5 22.5714
4259.5 135
4260.5 53.1429
4261.5 28.7143
4262.5 46.8571
4263.5 77.4286
4264.5 122
4265.5 87
4266.5 47.8572
4267.5 11.1429
4268.5 57.7143
4269.5 55.5714
4270.5 132.429
4271.5 83.5714
4272.5 94.2857
4273.5 75
4274.5 203.714
4275.5 110.571
4276.5 95.7143
4277.5 73.2857
4278.5 70.8571
4279.5 19.2857
4280.5 15.8571
4281.5 86
4282.5 8.85715
4283.5 35.7143
4284.5 92
4285.5 6.28572
4286.5 58
4287.5 -15.8571
4288.5 1.14286
4289.5 82
4290.5 43
4291.5 38.7143
4292.5 42.4286
4293.5 25.5714
4294.5 -16.8571
4295.5 60.7143
4296.5 107.143
4297.5 77.2857
4298.5 21.5714
4299.5 64.4286
4300.5 24.2857
4301.5 50.2857
4302.5 43.7143
4303.5 64.7143
4304.5 80.4286
4305.5 77.5714
4306.5 62.5714
4307.5 75
4308.5 34.2857
4309.5 121
4310.5 18.2857
4311.5 42.7143
4312.5 23.1429
4313.5 -4.71428
4314.5 31.5714
4315.5 62.5714
4316.5 -20.4286
4317.5 100.571
4318.5 20.5714
4319.5 34
4320.5 15.1429
4321.5 40.7143
4322.5 -35.7143
4323.5 3.28572
4324.5 98
4325.5 75.7143
4326.5 20.5714
4327.5 11.5714
4328.5 17.7143
4329.5 54.8571
4330.5 105.286
4331.5 108.143
4332.5 169.143
4333.5 99.8571
4334.5 52.4286
4335.5 98.8571
4336.5 91.2857
4337.5 122.714
4338.5 40
4339.5 55.2857
4340.5 52.4286
4341.5 26.5714
4342.5 -1.99999
4343.5 23.7143
4344.5 -5.71428
4345.5 -8.14285
4346.5 -10.1429
4347.5 52.7143
4348.5 58.8571
4349.5 -6.57142
4350.5 29.5714
4351.5 36.4286
4352.5 38.5714
4353.5 60.8571
4354.5 -10.5714
4355.5 -24.2857
4356.5 64.5714
4357.5 45.8571
4358.5 16.7143
4359.5 10
4360.5 50
4361.5 27.1429
4362.5 -1.14285
4363.5 90.7143
4364.5 35.4286
4365.5 1.00001
4366.5 -28.7143
4367.5 66.8571
4368.5 -1.57142
4369.5 38.8571
4370.5 36.8571
4371.5 2.71429
4372.5 75.7143
4373.5 89.7143
4374.5 46.4286
4375.5 73.1429
4376.5 85.1429
4377.5 87.8572
4378.5 68.8571
4379.5 39.7143
4380.5 122.714
4381.5 138.714
4382.5 74.2857
4383.5 54.1429
4384.5 -19.7143
4385.5 29.1429
4386.5 66.8571
4387.5 16.4286
4388.5 27
4389.5 41.8571
4390.5 41.7143
4391.5 16
4392.5 -58
4393.5 64
4394.5 51
4395.5 86.1429
4396.5 86
4397.5 44.1429
4398.5 63.4286
4399.5 7.42858
4400.5 55.5714
4401.5 28.4286
4402.5 13.8571
4403.5 0.285719
4404.5 45.1429
4405.5 125
4406.5 100.714
4407.5 19.4286
4408.5 37.2857
4409.5 21.7143
4410.5 -14.1429
4411.5 -11.5714
4412.5 58
4413.5 53.7143
4414.5 0.428577
4415.5 28.8571
4416.5 44.2857
4417.5 42.1429
4418.5 -20.4286
4419.5 51.2857
4420.5 62.1429
4421.5 20.2857
4422.5 20.4286
4423.5 8.57143
4424.5 64.4286
4425.5 38
4426.5 -3.71428
4427.5 50.5714
4428.5 -0.428566
4429.5 76.7143
4430.5 8.14286
4431.5 44.5714
4432.5 75.4286
4433.5 76
4434.5 73.1429
4435.5 39.7143
4436.5 36.4286
4437.5 28.2857
4438.5 49.5714
4439.5 52.8571
4440.5 -19.5714
4441.5 31.5714
4442.5 43.4286
4443.5 89.1429
4444.5 22.8571
4445.5 38.8571
4446.5 16.8571
4447.5 60.7143
4448.5 65.7143
4449.5 22.8571
4450.5 30.4286
4451.5 66.1429
4452.5 49
4453.5 -9.99999
4454.5 126.571
4455.5 151.143
4456.5 61
4457.5 141.857
4458.5 135.143
4459.5 67.5714
4460.5 113.857
4461.5 155.429
4462.5 199
4463.5 144.429
4464.5 108
4465.5 37.4286
4466.5 23.7143
4467.5 3.57143
4468.5 66.2857
4469.5 43.1429
4470.5 53.1429
4471.5 17.2857
4472.5 78.8571
4473.5 89.2857
4474.5 67.4286
4475.5 97.5714
4476.5 64.8571
4477.5 -18.8571
4478.5 23.8571
4479.5 6
4480.5 -14.2857
4481.5 19.2857
4482.5 46
4483.5 6.28572
4484.5 -8.99999
4485.5 5.14286
4486.5 71.7143
4487.5 80.7143
4488.5 13.7143
4489.5 57.5714
4490.5 34.1429
4491.5 44.8571
4492.5 63
4493.5 110.714
4494.5 122.429
4495.5 53.5714
4496.5 84
4497.5 54.8571
4498.5 78.7143
4499.5 123.286
4500.5 98.1429
4501.5 48.8571
4502.5 8.85715
4503.5 33.4286
4504.5 -23.2857
4505.5 95.1429
4506.5 21.7143
4507.5 -17.5714
4508.5 24.1429
4509.5 36.2857
4510.5 11.5714
4511.5 93.8571
4512.5 10.5714
4513.5 25.4286
4514.5 21.5714
4515.5 69.7143
4516.5 59.5714
4517.5 32
4518.5 105.714
4519.5 95.5714
4520.5 35.5714
4521.5 69.2857
4522.5 53.2857
4523.5 -8.28571
4524.5 51.7143
4525.5 8.00001
4526.5 15.5714
4527.5 -3.14285
4528.5 11.5714
4529.5 60.5714
4530.5 78.4286
4531.5 23.1429
4532.5 21.2857
4533.5 16.2857
4534.5 19
4535.5 58.7143
4536.5 32.5714
4537.5 48.2857
4538.5 21.2857
4539.5 64.7143
4540.5 -0.714281
4541.5 66.4286
4542.5 112.143
4543.5 -3.28571
4544.5 50.7143
4545.5 32.8571
4546.5 -2
4547.5 27.4286
4548.5 37.8571
4549.5 102.143
4550.5 45.8571
4551.5 96.4286
4552.5 89
4553.5 58.2857
4554.5 136.143
4555.5 79.8572
4556.5 -21.8571
4557.5 -27.7143
4558.5 34.7143
4559.5 121
4560.5 74.5714
4561.5 36.5714
4562.5 77
4563.5 85.8572
4564.5 110.143
4565.5 76.1429
4566.5 135.286
4567.5 75.2857
4568.5 51.4286
4569.5 40.8571
4570.5 18.2857
4571.5 25.7143
4572.5 15
4573.5 23.7143
4574.5 45.8571
4575.5 46
4576.5 25.2857
4577.5 43.4286
4578.5 65.1429
4579.5 31.8571
4580.5 122.857
4581.5 61.7143
4582.5 25.8571
4583.5 -7.85714
4584.5 -16.4286
4585.5 94.4286
4586.5 41.7143
4587.5 101.714
4588.5 26
4589.5 55.4286
4590.5 81.8571
4591.5 34.1429
4592.5 39.1429
4593.5 31.4286
4594.5 50.5714
4595.5 103.429
4596.5 31.5714
4597.5 112.857
4598.5 -19.4286
4599.5 56.8571
4600.5 24.7143
4601.5 -13.7143
4602.5 91.1429
4603.5 31.8571
4604.5 23.4286
4605.5 -1.28571
4606.5 51.7143
4607.5 14.8571
4608.5 69.7143
4609.5 58.8571
4610.5 57.7143
4611.5 90
4612.5 65.7143
4613.5 88.2857
4614.5 61.7143
4615.5 26
4616.5 69
4617.5 37.1429
4618.5 66.4286
4619.5 -12.8571
4620.5 71.8571
4621.5 48.4286
4622.5 168.286
4623.5 115.286
4624.5 105.857
4625.5 207.714
4626.5 42.5714
4627.5 83.2857
4628.5 46.4286
4629.5 31.7143
4630.5 61
4631.5 8.00001
4632.5 44.4286
4633.5 13.1429
4634.5 -28.5714
4635.5 41.5714
4636.5 53.8571
4637.5 10.4286
4638.5 19.1429
4639.5 21.4286
4640.5 4.28572
4641.5 47.5714
4642.5 32.5714
4643.5 -11
4644.5 8.57143
4645.5 91.1429
4646.5 71.4286
4647.5 52.8571
4648.5 71
4649.5 118.286
4650.5 78.5714
4651.5 26
4652.5 33.7143
4653.5 17.7143
4654.5 1
4655.5 61.2857
4656.5 48
4657.5 62.4286
4658.5 50.4286
4659.5 49.7143
4660.5 -27.5714
4661.5 10
4662.5 51.1429
4663.5 71.4286
4664.5 62.8571
4665.5 86.2857
4666.5 62.1429
4667.5 14.8571
4668.5 39.2857
4669.5 -6
4670.5 59.7143
4671.5 53.8571
4672.5 96.2857
4673.5 50.8571
4674.5 94.5714
4675.5 68.2857
4676.5 91
4677.5 -7.42857
4678.5 20.7143
4679.5 32
4680.5 29
4681.5 34.1429
4682.5 46.7143
4683.5 30.1429
4684.5 87.7143
4685.5 67.2857
4686.5 42.5714
4687.5 28.1429
4688.5 64.4286
4689.5 12.4286
4690.5 20.8571
4691.5 47.5714
4692.5 31.2857
4693.5 -4.99999
4694.5 45.8571
4695.5 20.1429
4696.5 77
4697.5 -0.71428
4698.5 -0.714281
4699.5 75.4286
4700.5 29.2857
4701.5 25
4702.5 3.28572
4703.5 -0.571424
4704.5 10
4705.5 7.57143
4706.5 101.714
4707.5 24
4708.5 25.1429
4709.5 39.1429
4710.5 32
4711.5 29.1429
4712.5 64.1429
4713.5 72.8571
4714.5 26.4286
4715.5 60.1429
4716.5 35.5714
4717.5 23.7143
4718.5 60.4286
4719.5 57.2857
4720.5 24
4721.5 52.7143
4722.5 -3.42857
4723.5 46.4286
4724.5 33.4286
4725.5 28.5714
4726.5 34.1429
4727.5 42
4728.5 53.8571
4729.5 73.4286
4730.5 63.4286
4731.5 -18.2857
4732.5 76.7143
4733.5 53.1429
4734.5 105.714
4735.5 32
4736.5 23.5714
4737.5 39
4738.5 -9.14285
4739.5 61.8571
4740.5 -34
4741.5 29.1429
4742.5 52.2857
4743.5 -32.7143
4744.5 32
4745.5 23.8571
4746.5 6.4373e-06
4747.5 46.8571
4748.5 91.2857
4749.5 88.1429
4750.5 35.5714
4751.5 61.8571
4752.5 22.1429
4753.5 57.4286
4754.5 23.4286
4755.5 59.1429
4756.5 47.1429
4757.5 8.71429
4758.5 27.8571
4759.5 24
4760.5 20.2857
4761.5 -8.57142
4762.5 66.5714
4763.5 -2.71428
4764.5 57.4286
4765.5 -0.571424
4766.5 9.85715
4767.5 56.2857
4768.5 83.4286
4769.5 75.5714
4770.5 75.5714
4771.5 103.429
4772.5 9.42858
4773.5 55.7143
4774.5 2.14286
4775.5 60.2857
4776.5 59
4777.5 14.4286
4778.5 81.2857
4779.5 19.1429
4780.5 57.4286
4781.5 80.5714
4782.5 124.857
4783.5 204.143
4784.5 219.714
4785.5 236.143
4786.5 151.571
4787.5 161.143
4788.5 89.7143
4789.5 39.8571
4790.5 104.714
4791.5 74
4792.5 9.28572
4793.5 50.1429
4794.5 -16.4286
4795.5 34.7143
4796.5 13.2857
4797.5 32.5714
4798.5 -9.28571
4799.5 9.71429
4800.5 9.42858
4801.5 56.4286
4802.5 41.5714
4803.5 -1.14285
4804.5 69.2857
4805.5 95.1429
4806.5 95.2857
4807.5 95.2857
4808.5 24.2857
4809.5 105.571
4810.5 36.8571
4811.5 67.5714
4812.5 22.4286
4813.5 66.7143
4814.5 17.5714
4815.5 93.4286
4816.5 -15.2857
4817.5 63.7143
4818.5 26.7143
4819.5 83.2857
4820.5 81.2857
4821.5 48.1429
4822.5 11.5714
4823.5 12
4824.5 21.2857
4825.5 2.28572
4826.5 58.4286
4827.5 44.8571
4828.5 46.4286
4829.5 17.1429
4830.5 34.8571
4831.5 36.5714
4832.5 57.7143
4833.5 9.42858
4834.5 7
4835.5 -3.99999
4836.5 -7.99999
4837.5 -10.1429
4838.5 35.1429
4839.5 68.1429
4840.5 51.8571
4841.5 53.7143
4842.5 153.286
4843.5 116
4844.5 153
4845.5 69.5714
4846.5 49.1429
4847.5 66.2857
4848.5 18.2857
4849.5 58.8571
4850.5 1.28572
4851.5 39.4286
4852.5 30.7143
4853.5 37.1429
4854.5 96.1429
4855.5 17.8571
4856.5 77.1429
4857.5 22.8571
4858.5 48
4859.5 18.7143
4860.5 4.85715
4861.5 17.5714
4862.5 -21.5714
4863.5 -14.4286
4864.5 -3.42857
4865.5 25.7143
4866.5 -12.7143
4867.5 61
4868.5 57.1429
4869.5 101.143
4870.5 -18
4871.5 32.2857
4872.5 53.2857
4873.5 50.4286
4874.5 71.2857
4875.5 59.4286
4876.5 27.7143
4877.5 -59.5714
4878.5 150.429
4879.5 93.5714
4880.5 130.143
4881.5 99.1429
4882.5 114
4883.5 110.143
4884.5 55.7143
4885.5 -19.8571
4886.5 73.1429
4887.5 -14.2857
4888.5 84.7143
4889.5 39.8572
4890.5 29.7143
4891.5 59.5714
4892.5 20.2857
4893.5 1.42858
4894.5 74.7143
4895.5 9
4896.5 13.2857
4897.5 -8.57142
4898.5 -23.1429
4899.5 26.8571
4900.5 52.2857
4901.5 13.5714
4902.5 8.57143
4903.5 80.4286
4904.5 19
4905.5 80.4286
4906.5 73.4286
4907.5 36.2857
4908.5 15.2857
4909.5 25.5714
4910.5 53.2857
4911.5 -4.71428
4912.5 -6.42857
4913.5 51.7143
4914.5 6.85715
4915.5 38.1429
4916.5 11.7143
4917.5 100.143
4918.5 96
4919.5 161.857
4920.5 57.7143
4921.5 54.7143
4922.5 13.5714
4923.5 36.1429
4924.5 44.2857
4925.5 88
4926.5 21.4286
4927.5 38.7143
4928.5 -26.5714
4929.5 26.7143
4930.5 21.5714
4931.5 47.5714
4932.5 19.4286
4933.5 0.71429
4934.5 -10.8571
4935.5 -6.42857
4936.5 -11
4937.5 4.29153e-06
4938.5 41.5714
4939.5 36.5714
4940.5 38.5714
4941.5 28.8571
4942.5 -27.5714
4943.5 7.14286
4944.5 30.5714
4945.5 -15.4286
4946.5 67.7143
4947.5 54.4286
4948.5 65.4286
4949.5 69.1429
4950.5 27.1429
4951.5 3.57143
4952.5 57.4286
4953.5 66.4286
4954.5 52.8571
4955.5 52.1429
4956.5 39.5714
4957.5 25.4286
4958.5 29.8571
4959.5 34.5714
4960.5 38.2857
4961.5 -1.71428
4962.5 50.7143
4963.5 5.14286
4964.5 56.7143
4965.5 66.1429
4966.5 7.71429
4967.5 67.4286
4968.5 12.8571
4969.5 64.7143
4970.5 173.857
4971.5 182.857
4972.5 244.571
4973.5 387.571
4974.5 374.714
4975.5 208.714
4976.5 189.429
4977.5 40.5714
4978.5 96.5714
4979.5 118.143
4980.5 154.857
4981.5 118
4982.5 97.1429
4983.5 264.429
4984.5 67
4985.5 104.286
4986.5 -3.28571
4987.5 -4.71428
4988.5 -15.1429
4989.5 15
4990.5 3
4991.5 24
4992.5 14.5714
4993.5 29.7143
4994.5 47.2857
4995.5 56.8571
4996.5 39.8571
4997.5 -14.8571
4998.5 51.7143
4999.5 24.4286
5000.5 131
5001.5 97.4286
5002.5 48
5003.5 124.143
5004.5 83
5005.5 88.8571
5006.5 51
5007.5 25.1429
5008.5 17
5009.5 144.857
5010.5 34.7143
5011.5 79
5012.5 6.28572
5013.5 32.1429
5014.5 16
5015.5 16.5714
5016.5 42.1429
5017.5 40
5018.5 53.8571
5019.5 59.4286
5020.5 29
5021.5 14.7143
5022.5 -15.2857
5023.5 45.2857
5024.5 28.1429
5025.5 57.1429
5026.5 50.7143
5027.5 59.5714
5028.5 -14.1429
5029.5 58.1429
5030.5 48.2857
5031.5 25.8571
5032.5 -4.28571
5033.5 3.28572
5034.5 19
5035.5 81.4286
5036.5 76
5037.5 41.4286
5038.5 -6.57142
5039.5 38.5714
5040.5 0.571434
5041.5 79
5042.5 5.00001
5043.5 -6.57142
5044.5 18.4286
5045.5 52
5046.5 21.1429
5047.5 9.85715
5048.5 10.1429
5049.5 31.1429
5050.5 16.1429
5051.5 10
5052.5 43.1429
5053.5 32
5054.5 43
5055.5 47.5714
5056.5 22.4286
5057.5 43.4286
5058.5 34.4286
5059.5 -2.71428
5060.5 43.8571
5061.5 3
5062.5 29.2857
5063.5 36.1429
5064.5 36.7143
5065.5 -22
5066.5 54.8571
5067.5 20
5068.5 76.7143
5069.5 55.7143
5070.5 72.8571
5071.5 17.4286
5072.5 53.8571
5073.5 50.1429
5074.5 -9.28571
5075.5 44.8571
5076.5 40.4286
5077.5 41.5714
5078.5 0.857148
5079.5 32.2857
5080.5 41.7143
5081.5 55.2857
5082.5 50.4286
5083.5 -20.8571
5084.5 39.1429
5085.5 34.2857
5086.5 52.4286
5087.5 26.4286
5088.5 -81.4286
5089.5 79
5090.5 55.7143
5091.5 20.7143
5092.5 64.1429
5093.5 -2.99999
5094.5 66.1429
5095.5 33.7143
5096.5 46.5714
5097.5 24
5098.5 20.7143
5099.5 3.00001
5100.5 67.4286
5101.5 56.5714
5102.5 48.8571
5103.5 25.4286
5104.5 41.8571
5105.5 74.7143
5106.5 8.57143
5107.5 48.8571
5108.5 43.8571
5109.5 30.4286
5110.5 21.2857
5111.5 3.85715
5112.5 14.5714
5113.5 27.7143
5114.5 32.5714
5115.5 21.5714
5116.5 25.4286
5117.5 -1.99999
5118.5 36.8571
5119.5 12.2857
5120.5 33.1429
5121.5 7.85715
5122.5 68.2857
5123.5 28.8571
5124.5 11.5714
5125.5 33.8571
5126.5 -18
5127.5 73
5128.5 98.7143
5129.5 32.7143
5130.5 20.8571
5131.5 77.7143
5132.5 124.857
5133.5 73.2857
5134.5 141.286
5135.5 204
5136.5 236.857
5137.5 140
5138.5 72
5139.5 44.1429
5140.5 64.1429
5141.5 14.4286
5142.5 40.4286
5143.5 54.8571
5144.5 17.5714
5145.5 46.4286
5146.5 -21.1429
5147.5 10
5148.5 -28.7143
5149.5 -0.571424
5150.5 63.7143
5151.5 17.1429
5152.5 13.8571
5153.5 29.2857
5154.5 27.2857
5155.5 22.4286
5156.5 -33.5714
5157.5 9.71429
5158.5 -33.5714
5159.5 2.71429
5160.5 41.2857
5161.5 35.5714
5162.5 8.42858
5163.5 30.7143
5164.5 47.5714
5165.5 40.7143
5166.5 8.28572
5167.5 74.2857
5168.5 -3.42857
5169.5 6.57143
5170.5 -28.1429
5171.5 26.2857
5172.5 20.1429
5173.5 39.8571
5174.5 -12.7143
5175.5 1.71429
5176.5 69.1429
5177.5 46
5178.5 0.571433
5179.5 46.5714
5180.5 1
5181.5 29
5182.5 3
5183.5 39.4286
5184.5 -13.5714
5185.5 -0.28571
5186.5 32.5714
5187.5 22.4286
5188.5 58.8571
5189.5 -5.57142
5190.5 -7.42857
5191.5 78.5714
5192.5 124.571
5193.5 70
5194.5 76.8571
5195.5 67.7143
5196.5 36.2857
5197.5 85.7143
5198.5 47.2857
5199.5 45.7143
5200.5 26.5714
5201.5 -8.14285
5202.5 35.8571
5203.5 -16
5204.5 48.2857
5205.5 29.7143
5206.5 54.7143
5207.5 24.1429
5208.5 27.5714
5209.5 56.8571
5210.5 45.1429
5211.5 4
5212.5 -17.7143
5213.5 35.1429
5214.5 -2
5215.5 21.1429
5216.5 -3.28571
5217.5 8.71429
5218.5 6.57143
5219.5 25.4286
5220.5 -1.57142
5221.5 -2.42857
5222.5 17
5223.5 4.71429
5224.5 94.5714
5225.5 -15.7143
5226.5 24.7143
5227.5 27.2857
5228.5 87.1429
5229.5 42.4286
5230.5 56.5714
5231.5 14.4286
5232.5 15.8571
5233.5 9.71429
5234.5 95.2857
5235.5 58
5236.5 54.4286
5237.5 52.2857
5238.5 39
5239.5 74.8571
5240.5 28.5714
5241.5 36.2857
5242.5 14.5714
5243.5 7.42858
5244.5 96.4286
5245.5 55.2857
5246.5 0.857148
5247.5 21.4286
5248.5 -3.28571
5249.5 40.1429
5250.5 -46.8571
5251.5 72.7143
5252.5 41
5253.5 9.71429
5254.5 45.5714
5255.5 24.1429
5256.5 26.4286
5257.5 27.4286
5258.5 37.5714
5259.5 72.4286
5260.5 10.8571
5261.5 59.7143
5262.5 89.7143
5263.5 28.5714
5264.5 -11.8571
5265.5 123.714
5266.5 -6.28571
5267.5 35.1429
5268.5 2
5269.5 16.8571
5270.5 3.93391e-06
5271.5 104
5272.5 22
5273.5 30.8571
5274.5 -12.2857
5275.5 63.2857
5276.5 40
5277.5 6.85715
5278.5 27.8571
5279.5 -17.4286
5280.5 30.7143
5281.5 -4.85714
5282.5 8.14286
5283.5 67.8571
5284.5 51.5714
5285.5 8.42858
5286.5 -22.2857
5287.5 13.2857
5288.5 21.7143
5289.5 9.28572
5290.5 17.5714
5291.5 -0.999995
5292.5 67.8571
5293.5 35.7143
5294.5 13.7143
5295.5 64.5714
5296.5 26
5297.5 22.5714
5298.5 36.1429
5299.5 -5.71428
5300.5 25.7143
5301.5 30.7143
5302.5 62.1429
5303.5 61.5714
5304.5 4.00001
5305.5 39.2857
5306.5 55
5307.5 28.4286
5308.5 8.85715
5309.5 -28.1429
5310.5 0.571432
5311.5 28.7143
5312.5 29.2857
5313.5 66
5314.5 10
5315.5 60.5714
5316.5 63.1429
5317.5 15.4286
5318.5 78.2857
5319.5 68.2857
5320.5 68
5321.5 108
5322.5 61.7143
5323.5 17
5324.5 15.8571
5325.5 49.7143
5326.5 3
5327.5 75.4286
5328.5 37.1429
5329.5 37.5714
5330.5 53.1429
5331.5 48.4286
5332.5 18.7143
5333.5 -4.14285
5334.5 0.285719
5335.5 29.8571
5336.5 27.1429
5337.5 53.5714
5338.5 25.4286
5339.5 40.2857
5340.5 -19.8571
5341.5 26.7143
5342.5 41.8571
5343.5 -49.5714
5344.5 66
5345.5 7.71429
5346.5 -10.2857
5347.5 42
5348.5 73.2857
5349.5 48.8571
5350.5 78.1429
5351.5 188.429
5352.5 192
5353.5 294
5354.5 343.286
5355.5 339
5356.5 322.143
5357.5 234.857
5358.5 93.7143
5359.5 66.1429
5360.5 27.4286
5361.5 17.7143
5362.5 38.8571
5363.5 26
5364.5 13.1429
5365.5 6.28572
5366.5 32
5367.5 34.8571
5368.5 47.4286
5369.5 68.8571
5370.5 -0.999997
5371.5 41.2857
5372.5 -20.1429
5373.5 19.7143
5374.5 48.4286
5375.5 24.5714
5376.5 43.2857
5377.5 66
5378.5 9.57143
5379.5 42.4286
5380.5 4.71429
5381.5 36.8571
5382.5 -24.2857
5383.5 -26.7143
5384.5 -5.99999
5385.5 -29.5714
5386.5 7.14287
5387.5 51.2857
5388.5 -20.8571
5389.5 -42.7143
5390.5 40.8572
5391.5 -115.714
5392.5 -43.7143
5393.5 2.14287
5394.5 -16.1428
5395.5 27.8572
5396.5 7.57145
5397.5 145.857
5398.5 26.5714
5399.5 -78.1428
5400.5 77.8572
5401.5 23.5714
5402.5 104.571
5403.5 -17.5714
5404.5 19.4286
5405.5 65.4286
5406.5 57.1429
5407.5 48
5408.5 24.4286
5409.5 28.5714
5410.5 -12.8571
5411.5 11
5412.5 15.4286
5413.5 15.5714
5414.5 48.7143
5415.5 41.2857
5416.5 49.1429
5417.5 20
5418.5 39.5714
5419.5 -21.4286
5420.5 -18.2857
5421.5 41.2857
5422.5 27.2857
5423.5 -11.1429
5424.5 44.5714
5425.5 58.1429
5426.5 14.8571
5427.5 32.4286
5428.5 25.2857
5429.5 -16.7143
5430.5 3.57628e-06
5431.5 3.69549e-06
5432.5 38.7143
5433.5 2.57143
5434.5 -7.42857
5435.5 34.8571
5436.5 56.1429
5437.5 -34.5714
5438.5 7.85715
5439.5 5
5440.5 38
5441.5 -15.2857
5442.5 34.5714
5443.5 16
5444.5 -30.7143
5445.5 2.42857
5446.5 33.2857
5447.5 -0.999997
5448.5 37.1429
5449.5 32.8571
5450.5 4.28572
5451.5 37.5714
5452.5 -33.5714
5453.5 18.1429
5454.5 20.4286
5455.5 -43
5456.5 47.8571
5457.5 51.2857
5458.5 10
5459.5 18.7143
5460.5 16
5461.5 69.5714
5462.5 32.4286
5463.5 -0.571425
5464.5 7.42858
5465.5 40.4286
5466.5 51.4286
5467.5 33.1429
5468.5 22.2857
5469.5 20.2857
5470.5 -33.1429
5471.5 17.7143
5472.5 -0.857138
5473.5 39.8571
5474.5 1.14286
5475.5 28
5476.5 40
5477.5 73.4286
5478.5 53.7143
5479.5 5.14286
5480.5 -12.4286
5481.5 25.8571
5482.5 -5.14285
5483.5 22.4286
5484.5 62
5485.5 7.14286
5486.5 17.8571
5487.5 -35.8571
5488.5 51.4286
5489.5 23.1429
5490.5 34.4286
5491.5 64.2857
5492.5 2.71429
5493.5 64.5714
5494.5 -6
5495.5 1
5496.5 -0.999997
5497.5 31.5714
5498.5 37.4286
5499.5 26.5714
5500.5 10.7143
5501.5 23.1429
5502.5 19.7143
5503.5 18.1429
5504.5 10.7143
5505.5 15.2857
5506.5 12.8571
5507.5 38.7143
5508.5 15.7143
5509.5 -31.5714
5510.5 11.7143
5511.5 9
5512.5 -5.71428
5513.5 35.4286
5514.5 55
5515.5 -13.8571
5516.5 58.4286
5517.5 68.2857
5518.5 10
5519.5 14.8571
5520.5 -3.14285
5521.5 6.14286
5522.5 27.2857
5523.5 6.85715
5524.5 68.7143
5525.5 82.4286
5526.5 60.1429
5527.5 32.4286
5528.5 37
5529.5 -5
5530.5 34.8571
5531.5 14.5714
5532.5 59.7143
5533.5 26.8571
5534.5 30.2857
5535.5 15.8571
5536.5 22.4286
5537.5 30.2857
5538.5 17.8571
5539.5 -48.1429
5540.5 19.5714
5541.5 53
5542.5 27.7143
5543.5 24.2857
5544.5 47.8571
5545.5 30.4286
5546.5 73
5547.5 35.5714
5548.5 35.8571
5549.5 12.7143
5550.5 36
5551.5 25.1429
5552.5 -7.57142
5553.5 64.7143
5554.5 34.2857
5555.5 -17.7143
5556.5 56.5714
5557.5 12.5714
5558.5 15.2857
5559.5 38.7143
5560.5 -13.2857
5561.5 -11.1429
5562.5 -9.57142
5563.5 28.7143
5564.5 47.7143
5565.5 19.2857
5566.5 27.1429
5567.5 12.7143
5568.5 10.5714
5569.5 48.5714
5570.5 8.28572
5571.5 32.2857
5572.5 -2.28571
5573.5 5.71429
5574.5 39.7143
5575.5 34
5576.5 19.1429
5577.5 33.1429
5578.5 60.8571
5579.5 -4.71428
5580.5 73.7143
5581.5 70.7143
5582.5 22.4286
5583.5 -14.2857
5584.5 42.5714
5585.5 -1.57142
5586.5 56.4286
5587.5 -1.28571
5588.5 22.7143
5589.5 4.42858
5590.5 90.4286
5591.5 2.71429
5592.5 33.2857
5593.5 16.8571
5594.5 51.8571
5595.5 21.4286
5596.5 23.4286
5597.5 -13.7143
5598.5 62
5599.5 59.5714
5600.5 8.71429
5601.5 39.1429
5602.5 4.57143
5603.5 25.4286
5604.5 36.7143
5605.5 -12
5606.5 14
5607.5 22.8571
5608.5 40.5714
5609.5 62.7143
5610.5 62.2857
5611.5 -8.42856
5612.5 35.4286
5613.5 38.7143
5614.5 119.143
5615.5 49.7143
5616.5 66.4286
5617.5 31.4286
5618.5 -27.1429
5619.5 27.4286
5620.5 24.5714
5621.5 18.8571
5622.5 56.8571
5623.5 13.4286
5624.5 47
5625.5 24.2857
5626.5 30.7143
5627.5 41.4286
5628.5 -2.28571
5629.5 29
5630.5 44.2857
5631.5 64.1429
5632.5 17.1429
5633.5 40.7143
5634.5 49.8571
5635.5 -8.28571
5636.5 30.2857
5637.5 20
5638.5 -5.14285
5639.5 56
5640.5 39.4286
5641.5 21.5714
5642.5 6.28572
5643.5 26.4286
5644.5 -14.8571
5645.5 25.1429
5646.5 18.1429
5647.5 46.7143
5648.5 -10
5649.5 57.5714
5650.5 -15.5714
5651.5 7.42858
5652.5 12
5653.5 28.5714
5654.5 32.2857
5655.5 43.1429
5656.5 48.8571
5657.5 30.5714
5658.5 20.5714
5659.5 16
5660.5 -12.7143
5661.5 33.5714
5662.5 33.7143
5663.5 23.5714
5664.5 10.4286
5665.5 32.8571
5666.5 -12.5714
5667.5 36.5714
5668.5 35.1429
5669.5 30.4286
5670.5 60.7143
5671.5 66.5714
5672.5 0.857148
5673.5 23.2857
5674.5 55.1429
5675.5 27.1429
5676.5 14
5677.5 51.4286
5678.5 29.7143
5679.5 5.42857
5680.5 20.7143
5681.5 14.5714
5682.5 21.4286
5683.5 22.7143
5684.5 13.1429
5685.5 36.1429
5686.5 32.2857
5687.5 57.4286
5688.5 101.857
5689.5 80.8571
5690.5 25
5691.5 56.5714
5692.5 38.8571
5693.5 17
5694.5 9
5695.5 63.4286
5696.5 4.14286
5697.5 5.71429
5698.5 -5.14285
5699.5 4.28572
5700.5 19.7143
5701.5 -15.1429
5702.5 15.4286
5703.5 10.2857
5704.5 -11.5714
5705.5 23.8571
5706.5 26.4286
5707.5 18.8571
5708.5 5.28572
5709.5 -9.71428
5710.5 40.8571
5711.5 -0.571424
5712.5 60.2857
5713.5 34.5714
5714.5 66.7143
5715.5 22.2857
5716.5 22
5717.5 7.71429
5718.5 19
5719.5 17.5714
5720.5 39
5721.5 -9.14285
5722.5 -18.7143
5723.5 1.71429
5724.5 -37.8571
5725.5 14
5726.5 28.2857
5727.5 27.2857
5728.5 -41
5729.5 33.8571
5730.5 -30.5714
5731.5 38.5714
5732.5 6.71429
5733.5 47.7143
5734.5 -9.57142
5735.5 -6.71428
5736.5 25.7143
5737.5 -32.5714
5738.5 51.5714
5739.5 58.5714
5740.5 24.2857
5741.5 19.2857
5742.5 3.69549e-06
5743.5 53.7143
5744.5 47
5745.5 41.1429
5746.5 -39
5747.5 36.5714
5748.5 21.8571
5749.5 57.2857
5750.5 12.7143
5751.5 34.7143
5752.5 -6.71428
5753.5 25.7143
5754.5 -6.28571
5755.5 8.57143
5756.5 100
5757.5 22
5758.5 18
5759.5 40.8571
5760.5 42.4286
5761.5 -8.57143
5762.5 5.42857
5763.5 -20.2857
5764.5 -8.14285
5765.5 35.5714
5766.5 51.7143
5767.5 37.7143
5768.5 14.7143
5769.5 20.7143
5770.5 -17
5771.5 -17.5714
5772.5 25.7143
5773.5 13.7143
5774.5 16.1429
5775.5 9
5776.5 12.5714
5777.5 54.2857
5778.5 21.5714
5779.5 -6.28571
5780.5 0.428574
5781.5 -2
5782.5 -5.14285
5783.5 14.2857
5784.5 16
5785.5 16.1429
5786.5 61.2857
5787.5 39.4286
5788.5 33.4286
5789.5 17.8571
5790.5 34
5791.5 -2.14285
5792.5 8.57143
5793.5 7.71429
5794.5 -0.428568
5795.5 47.1429
5796.5 33.7143
5797.5 -18.7143
5798.5 -38.2857
5799.5 -18.8571
5800.5 3.71429
5801.5 4.14286
5802.5 28.1429
5803.5 -6.85714
5804.5 -4.42857
5805.5 15.2857
5806.5 27.4286
5807.5 4.85715
5808.5 -5.85714
5809.5 47.7143
5810.5 -22.5714
5811.5 8.14286
5812.5 24.4286
5813.5 19.1429
5814.5 50
5815.5 15.7143
5816.5 33.7143
5817.5 47.5714
5818.5 23.5714
5819.5 32.2857
5820.5 44.2857
5821.5 13.4286
5822.5 32.2857
5823.5 44.8571
5824.5 28
5825.5 62.8571
5826.5 26.7143
5827.5 136.857
5828.5 144
5829.5 223.143
5830.5 214.857
5831.5 174.857
5832.5 149.143
5833.5 41.5714
5834.5 43
5835.5 44.1429
5836.5 8
5837.5 74.8571
5838.5 84.4286
5839.5 45.4286
5840.5 100.286
5841.5 73.8572
5842.5 36.7143
5843.5 70.7143
5844.5 46.4286
5845.5 12.5714
5846.5 23.8571
5847.5 6.71429
5848.5 25.5714
5849.5 -7.42857
5850.5 31
5851.5 10.7143
5852.5 33.1429
5853.5 29.4286
5854.5 32
5855.5 31.1429
5856.5 36.5714
5857.5 8.71429
5858.5 9.85715
5859.5 41
5860.5 3.28572
5861.5 14.1429
5862.5 16.5714
5863.5 12.7143
5864.5 8.28572
5865.5 28.4286
5866.5 -1.71428
5867.5 32.7143
5868.5 33.2857
5869.5 22
5870.5 21.1429
5871.5 22.8571
5872.5 5.42857
5873.5 16
5874.5 52.7143
5875.5 7.57143
5876.5 51.1429
5877.5 34.1429
5878.5 -5.28571
5879.5 -5.57143
5880.5 27.4286
5881.5 21.5714
5882.5 12.5714
5883.5 14.7143
5884.5 -34.4286
5885.5 -22.1429
5886.5 2.42857
5887.5 -2.42857
5888.5 -12
5889.5 23.7143
5890.5 7
5891.5 8.71429
5892.5 35.7143
5893.5 -13.5714
5894.5 7.42858
5895.5 45.4286
5896.5 -36.4286
5897.5 128.571
5898.5 49.4286
5899.5 8.28575
5900.5 72.1429
5901.5 72.1429
5902.5 -55
5903.5 -97.8571
5904.5 -84
5905.5 -51.7143
5906.5 -19.4286
5907.5 -12.1429
5908.5 -5.42857
5909.5 20.7143
5910.5 46.1429
5911.5 58
5912.5 15.4286
5913.5 14.5714
5914.5 13.2857
5915.5 9.71429
5916.5 50.8571
5917.5 12
5918.5 18.1429
5919.5 27.5714
5920.5 43.2857
5921.5 21.8571
5922.5 18.1429
5923.5 18.1429
5924.5 51.2857
5925.5 19.1429
5926.5 11.7143
5927.5 23.7143
5928.5 37.5714
5929.5 45.1429
5930.5 31.5714
5931.5 -19
5932.5 14.5714
5933.5 7.14286
5934.5 9.42857
5935.5 12.4286
5936.5 -35
5937.5 34
5938.5 2.14286
5939.5 33.7143
5940.5 22.8571
5941.5 36.1429
5942.5 20.7143
5943.5 5.42857
5944.5 -2.85714
5945.5 13.1429
5946.5 5.85714
5947.5 56.8571
5948.5 26.5714
5949.5 -18.2857
5950.5 11.7143
5951.5 -13.2857
5952.5 12
5953.5 -16.2857
5954.5 -0.571427
5955.5 41.2857
5956.5 8.28572
5957.5 4.42857
5958.5 60.4286
5959.5 8.28572
5960.5 3.14286
5961.5 9.85714
5962.5 25.7143
5963.5 12.4286
5964.5 44.2857
5965.5 13.1429
5966.5 15.8571
5967.5 41.7143
5968.5 41.2857
5969.5 65.4286
5970.5 -9
5971.5 -17.4286
5972.5 24.1429
5973.5 -7.14286
5974.5 4
5975.5 22.2857
5976.5 27.8571
5977.5 18
5978.5 6.71429
5979.5 21.7143
5980.5 35.8571
5981.5 25.7143
5982.5 13.4286
5983.5 8.42857
5984.5 6
5985.5 29.2857
5986.5 8.42857
5987.5 -0.857141
5988.5 34
5989.5 9.28572
5990.5 32.7143
5991.5 3.57143
5992.5 12.7143
5993.5 30.4286
5994.5 -71
5995.5 42.8571
5996.5 4.28572
5997.5 52.7143
5998.5 13.5714
5999.5 84.2857
6000.5 123.143
6001.5 37
6002.5 8.85715
6003.5 88
6004.5 49
6005.5 41.8571
6006.5 16.4286
6007.5 6.28572
6008.5 31.4286
6009.5 9.71429
6010.5 4.14286
6011.5 32.5714
6012.5 -0.857141
6013.5 -13.2857
6014.5 -9.57143
6015.5 41.8571
6016.5 13.1429
6017.5 7
6018.5 -8
6019.5 5.71429
6020.5 6.42857
6021.5 -0.285713
6022.5 19.2857
6023.5 -1.71428
6024.5 -5.71428
6025.5 17.7143
6026.5 34.7143
6027.5 23.2857
6028.5 -6.28571
6029.5 5.14286
6030.5 35.7143
6031.5 20
6032.5 112.429
6033.5 32.1429
6034.5 89.8572
6035.5 83.4286
6036.5 39.7143
6037.5 13.2857
6038.5 36.1429
6039.5 5.14286
6040.5 57.1429
6041.5 35.2857
6042.5 26.8571
6043.5 51
6044.5 -12.7143
6045.5 32.8571
6046.5 -5.28571
6047.5 11
6048.5 3.85714
6049.5 8.57143
6050.5 -24.2857
6051.5 27.5714
6052.5 -23
6053.5 -7.42857
6054.5 3.14286
6055.5 -5.85714
6056.5 15.1429
6057.5 17.1429
6058.5 25.5714
6059.5 -5
6060.5 10.8571
6061.5 16.2857
6062.5 -18
6063.5 32.8571
6064.5 4.71429
6065.5 16.7143
6066.5 -2.14286
6067.5 12.1429
6068.5 2
6069.5 13.1429
6070.5 -24.5714
6071.5 17.1429
6072.5 12.5714
6073.5 -3.71428
6074.5 -22
6075.5 8.14286
6076.5 33.2857
6077.5 23.4286
6078.5 -26.7143
6079.5 -16.5714
6080.5 -13.4286
6081.5 4.85714
6082.5 16.8571
6083.5 20.7143
6084.5 -0.42857
6085.5 0.857144
6086.5 -13.5714
6087.5 19.7143
6088.5 12.2857
6089.5 7.42857
6090.5 41.5714
6091.5 -3
6092.5 17
6093.5 -5.71428
6094.5 30.7143
6095.5 9
6096.5 -7.85714
6097.5 30.1429
6098.5 23.8571
6099.5 34.1429
6100.5 14.5714
6101.5 35.1429
6102.5 23.4286
6103.5 57.5714
6104.5 9.14286
6105.5 31.4286
6106.5 21.2857
6107.5 47.5714
6108.5 -4.57143
6109.5 15
6110.5 11.4286
6111.5 34.2857
6112.5 52.4286
6113.5 34.5714
6114.5 23.4286
6115.5 15.1429
6116.5 -23.8571
6117.5 28.7143
6118.5 6.57143
6119.5 45.2857
6120.5 10
6121.5 35.4286
6122.5 86.7143
6123.5 40.8572
6124.5 77.7143
6125.5 -1.2857
6126.5 36
6127.5 30.4286
6128.5 49.2857
6129.5 -1.28571
6130.5 4.28572
6131.5 -4
6132.5 -9.14286
6133.5 2.57143
6134.5 -4.85714
6135.5 16.7143
6136.5 -5.57143
6137.5 4.14286
6138.5 16.1429
6139.5 -8.28571
6140.5 33.7143
6141.5 -11.1429
6142.5 -11.2857
6143.5 1.57143
6144.5 -0.285713
6145.5 36.5714
6146.5 -13.4286
6147.5 -6.14286
6148.5 18
6149.5 11.1429
6150.5 -22.5714
6151.5 27.1429
6152.5 31.4286
6153.5 15.8571
6154.5 28.2857
6155.5 13.2857
6156.5 12.7143
6157.5 8.14286
6158.5 -3.85714
6159.5 15.7143
6160.5 4.57143
6161.5 -10.1429
6162.5 15.5714
6163.5 17.7143
6164.5 -2.71428
6165.5 4
6166.5 5
6167.5 14.5714
6168.5 16.2857
6169.5 7
6170.5 12.7143
6171.5 -15.7143
6172.5 10.5714
6173.5 17.2857
6174.5 -9.71428
6175.5 5.28572
6176.5 2.71429
6177.5 27
6178.5 -1.57143
6179.5 10.7143
6180.5 24
6181.5 23.1429
6182.5 -1.42857
6183.5 31.7143
6184.5 16.2857
6185.5 42.4286
6186.5 -16.4286
6187.5 59.7143
6188.5 2.42857
6189.5 28.7143
6190.5 31.5714
6191.5 38.4286
6192.5 27
6193.5 48.2857
6194.5 53
6195.5 59.2857
6196.5 63
6197.5 67.2857
6198.5 124.429
6199.5 99.4286
6200.5 112
6201.5 125.571
6202.5 72.2857
6203.5 46.4286
6204.5 17.8571
6205.5 26.4286
6206.5 2.85714
6207.5 -8.28571
6208.5 -12.5714
6209.5 -15.2857
6210.5 6.57143
6211.5 -26.1429
6212.5 22
6213.5 -27.5714
6214.5 20.4286
6215.5 -0.714284
6216.5 -3.42857
6217.5 6.85714
6218.5 -8.28571
6219.5 10.7143
6220.5 6
6221.5 27.1429
6222.5 72.8571
6223.5 12.4286
6224.5 34.4286
6225.5 30.2857
6226.5 48.1429
6227.5 18.5714
6228.5 37.4286
6229.5 17.1429
6230.5 -5.42857
6231.5 20.8571
6232.5 -17.1429
6233.5 11.8571
6234.5 45
6235.5 -6.57143
6236.5 31.1429
6237.5 13.2857
6238.5 5.28572
6239.5 0.428573
6240.5 14.5714
6241.5 5.28572
6242.5 5.57143
6243.5 -8.14286
6244.5 -4.85714
6245.5 12
6246.5 12.8571
6247.5 5.85714
6248.5 -16.5714
6249.5 13.4286
6250.5 13.8571
6251.5 -12
6252.5 29.7143
6253.5 15.7143
6254.5 16.1429
6255.5 30.2857
6256.5 0.714287
6257.5 30.8571
6258.5 34
6259.5 36.8571
6260.5 4.28572
6261.5 3.14286
6262.5 -15
6263.5 6.71429
6264.5 11.2857
6265.5 -10.2857
6266.5 -15.1429
6267.5 10.2857
6268.5 -19.2857
6269.5 -13.7143
6270.5 13.1429
6271.5 3
6272.5 23.1429
6273.5 13.7143
6274.5 11
6275.5 -7
6276.5 2.57143
6277.5 14.7143
6278.5 6.28572
6279.5 26.2857
6280.5 17.7143
6281.5 -12.7143
6282.5 23.8571
6283.5 38.8571
6284.5 -23.8571
6285.5 3.14286
6286.5 -18.7143
6287.5 9.71429
6288.5 -3.85714
6289.5 16.1429
6290.5 16.8571
6291.5 13.8571
6292.5 17.2857
6293.5 13.4286
6294.5 14.7143
6295.5 15.2857
6296.5 20.4286
6297.5 -12.7143
6298.5 2.71429
6299.5 6.57143
6300.5 -17.4286
6301.5 -0.42857
6302.5 -9.14286
6303.5 0.285716
6304.5 3.71429
6305.5 -18.2857
6306.5 -14.4286
6307.5 -10.2857
6308.5 6.28572
6309.5 10.7143
6310.5 -0.142856
6311.5 -5.28571
6312.5 5.42857
6313.5 17.4286
6314.5 16.1429
6315.5 -2.57143
6316.5 19
6317.5 10.5714
6318.5 6.14286
6319.5 -9.57143
6320.5 10.8571
6321.5 7.28572
6322.5 -1.57143
6323.5 21.5714
6324.5 -2.85714
6325.5 36.2857
6326.5 10.1429
6327.5 8.71429
6328.5 49.1429
6329.5 -9.71428
6330.5 21.7143
6331.5 10.7143
6332.5 13
6333.5 -4.28571
6334.5 7.57143
6335.5 0.428573
6336.5 11.4286
6337.5 12.1429
6338.5 -7
6339.5 11.4286
6340.5 -8.71428
6341.5 12.8571
6342.5 17.5714
6343.5 -6
6344.5 -4.71428
6345.5 9.42857
6346.5 12.4286
6347.5 7.42857
6348.5 3.42857
6349.5 -9.85714
6350.5 21.7143
6351.5 13.2857
6352.5 18.2857
6353.5 28.1429
6354.5 14.7143
6355.5 -14.1429
6356.5 7.14286
6357.5 -22.4286
6358.5 20.2857
6359.5 22
6360.5 17.2857
6361.5 24.2857
6362.5 24.2857
6363.5 20.8571
6364.5 7.42857
6365.5 -25.2857
6366.5 -0.857142
6367.5 -1.42857
6368.5 -1.28571
6369.5 1.28572
6370.5 -4.28571
6371.5 12.1429
6372.5 9.42857
6373.5 17.4286
6374.5 -4
6375.5 -3.28571
6376.5 42.4286
6377.5 -13.4286
6378.5 3.42857
6379.5 -9.28571
6380.5 -6.42857
6381.5 -14.2857
6382.5 -19.2857
6383.5 -15.1429
6384.5 -10.1429
6385.5 -1.57143
6386.5 -7.71428
6387.5 17.8571
6388.5 -7.57143
6389.5 1.71429
6390.5 17.5714
6391.5 18.1429
6392.5 20.4286
6393.5 20.8571
6394.5 15.5714
6395.5 15.5714
6396.5 42.8571
6397.5 29.5714
6398.5 43.4286
6399.5 22.1429
6400.5 9.57143
6401.5 -8
6402.5 -1.28571
6403.5 14
6404.5 7.85714
6405.5 -14.1429
6406.5 37.5714
6407.5 -26.2857
6408.5 19.1429
6409.5 -13.8571
6410.5 9
6411.5 -0.571428
6412.5 12.8571
6413.5 4.42857
6414.5 -5.57143
6415.5 -4.28571
6416.5 2.85714
6417.5 10.7143
6418.5 -28.4286
6419.5 7.85715
6420.5 -10.8571
6421.5 -21.4286
6422.5 10
6423.5 41
6424.5 19
6425.5 36.1429
6426.5 8.14286
6427.5 4.28572
6428.5 -3.85714
6429.5 20.4286
6430.5 12.2857
6431.5 11.7143
6432.5 27.5714
6433.5 7.71429
6434.5 -9
6435.5 9
6436.5 -2.14286
6437.5 19.8571
6438.5 25.5714
6439.5 1.85714
6440.5 8.14286
6441.5 7.28572
6442.5 1.85714
6443.5 -0.857141
6444.5 26.7143
6445.5 -11.2857
6446.5 19.8571
6447.5 28.5714
6448.5 -4.85714
6449.5 -25.8571
6450.5 -7.28571
6451.5 2.14286
6452.5 20.8571
6453.5 -18.2857
6454.5 32
6455.5 3.14286
6456.5 29.1429
6457.5 -4.28571
6458.5 6.28572
6459.5 -3.28571
6460.5 -11.8571
6461.5 5
6462.5 6.71429
6463.5 -3
6464.5 7.85714
6465.5 -2.14286
6466.5 5.57143
6467.5 7.28572
6468.5 21.2857
6469.5 -1.57143
6470.5 21.4286
6471.5 17.5714
6472.5 16.2857
6473.5 -19.8571
6474.5 22.7143
6475.5 32.5714
6476.5 38
6477.5 10.4286
6478.5 44
6479.5 52.7143
6480.5 35.8571
6481.5 23.7143
6482.5 3.09944e-06
6483.5 -17.2857
6484.5 21
6485.5 9
6486.5 -0.857142
6487.5 10.1429
6488.5 2.28572
6489.5 11
6490.5 20.2857
6491.5 4.85714
6492.5 2
6493.5 11.5714
6494.5 8.14286
6495.5 14.7143
6496.5 13.4286
6497.5 1.28572
6498.5 2.14286
6499.5 49.7143
6500.5 -8.71428
6501.5 2.85714
6502.5 1.85714
6503.5 12.1429
6504.5 -13
6505.5 16.1429
6506.5 5.14286
6507.5 -18.5714
6508.5 26.1429
6509.5 23.4286
6510.5 11.1429
6511.5 4.71429
6512.5 14.4286
6513.5 19.7143
6514.5 22
6515.5 -3.42857
6516.5 11.1429
6517.5 -15.2857
6518.5 1.85714
6519.5 2.85714
6520.5 4.14286
6521.5 19.4286
6522.5 29.2857
6523.5 -10.5714
6524.5 0.142858
6525.5 -7.28571
6526.5 1
6527.5 9.42857
6528.5 3.85714
6529.5 15.7143
6530.5 19.1429
6531.5 6.28572
6532.5 8.85714
6533.5 1.71429
6534.5 7.85714
6535.5 5
6536.5 11.8571
6537.5 -5.85714
6538.5 12.7143
6539.5 -20.2857
6540.5 15.2857
6541.5 49.4286
6542.5 8.85715
6543.5 10.8571
6544.5 4.57144
6545.5 58.7143
6546.5 89.4286
6547.5 40.8571
6548.5 -28.2857
6549.5 -14.4286
6550.5 -21.1429
6551.5 6.85714
6552.5 21.1429
6553.5 4.14286
6554.5 6.57143
6555.5 18.1429
6556.5 9.14286
6557.5 8.57143
6558.5 -27
6559.5 13.2857
6560.5 13.1429
6561.5 1.71429
6562.5 -13.1429
6563.5 -8.71428
6564.5 5.42857
6565.5 55
6566.5 16.7143
6567.5 52.8571
6568.5 -0.857141
6569.5 22.1429
6570.5 26.2857
6571.5 -14.2857
6572.5 8.34465e-07
6573.5 2.85714
6574.5 2.85714
6575.5 3.42857
6576.5 9
6577.5 2.85714
6578.5 -9.57143
6579.5 23
6580.5 23.5714
6581.5 -7.57143
6582.5 16.4286
6583.5 6
6584.5 5.57143
6585.5 -1.85714
6586.5 9.71429
6587.5 6.85714
6588.5 0.428572
6589.5 6.14286
6590.5 18
6591.5 4.42857
6592.5 26.8571
6593.5 3.85714
6594.5 13.4286
6595.5 11.7143
6596.5 -22.8571
6597.5 3.28572
6598.5 -17.7143
6599.5 -2.57143
6600.5 7.85714
6601.5 -10.4286
6602.5 22.7143
6603.5 5.28572
6604.5 21.4286
6605.5 9
6606.5 6.42857
6607.5 3.42857
6608.5 11.4286
6609.5 22.1429
6610.5 -2.71428
6611.5 11.2857
6612.5 3.14286
6613.5 5.85714
6614.5 2.14286
6615.5 25.1429
6616.5 20.5714
6617.5 4.14286
6618.5 29.5714
6619.5 16.7143
6620.5 -1.57143
6621.5 1.42857
6622.5 -7.57143
6623.5 17.8571
6624.5 29.7143
6625.5 16.8571
6626.5 -2.71428
6627.5 15.2857
6628.5 -3.28571
6629.5 15.5714
6630.5 -3.57143
6631.5 -2.14286
6632.5 9.42857
6633.5 12.5714
6634.5 32.4286
6635.5 -2.28571
6636.5 -8.71428
6637.5 1.14286
6638.5 -3.42857
6639.5 2.42857
6640.5 10
6641.5 -14.2857
6642.5 36.1429
6643.5 -9.71428
6644.5 9.42857
6645.5 0.285715
6646.5 18.1429
6647.5 -17.7143
6648.5 16.7143
6649.5 -13.8571
6650.5 -8.57143
6651.5 28.2857
6652.5 21.1429
6653.5 -7.28571
6654.5 -10.7143
6655.5 10.2857
6656.5 6.28571
6657.5 -1.42857
6658.5 -8.28571
6659.5 3.28571
6660.5 -4.71429
6661.5 -0.285714
6662.5 -4
6663.5 9.42857
6664.5 2.42857
6665.5 5.85714
6666.5 5.14286
6667.5 25.5714
6668.5 22.8571
6669.5 3.14286
6670.5 15
6671.5 4.85714
6672.5 1.28571
6673.5 13.4286
6674.5 6.71429
6675.5 -10.8571
6676.5 -6
6677.5 3.14286
6678.5 11.7143
6679.5 9.71429
6680.5 4.28571
6681.5 10.8571
6682.5 -6.57143
6683.5 -12.4286
6684.5 -9.85714
6685.5 -13.8571
6686.5 9.85714
6687.5 -8.57143
6688.5 11.1429
6689.5 -5.42857
6690.5 -2.42857
6691.5 -34.4286
6692.5 2.28572
6693.5 -4.71428
6694.5 6.14286
6695.5 31.5714
6696.5 8
6697.5 20
6698.5 10.1429
6699.5 12.1429
6700.5 -13.2857
6701.5 9.14286
6702.5 31.5714
6703.5 6.71429
6704.5 25
6705.5 10.1429
6706.5 16.1429
6707.5 27.8571
6708.5 33.5714
6709.5 5.14286
6710.5 18.1429
6711.5 23
6712.5 22.1429
6713.5 -1.28571
6714.5 8.71429
6715.5 25
6716.5 -0.142856
6717.5 16.7143
6718.5 -14.8571
6719.5 -6.14286
6720.5 -11.5714
6721.5 -9.28571
6722.5 -6.71429
6723.5 -8.42857
6724.5 -0.428571
6725.5 10.5714
6726.5 -2
6727.5 -5.42857
6728.5 6
6729.5 3.57143
6730.5 9.42857
6731.5 -0.42857
6732.5 -26.2857
6733.5 13.7143
6734.5 4.14286
6735.5 -0.714285
6736.5 -11.2857
6737.5 -4.85714
6738.5 -8
6739.5 -26
6740.5 16.1429
6741.5 -9.42857
6742.5 -10.2857
6743.5 -11.5714
6744.5 4.71429
6745.5 -13.5714
6746.5 -5
6747.5 1
6748.5 23
6749.5 16.7143
6750.5 -3.28571
6751.5 27.1429
6752.5 16.8571
6753.5 9
6754.5 12.7143
6755.5 11.5714
6756.5 29.7143
6757.5 15.2857
6758.5 25.2857
6759.5 5.71429
6760.5 -5.14286
6761.5 -2.71428
6762.5 -10
6763.5 6
6764.5 3.14286
6765.5 29.5714
6766.5 0.285715
6767.5 -1.14286
6768.5 8.42857
6769.5 27.1429
6770.5 50.4286
6771.5 42.8571
6772.5 57.2857
6773.5 36
6774.5 8.42857
6775.5 -12.8571
6776.5 20.5714
6777.5 30.4286
6778.5 7.85714
6779.5 -1.42857
6780.5 -3.71429
6781.5 -13.5714
6782.5 -5.85714
6783.5 7.71429
6784.5 -1.28571
6785.5 2.85714
6786.5 2.42857
6787.5 -3.28571
6788.5 1
6789.5 5.85714
6790.5 -11.8571
6791.5 -17.7143
6792.5 -20
6793.5 15.4286
6794.5 9.85714
6795.5 4
6796.5 -4.14286
6797.5 9.14286
6798.5 14.2857
6799.5 -28.8571
6800.5 11.1429
6801.5 3.85714
6802.5 3.85714
6803.5 5.71429
6804.5 15
6805.5 28.4286
6806.5 -2.85714
6807.5 3.28572
6808.5 20
6809.5 8.14286
6810.5 15.5714
6811.5 -8.42857
6812.5 0.428572
6813.5 -11.5714
6814.5 -32.7143
6815.5 -18.1429
6816.5 -24.8571
6817.5 3.42857
6818.5 -17.1429
6819.5 0.571429
6820.5 -0.571428
6821.5 15.5714
6822.5 10.1429
6823.5 9
6824.5 10.4286
6825.5 -16.1429
6826.5 2.71429
6827.5 -4.85714
6828.5 21.8571
6829.5 -3.57143
6830.5 7.28571
6831.5 22.5714
6832.5 -14
6833.5 3
6834.5 -8.57143
6835.5 -13
6836.5 -5.85714
6837.5 -13.7143
6838.5 12.5714
6839.5 21.2857
6840.5 -3.14286
6841.5 -11.8571
6842.5 -9.57143
6843.5 18.1429
6844.5 29.8571
6845.5 2.28572
6846.5 9.14286
6847.5 11.8571
6848.5 1.57143
6849.5 5
6850.5 17.2857
6851.5 16.8571
6852.5 3.14286
6853.5 -21.2857
6854.5 -5.57143
6855.5 -6.28571
6856.5 3.71429
6857.5 -10
6858.5 6.42857
6859.5 10.5714
6860.5 13
6861.5 8.57143
6862.5 15
6863.5 7.85714
6864.5 -2.42857
6865.5 -9.42857
6866.5 2.57143
6867.5 -8.28571
6868.5 4.42857
6869.5 -6.71429
6870.5 6.85714
6871.5 -2.28571
6872.5 -7.28571
6873.5 -8
6874.5 1.85714
6875.5 0.428572
6876.5 2.14286
6877.5 -9
6878.5 5.71429
6879.5 -4.14286
6880.5 20
6881.5 5
6882.5 -11.1429
6883.5 19
6884.5 20.1429
6885.5 -4.42857
6886.5 13.8571
6887.5 -6.71429
6888.5 8.71429
6889.5 3.85714
6890.5 -6.57143
6891.5 12.8571
6892.5 11.7143
6893.5 7.14286
6894.5 -2.71429
6895.5 -2.42857
6896.5 -9.28571
6897.5 4
6898.5 -13.5714
6899.5 9.57143
6900.5 4.42857
6901.5 -13.5714
6902.5 20.2857
6903.5 -2.42857
6904.5 8.28572
6905.5 -8.42857
6906.5 4.57143
6907.5 23
6908.5 18.8571
6909.5 16.4286
6910.5 1.57143
6911.5 -4.14286
6912.5 7.85714
6913.5 4.71429
6914.5 -9.28571
6915.5 4.85714
6916.5 1.28571
6917.5 4.71429
6918.5 27.8571
6919.5 9.28571
6920.5 5
6921.5 -5.57143
6922.5 11.1429
6923.5 4
6924.5 -12.8571
6925.5 -3.71429
6926.5 11.2857
6927.5 4
6928.5 -13.7143
6929.5 6.42857
6930.5 -8
6931.5 -2.57143
6932.5 32.4286
6933.5 22.7143
6934.5 -1.85714
6935.5 29
6936.5 28.1429
6937.5 39.5714
6938.5 20.7143
6939.5 6.85714
6940.5 3.42857
6941.5 19.7143
6942.5 13.8571
6943.5 5.28572
6944.5 16.8571
6945.5 37.1429
6946.5 4.85714
6947.5 -14
6948.5 5.85714
6949.5 -5.28571
6950.5 -20.1429
6951.5 0.142858
6952.5 23
6953.5 -1.42857
6954.5 -5.85714
6955.5 6.85714
6956.5 -2
6957.5 -9.85714
6958.5 2.28571
6959.5 -0.999999
6960.5 3.85714
6961.5 9.71429
6962.5 -7.14286
6963.5 13.5714
6964.5 -20.2857
6965.5 -4.28571
6966.5 0.714286
6967.5 -3
6968.5 5.14286
6969.5 -5.57143
6970.5 7.42857
6971.5 -5.71429
6972.5 10.1429
6973.5 21.5714
6974.5 -0.714285
6975.5 15.7143
6976.5 7
6977.5 5.57143
6978.5 13.2857
6979.5 -8.14286
6980.5 12.1429
6981.5 6.42857
6982.5 21.5714
6983.5 29.2857
6984.5 8.71429
6985.5 12.5714
6986.5 -14.8571
6987.5 -6.71429
6988.5 -3.71429
6989.5 1
6990.5 -2
6991.5 3.71429
6992.5 22.1429
6993.5 20.5714
6994.5 -0.999999
6995.5 9.57143
6996.5 -11
6997.5 10.7143
6998.5 7.57143
6999.5 10.5714
7000.5 0.571429
7001.5 -5.28571
7002.5 17.4286
7003.5 -5.85714
7004.5 -5.42857
7005.5 7.42857
7006.5 11.5714
7007.5 -0.857142
7008.5 4.76837e-07
7009.5 -11
7010.5 0.714286
7011.5 4.42857
7012.5 4.42857
7013.5 9.85714
7014.5 15.8571
7015.5 -9.42857
7016.5 3.57143
7017.5 7.57143
7018.5 8.14286
7019.5 12.4286
7020.5 -8.14286
7021.5 4.42857
7022.5 6.57143
7023.5 7
7024.5 18.2857
7025.5 -4.85714
7026.5 -18.7143
7027.5 -5.14286
7028.5 5.14286
7029.5 -4
7030.5 2.28571
7031.5 5.57143
7032.5 12.4286
7033.5 6.14286
7034.5 2.57143
7035.5 15
7036.5 7.42857
7037.5 11
7038.5 3.14286
7039.5 31.5714
7040.5 13.1429
7041.5 -9.42857
7042.5 6.42857
7043.5 -0.428571
7044.5 -10.1429
7045.5 -20.5714
7046.5 8.57143
7047.5 3.42857
7048.5 7.28571
7049.5 -14.7143
7050.5 -3.42857
7051.5 -23
7052.5 5.85714
7053.5 -5
7054.5 10.1429
7055.5 -16
7056.5 -23.5714
7057.5 -11.8571
7058.5 14.2857
7059.5 22.2857
7060.5 19.8571
7061.5 -7.71428
7062.5 18.2857
7063.5 -2.28571
7064.5 0.142858
7065.5 5.42857
7066.5 17.4286
7067.5 7.71429
7068.5 0.857143
7069.5 -0.714285
7070.5 4.57143
7071.5 2.85714
7072.5 12.4286
7073.5 4.28571
7074.5 22.7143
7075.5 -16.8571
7076.5 13.8571
7077.5 5.85714
7078.5 -15.1429
7079.5 -3.57143
7080.5 21.2857
7081.5 11.2857
7082.5 -5.14286
7083.5 15.5714
7084.5 7.57143
7085.5 11.2857
7086.5 2.71429
7087.5 21.1429
7088.5 -7.85714
7089.5 7.42857
7090.5 -13.4286
7091.5 8.71429
7092.5 4.42857
7093.5 5.71429
7094.5 2.71429
7095.5 -3.14286
7096.5 -5.85714
7097.5 10
7098.5 -2.57143
7099.5 -6.14286
7100.5 -11.4286
7101.5 15.7143
7102.5 -1.28571
7103.5 5.85714
7104.5 -0.857142
7105.5 30.8571
7106.5 5.57143
7107.5 -1.85714
7108.5 12.1429
7109.5 1.42857
7110.5 3.42857
7111.5 5.71429
7112.5 -2.85714
7113.5 -5.14286
7114.5 14.7143
7115.5 5.57143
7116.5 15.8571
7117.5 24.5714
7118.5 -7
7119.5 19
7120.5 -7
7121.5 10.7143
7122.5 6.71429
7123.5 2.57143
7124.5 18.4286
7125.5 6
7126.5 -5.42857
7127.5 0.285715
7128.5 -4.28571
7129.5 10.7143
7130.5 9
7131.5 8
7132.5 11.2857
7133.5 14.2857
7134.5 -4.57143
7135.5 -6.85714
7136.5 -1.14286
7137.5 13.1429
7138.5 -4.57143
7139.5 -2
7140.5 1.28571
7141.5 18.5714
7142.5 12.2857
7143.5 -16.8571
7144.5 -11.8571
7145.5 -4.42857
7146.5 3.28571
7147.5 -18.8571
7148.5 -5
7149.5 -1.85714
7150.5 6.57143
7151.5 4.42857
7152.5 -0.285714
7153.5 3.14286
7154.5 -7.14286
7155.5 -16.4286
7156.5 -1.57143
7157.5 10.8571
7158.5 -3.14286
7159.5 5.14286
7160.5 -1.85714
7161.5 -24.1429
7162.5 -5.71429
7163.5 -0.285714
7164.5 8.14286
7165.5 9.57143
7166.5 14.2857
7167.5 -16.5714
7168.5 0.714286
7169.5 0.142858
7170.5 -4.14286
7171.5 -9.14286
7172.5 -6
7173.5 -1.57143
7174.5 6.14286
7175.5 -5
7176.5 12
7177.5 5
7178.5 -4.71429
7179.5 -2.14286
7180.5 6.57143
7181.5 1.57143
7182.5 6.71429
7183.5 3.14286
7184.5 5.28571
7185.5 -2.57143
7186.5 9
7187.5 10
7188.5 -1.85714
7189.5 -10.7143
7190.5 4.71429
7191.5 2.85714
7192.5 4.71429
7193.5 13.1429
7194.5 1.71429
7195.5 7.28571
7196.5 7
7197.5 6.85714
7198.5 4.42857
7199.5 15.7143
7200.5 11.7143
7201.5 -11.4286
7202.5 8.85714
7203.5 -10.5714
7204.5 2.14286
7205.5 -17.4286
7206.5 -6.85714
7207.5 5.85715
7208.5 17.2857
7209.5 42.8571
7210.5 26.5714
7211.5 12.7143
7212.5 5.14286
7213.5 -1.57143
7214.5 10.8571
7215.5 -4.57143
7216.5 -1.28571
7217.5 -1.14286
7218.5 -6.57143
7219.5 -2.57143
7220.5 -4.85714
7221.5 12.8571
7222.5 3.57143
7223.5 -4.85714
7224.5 9.71429
7225.5 -3.28571
7226.5 10.2857
7227.5 3.85714
7228.5 13.1429
7229.5 0.428572
7230.5 3.85714
7231.5 10
7232.5 -5
7233.5 2.14286
7234.5 21.5714
7235.5 5.57143
7236.5 -2.85714
7237.5 -6
7238.5 15.8571
7239.5 -17.2857
7240.5 0.285715
7241.5 6.57143
7242.5 8.57143
7243.5 14.7143
7244.5 -16
7245.5 7
7246.5 5.85714
7247.5 2.42857
7248.5 21.1429
7249.5 -0.571428
7250.5 -6
7251.5 2.57143
7252.5 -7.57143
7253.5 -8.57143
7254.5 -7.42857
7255.5 -0.714285
7256.5 9.85714
7257.5 -15.7143
7258.5 -27.5714
7259.5 25.5714
7260.5 37.8571
7261.5 -56.8571
7262.5 43
7263.5 15.7143
7264.5 -16.2857
7265.5 7.28572
7266.5 28.1429
7267.5 5.14286
7268.5 6.28571
7269.5 -1.71429
7270.5 21.8571
7271.5 2
7272.5 -15.5714
7273.5 10.8571
7274.5 -12.2857
7275.5 1.85714
7276.5 12.1429
7277.5 -0.714285
7278.5 -1.71429
7279.5 12.8571
7280.5 4.85714
7281.5 26.4286
7282.5 -9.57143
7283.5 -3.85714
7284.5 -12.4286
7285.5 2.28571
7286.5 8.71429
7287.5 0.142858
7288.5 -1.85714
7289.5 17
7290.5 -9.28571
7291.5 7.57143
7292.5 2
7293.5 15.5714
7294.5 9.14286
7295.5 -14.5714
7296.5 13.1429
7297.5 -8
7298.5 -2.71429
7299.5 -5.14286
7300.5 -4.71429
7301.5 4.85714
7302.5 -4.85714
7303.5 15.1429
7304.5 -0.571428
7305.5 -14.2857
7306.5 13
7307.5 11.5714
7308.5 -4.42857
7309.5 -28
7310.5 10.4286
7311.5 -1.28571
7312.5 2.42857
7313.5 8.71429
7314.5 8.85714
7315.5 -23.5714
7316.5 6.85714
7317.5 16.1429
7318.5 5.42857
7319.5 14
7320.5 -9.57143
7321.5 -7
7322.5 -3.14286
7323.5 15.8571
7324.5 7
7325.5 9
7326.5 6.85714
7327.5 3.57143
7328.5 21.1429
7329.5 7.42857
7330.5 8
7331.5 -6.28571
7332.5 18.7143
7333.5 -2.28571
7334.5 -11.1429
7335.5 2.42857
7336.5 7.57143
7337.5 11.5714
7338.5 -1.14286
7339.5 21
7340.5 7.71429
7341.5 4.42857
7342.5 -11.2857
7343.5 1.28571
7344.5 7.14286
7345.5 -3.28571
7346.5 11.1429
7347.5 4.76837e-07
7348.5 11.4286
7349.5 -26.5714
7350.5 1.14286
7351.5 2.57143
7352.5 22.2857
7353.5 -0.571427
7354.5 1.28572
7355.5 19.7143
7356.5 -3.42857
7357.5 13.4286
7358.5 -3.28571
7359.5 6
7360.5 1
7361.5 7.57143
7362.5 -18.4286
7363.5 0.285715
7364.5 -11.7143
7365.5 -14.8571
7366.5 4
7367.5 0.142858
7368.5 6.85714
7369.5 5.85714
7370.5 7.57143
7371.5 -4.14286
7372.5 -7.28571
7373.5 2.14286
7374.5 7.57143
7375.5 -7
7376.5 0.857143
7377.5 2.14286
7378.5 6.57143
7379.5 5.57143
7380.5 9
7381.5 -6.85714
7382.5 9.85714
7383.5 11.1429
7384.5 1.71429
7385.5 29.7143
7386.5 3.71429
7387.5 -1.57143
7388.5 10.2857
7389.5 0.571429
7390.5 3.57143
7391.5 4
7392.5 -7.85714
7393.5 3.42857
7394.5 -2.57143
7395.5 -5.57143
7396.5 10.5714
7397.5 -26
7398.5 13.8571
7399.5 28.5714
7400.5 6.57143
7401.5 3.28571
7402.5 -0.857142
7403.5 -0.571428
7404.5 5.14286
7405.5 3.28571
7406.5 6.85714
7407.5 -5.14286
7408.5 10.8571
7409.5 -9
7410.5 24.4286
7411.5 9.28572
7412.5 -6.42857
7413.5 -0.571427
7414.5 -6.71428
7415.5 -0.857141
7416.5 4.14286
7417.5 9.85715
7418.5 0.428574
7419.5 25.7143
7420.5 -2.14286
7421.5 -0.999999
7422.5 23.1429
7423.5 -13.2857
7424.5 10.8571
7425.5 -3
7426.5 16.8571
7427.5 5.57143
7428.5 -0.142857
7429.5 15.5714
7430.5 -3.57143
7431.5 0.714286
7432.5 0.571429
7433.5 5.14286
7434.5 3.57628e-07
7435.5 3.28571
7436.5 -4.57143
7437.5 0.142858
7438.5 -0.571428
7439.5 6.57143
7440.5 7.71429
7441.5 -0.714285
7442.5 5.14286
7443.5 4
7444.5 0.285715
7445.5 -2.85714
7446.5 -16.8571
7447.5 -5.28571
7448.5 1.42857
7449.5 17.1429
7450.5 35.4286
7451.5 16.5714
7452.5 33.7143
7453.5 24.7143
7454.5 47.8571
7455.5 38.4286
7456.5 22.7143
7457.5 19.2857
7458.5 19.1429
7459.5 2.85714
7460.5 -17.2857
7461.5 6
7462.5 0.714286
7463.5 7.42857
7464.5 -0.285714
7465.5 11.7143
7466.5 7.71429
7467.5 17.4286
7468.5 8.57143
7469.5 -6.28571
7470.5 9.42857
7471.5 3.57628e-07
7472.5 7.28571
7473.5 -3.57143
7474.5 3.85714
7475.5 -9.71429
7476.5 12.7143
7477.5 -12.8571
7478.5 5
7479.5 0.285715
7480.5 7.85714
7481.5 14
7482.5 -0.714285
7483.5 3.85714
7484.5 5
7485.5 -8
7486.5 4.85714
7487.5 2
7488.5 -6
7489.5 -2.57143
7490.5 -1.57143
7491.5 -5.28571
7492.5 8.85714
7493.5 1
7494.5 5.14286
7495.5 8.28571
7496.5 0.142857
7497.5 13.1429
7498.5 -4.28571
7499.5 2.14286
7500.5 3.42857
7501.5 7.85714
7502.5 0.857143
7503.5 -4.85714
7504.5 8.14286
7505.5 -4.14286
7506.5 -2
7507.5 8.42857
7508.5 0.857143
7509.5 -5.85714
7510.5 4.42857
7511.5 6
7512.5 3
7513.5 7.28571
7514.5 7.85714
7515.5 9.57143
7516.5 0.714286
7517.5 4.28571
7518.5 1.28571
7519.5 -2.85714
7520.5 0.142858
7521.5 8.71429
7522.5 -4.28571
7523.5 -3.14286
7524.5 4.42857
7525.5 13.4286
7526.5 -6.85714
7527.5 1.28571
7528.5 4.14286
7529.5 -4.57143
7530.5 9.28571
7531.5 5.42857
7532.5 8.42857
7533.5 -11.2857
7534.5 4.14286
7535.5 0.142857
7536.5 4.14286
7537.5 13.4286
7538.5 3.85714
7539.5 -1
7540.5 1.14286
7541.5 -4
7542.5 6.57143
7543.5 -6.28571
7544.5 -2
7545.5 -11.4286
7546.5 -8.28571
7547.5 -3
7548.5 4.14286
7549.5 9.57143
7550.5 6.85714
7551.5 -5
7552.5 -1.57143
7553.5 1.57143
7554.5 1.85714
7555.5 27.2857
7556.5 13
7557.5 -4.71429
7558.5 1.42857
7559.5 22.2857
7560.5 -0.285714
7561.5 17.7143
7562.5 7.42857
7563.5 -2
7564.5 1.28571
7565.5 17.5714
7566.5 12.4286
7567.5 4.57143
7568.5 -4.14286
7569.5 7.85714
7570.5 8.14286
7571.5 12.4286
7572.5 13.2857
7573.5 6.42857
7574.5 -13.1429
7575.5 13.7143
7576.5 18.8571
7577.5 10.7143
7578.5 3.57143
7579.5 -2.14286
7580.5 17.1429
7581.5 14.8571
7582.5 -1.85714
7583.5 9.85714
7584.5 3.14286
7585.5 5.71429
7586.5 16.8571
7587.5 7.42857
7588.5 5.57143
7589.5 -8.14286
7590.5 -3.14286
7591.5 -7.28571
7592.5 -7.14286
7593.5 -14
7594.5 9.85714
7595.5 9.14286
7596.5 6.71429
7597.5 9.28571
7598.5 9
7599.5 -4.85714
7600.5 -9
7601.5 -4.57143
7602.5 -7.14286
7603.5 13.2857
7604.5 9.57143
7605.5 0.714286
7606.5 3.85714
7607.5 -3
7608.5 11.2857
7609.5 3.14286
7610.5 -7.28571
7611.5 3.71429
7612.5 -4
7613.5 -0.571428
7614.5 5.85714
7615.5 5.57143
7616.5 0.857143
7617.5 9.42857
7618.5 4.85714
7619.5 -2.42857
7620.5 6.71429
7621.5 -17.8571
7622.5 -8.57143
7623.5 9.85714
7624.5 9.71429
7625.5 -7.57143
7626.5 -10
7627.5 -4.71429
7628.5 23.7143
7629.5 3.14286
7630.5 7.42857
7631.5 8.71429
7632.5 -15.8571
7633.5 8.28571
7634.5 -6.85714
7635.5 -3.71429
7636.5 -1.57143
7637.5 8.28571
7638.5 7.42857
7639.5 -4.28571
7640.5 0.857143
7641.5 2.85714
7642.5 -1
7643.5 0.428572
7644.5 -6.28571
7645.5 4
7646.5 12.2857
7647.5 -4.57143
7648.5 -14.5714
7649.5 2.38419e-07
7650.5 -5.57143
7651.5 6.42857
7652.5 -16.5714
7653.5 -4.28571
7654.5 12.5714
7655.5 -4.28571
7656.5 -0.857143
7657.5 9.57143
7658.5 12.1429
7659.5 -0.142857
7660.5 -6.28571
7661.5 3.57143
7662.5 -7.57143
7663.5 15.2857
7664.5 4.14286
7665.5 3.57143
7666.5 0.428572
7667.5 9.14286
7668.5 4.85714
7669.5 -16.2857
7670.5 -2.85714
7671.5 -2.28571
7672.5 -4.42857
7673.5 0.285715
7674.5 5.42857
7675.5 -9.14286
7676.5 -0.571428
7677.5 11
7678.5 -6.42857
7679.5 8
7680.5 2.28571
7681.5 8.14286
7682.5 0.142857
7683.5 2.28571
7684.5 8.28571
7685.5 -0.428571
7686.5 -13.1429
7687.5 4
7688.5 -7.85714
7689.5 8.85714
7690.5 -11.8571
7691.5 5.71429
7692.5 -4.14286
7693.5 12.2857
7694.5 -2.14286
7695.5 0.428572
7696.5 -5.71429
7697.5 6.14286
7698.5 7.42857
7699.5 11.2857
7700.5 12.1429
7701.5 -7.28571
7702.5 -2.14286
7703.5 -4.71429
7704.5 4.85714
7705.5 -6.71429
7706.5 0.142857
7707.5 3.85714
7708.5 -1.57143
7709.5 -3.28571
7710.5 -0.571428
7711.5 -10.4286
7712.5 1.28571
7713.5 2.14286
7714.5 -7
7715.5 0.571429
7716.5 0.142857
7717.5 8.14286
7718.5 5.85714
7719.5 10.8571
7720.5 -4.57143
7721.5 -0.857143
7722.5 2.85714
7723.5 -13
7724.5 0.285715
7725.5 9.85714
7726.5 2.85714
7727.5 5.57143
7728.5 -4.85714
7729.5 10
7730.5 -9.28571
7731.5 10.8571
7732.5 -4.42857
7733.5 4.42857
7734.5 2.71429
7735.5 -8.28571
7736.5 -6
7737.5 -5.14286
7738.5 -1.85714
7739.5 12.7143
7740.5 -6.14286
7741.5 4.85714
7742.5 -8.28571
7743.5 2.14286
7744.5 1.85714
7745.5 12.2857
7746.5 -6.71429
7747.5 7.71429
7748.5 4.85714
7749.5 5
7750.5 -9.42857
7751.5 3.42857
7752.5 4.42857
7753.5 -0.142857
7754.5 -1.71429
7755.5 6.28571
7756.5 0.285715
7757.5 -8.14286
7758.5 4.71429
7759.5 6.85714
7760.5 2
7761.5 -6.85714
7762.5 10.5714
7763.5 3.28571
7764.5 -1.42857
7765.5 -13.2857
7766.5 21.8571
7767.5 7.28572
7768.5 7.57143
7769.5 40.5714
7770.5 23.8571
7771.5 30.7143
7772.5 36.1429
7773.5 58
7774.5 44.8571
7775.5 -6.57142
7776.5 8.71429
7777.5 12
7778.5 17.7143
7779.5 10.5714
7780.5 3.57143
7781.5 1.71429
7782.5 8.57143
7783.5 7.85714
7784.5 -9
7785.5 4.42857
7786.5 -0.428571
7787.5 -5
7788.5 3.14286
7789.5 -0.428571
7790.5 8.14286
7791.5 -2
7792.5 -0.571428
7793.5 -3.57143
7794.5 -9.28571
7795.5 -4.42857
7796.5 3.71429
7797.5 -3.85714
7798.5 4.57143
7799.5 -5.71429
7800.5 3.57143
7801.5 -3.28571
7802.5 3.57143
7803.5 -4.14286
7804.5 -8.57143
7805.5 -4.28571
7806.5 6.57143
7807.5 -1.57143
7808.5 -1
7809.5 6
7810.5 -3.14286
7811.5 -10.5714
7812.5 5.14286
7813.5 1
7814.5 1.14286
7815.5 4.28571
7816.5 1.57143
7817.5 5.71429
7818.5 3
7819.5 10.7143
7820.5 -4.57143
7821.5 -3.71429
7822.5 -3.57143
7823.5 7.71429
7824.5 22.4286
7825.5 -6.57143
7826.5 -11.2857
7827.5 -18.5714
7828.5 0.142858
7829.5 11.5714
7830.5 17.1429
7831.5 26
7832.5 7.28571
7833.5 7.71429
7834.5 -5.57143
7835.5 -8.71429
7836.5 -3.85714
7837.5 4
7838.5 5.28571
7839.5 -2.85714
7840.5 1.14286
7841.5 -7.85714
7842.5 7.85714
7843.5 6
7844.5 -5.57143
7845.5 -3.57143
7846.5 -3.57143
7847.5 2.85714
7848.5 4.57143
7849.5 3
7850.5 3.57143
7851.5 1.42857
7852.5 0.285714
7853.5 3.28571
7854.5 11.4286
7855.5 9.28571
7856.5 -2.85714
7857.5 3.28571
7858.5 0.142857
7859.5 1.85714
7860.5 -2.28571
7861.5 7.14286
7862.5 -1.28571
7863.5 4.57143
7864.5 4.28571
7865.5 -9.42857
7866.5 3.57143
7867.5 0.285714
7868.5 4.14286
7869.5 2.57143
7870.5 -1
7871.5 -1
7872.5 10.1429
7873.5 0.714286
7874.5 -2
7875.5 2.57143
7876.5 1.19209e-07
7877.5 -4.71429
7878.5 -2.57143
7879.5 1.28571
7880.5 -4.85714
7881.5 -6.28571
7882.5 1.28571
7883.5 5
7884.5 8.57143
7885.5 -7.14286
7886.5 -9.42857
7887.5 5.28571
7888.5 0.571429
7889.5 0.857143
7890.5 -7.42857
7891.5 5.57143
7892.5 -7.14286
7893.5 -1.71429
7894.5 -1.14286
7895.5 0.285714
7896.5 -3.28571
7897.5 -4.28571
7898.5 -1.28571
7899.5 1
7900.5 0.571429
7901.5 -4.85714
7902.5 -3.57143
7903.5 7.42857
7904.5 1.57143
7905.5 6.85714
7906.5 2
7907.5 -2.57143
7908.5 -1.71429
7909.5 3.71429
7910.5 -0.714286
7911.5 -3.57143
7912.5 -0.285714
7913.5 2.57143
7914.5 5.71429
7915.5 2.28571
7916.5 -9.42857
7917.5 -2
7918.5 6.14286
7919.5 4.28571
7920.5 5.57143
7921.5 -5
7922.5 2.28571
7923.5 -2.71429
7924.5 -0.428571
7925.5 4.57143
7926.5 5.14286
7927.5 1.71429
7928.5 -4.57143
7929.5 5.14286
7930.5 1.85714
7931.5 -0.428571
7932.5 0.285714
7933.5 9.57143
7934.5 1.14286
7935.5 7.85714
7936.5 9
7937.5 10.1429
7938.5 -0.428571
7939.5 -4.28571
7940.5 3.28571
7941.5 -9.85714
7942.5 -3.42857
7943.5 4
7944.5 -2
7945.5 5.14286
7946.5 -1
7947.5 7.42857
7948.5 -2.42857
7949.5 -3.71429
7950.5 6.42857
7951.5 4.14286
7952.5 -2
7953.5 0.428572
7954.5 0.714286
7955.5 -3
7956.5 4.57143
7957.5 -3.57143
7958.5 -4.42857
7959.5 -0.571428
7960.5 3.71429
7961.5 1.85714
7962.5 -0.142857
7963.5 1.42857
7964.5 -1.28571
7965.5 -4.14286
7966.5 -2.71429
7967.5 -2.85714
7968.5 1.28571
7969.5 -4.28571
7970.5 9.42857
7971.5 -8.71429
7972.5 0.571429
7973.5 -1.71429
7974.5 -5
7975.5 0.714286
7976.5 3.28571
7977.5 -0.857143
7978.5 2.85714
7979.5 -4
7980.5 3.57143
7981.5 -7.71429
7982.5 2.28571
7983.5 -2.57143
7984.5 1.28571
7985.5 -6.57143
7986.5 -1.28571
7987.5 -6.42857
7988.5 -3
7989.5 4.57143
7990.5 -0.714286
7991.5 1.57143
7992.5 1.85714
7993.5 -6.14286
7994.5 2.57143
7995.5 6.85714
7996.5 -0.857143
7997.5 -1.42857
7998.5 0.714286
7999.5 3.42857
8000.5 0.428571
8001.5 -2
8002.5 0.571429
8003.5 2
8004.5 3.57143
8005.5 -4.28571
8006.5 -4
8007.5 0.285714
8008.5 3.85714
8009.5 6.14286
8010.5 -2
8011.5 -0.857143
8012.5 5.42857
8013.5 4.42857
8014.5 -1.57143
8015.5 -2.42857
8016.5 -4.28571
8017.5 3.14286
8018.5 1.42857
8019.5 -8.85714
8020.5 3.14286
8021.5 -0.714286
8022.5 1.85714
8023.5 0.428571
8024.5 -2.71429
8025.5 -3
8026.5 -0.571429
8027.5 -1.28571
8028.5 -0.714286
8029.5 0.571429
8030.5 1.14286
8031.5 1.28571
8032.5 -5.14286
8033.5 3.28571
8034.5 7.42857
8035.5 -0.142857
8036.5 1.14286
8037.5 3.85714
8038.5 -3.85714
8039.5 2.85714
8040.5 0.714286
8041.5 1.71429
8042.5 5.14286
8043.5 4.42857
8044.5 5.85714
8045.5 4.71429
8046.5 -2.42857
8047.5 -1.42857
8048.5 -6.14286
8049.5 -1
8050.5 -2
8051.5 -1.71429
8052.5 -3.42857
8053.5 -7
8054.5 -2
8055.5 -1.14286
8056.5 -2
8057.5 -5
8058.5 8.71429
8059.5 2.28571
8060.5 4.85714
8061.5 -2.42857
8062.5 4.14286
8063.5 5.42857
8064.5 -0.857143
8065.5 5.85714
8066.5 2.14286
8067.5 -2.28571
8068.5 -1.71429
8069.5 -1
8070.5 6.57143
8071.5 5.42857
8072.5 -2.57143
8073.5 3.28571
8074.5 5.85714
8075.5 8.57143
8076.5 3.14286
8077.5 -1.85714
8078.5 -4.85714
8079.5 3.57143
8080.5 2
8081.5 10.8571
8082.5 24.5714
8083.5 4.42857
8084.5 7.85714
8085.5 20.7143
8086.5 2.14286
8087.5 30.4286
8088.5 8
8089.5 2.57143
8090.5 -2
8091.5 1
8092.5 6.57143
8093.5 -3.42857
8094.5 -1.85714
8095.5 1.71429
8096.5 -0.428571
8097.5 1.14286
8098.5 4.71429
8099.5 3.14286
8100.5 1.14286
8101.5 3.85714
8102.5 -5.42857
8103.5 5.57143
8104.5 -1.14286
8105.5 -0.428571
8106.5 -1
8107.5 -3.28571
8108.5 -4
8109.5 4.42857
8110.5 -11.8571
8111.5 -0.857143
8112.5 -4
8113.5 1.57143
8114.5 -3.28571
8115.5 -0.714286
8116.5 -3.28571
8117.5 -3.42857
8118.5 4.85714
8119.5 3.14286
8120.5 3.14286
8121.5 3.42857
8122.5 5.85714
8123.5 -3.71429
8124.5 -1.42857
8125.5 -0.142857
8126.5 4.14286
8127.5 -1.14286
8128.5 -6.42857
8129.5 9.42857
8130.5 -2.42857
8131.5 -6.57143
8132.5 0.428571
8133.5 0.142857
8134.5 -3.14286
8135.5 6.71429
8136.5 2.14286
8137.5 -4.71429
8138.5 -1.42857
8139.5 -0.428571
8140.5 1.85714
8141.5 0.285714
8142.5 -3.28571
8143.5 -1.71429
8144.5 -1.71429
8145.5 -4
8146.5 3.42857
8147.5 -0.142857
8148.5 -0.142857
8149.5 2.57143
8150.5 -1.14286
8151.5 -5.71429
8152.5 -1.71429
8153.5 -8.85714
8154.5 1
8155.5 -2.42857
8156.5 3.42857
8157.5 -3.42857
8158.5 -4.14286
8159.5 1.85714
8160.5 2.14286
8161.5 0.571429
8162.5 5.14286
8163.5 1.85714
8164.5 1.28571
8165.5 1.14286
8166.5 0.857143
8167.5 3.14286
8168.5 6.14286
8169.5 3.71429
8170.5 1.85714
8171.5 -2.71429
8172.5 -1.14286
8173.5 5.42857
8174.5 1.71429
8175.5 3.71429
8176.5 4.42857
8177.5 1.42857
8178.5 3.42857
8179.5 1.14286
8180.5 -0.428571
8181.5 -4
8182.5 4.85714
8183.5 -0.142857
8184.5 -8.85714
8185.5 -1.85714
8186.5 -0.857143
8187.5 -0.714286
8188.5 -4.71429
8189.5 -2.28571
8190.5 1.14286
8191.5 4
8192.5 4.85714
8193.5 2.42857
8194.5 1.42857
8195.5 3.14286
8196.5 -3.71429
8197.5 -2.42857
8198.5 3.85714
8199.5 1.42857
8200.5 -7
8201.5 4.42857
8202.5 -1.14286
8203.5 2.71429
8204.5 -1.42857
8205.5 -4.71429
8206.5 -1.42857
8207.5 -6
8208.5 0.142857
8209.5 -3.42857
8210.5 3.57143
8211.5 2.14286
8212.5 6.85714
8213.5 -2.42857
8214.5 -2.42857
8215.5 -3.14286
8216.5 -4.71429
8217.5 -6.57143
8218.5 -2.57143
8219.5 3.14286
8220.5 1.85714
8221.5 9.42857
8222.5 -3.57143
8223.5 -0.428571
8224.5 3.42857
8225.5 2.42857
8226.5 3.14286
8227.5 -3.71429
8228.5 4.85714
8229.5 0.714286
8230.5 5.14286
8231.5 -1.71429
8232.5 -2.42857
8233.5 -1.71429
8234.5 -1.71429
8235.5 -1.28571
8236.5 -0.428571
8237.5 1.71429
8238.5 1.42857
8239.5 -0.857143
8240.5 -5.14286
8241.5 -0.142857
8242.5 3.71429
8243.5 2.42857
8244.5 1
8245.5 -1
8246.5 -4.42857
8247.5 0.571429
8248.5 -2.14286
8249.5 2.42857
8250.5 -3.71429
8251.5 -9.57143
8252.5 -4.28571
8253.5 -2.14286
8254.5 1.71429
8255.5 2.14286
8256.5 0.285714
8257.5 -2.14286
8258.5 4.42857
8259.5 -1.14286
8260.5 1.71429
8261.5 1.85714
8262.5 -0.857143
8263.5 -2.71429
8264.5 -6.85714
8265.5 -1.42857
8266.5 -2.14286
8267.5 -1.14286
8268.5 -3.14286
8269.5 0.428571
8270.5 -0.142857
8271.5 0.285714
8272.5 -1.14286
8273.5 -0.857143
8274.5 -2.14286
8275.5 1.42857
8276.5 -0.285714
8277.5 3.57143
8278.5 0.142857
8279.5 2.42857
8280.5 3.85714
8281.5 -0.428571
8282.5 2.42857
8283.5 2.42857
8284.5 3.71429
8285.5 -6
8286.5 -3.42857
8287.5 3.71429
8288.5 -3.14286
8289.5 -1.85714
8290.5 1.42857
8291.5 -2.85714
8292.5 0.142857
8293.5 -2.42857
8294.5 -2.14286
8295.5 0.571429
8296.5 0.142857
8297.5 6.14286
8298.5 -2.14286
8299.5 0.142857
8300.5 6.71429
8301.5 5.71429
8302.5 2.71429
8303.5 -1.85714
8304.5 -4.71429
8305.5 2.14286
8306.5 -3.14286
8307.5 -5
8308.5 1.42857
8309.5 -2.71429
8310.5 0.428571
8311.5 7
8312.5 0.571429
8313.5 8.42857
8314.5 -0.857143
8315.5 3.42857
8316.5 -2.42857
8317.5 -2.42857
8318.5 2.14286
8319.5 1.42857
8320.5 2.14286
8321.5 -2.71429
8322.5 -1.14286
8323.5 -0.571429
8324.5 0.571429
8325.5 1.85714
8326.5 -1.42857
8327.5 -1.85714
8328.5 4
8329.5 3.71429
8330.5 7.71429
8331.5 4.42857
8332.5 7.57143
8333.5 2.85714
8334.5 3.57143
8335.5 1.57143
8336.5 2
8337.5 2.71429
8338.5 0.857143
8339.5 3.57143
8340.5 6.71429
8341.5 0.285714
8342.5 1.42857
8343.5 -6
8344.5 -1.71429
8345.5 0.857143
8346.5 -6
8347.5 1.42857
8348.5 0.142857
8349.5 -0.571429
8350.5 -1.42857
8351.5 2.14286
8352.5 0.571429
8353.5 0.142857
8354.5 -0.571429
8355.5 -1.85714
8356.5 -1.14286
8357.5 -3.71429
8358.5 -3.42857
8359.5 4.14286
8360.5 -1.42857
8361.5 4.42857
8362.5 -5.71429
8363.5 -2.14286
8364.5 2.14286
8365.5 2.71429
8366.5 2.42857
8367.5 -1.85714
8368.5 -3.71429
8369.5 -2.42857
8370.5 -0.142857
8371.5 -1.14286
8372.5 -0.285714
8373.5 -3.42857
8374.5 -2.85714
8375.5 -1.42857
8376.5 2.42857
8377.5 0.142857
8378.5 3
8379.5 -0.571429
8380.5 1.14286
8381.5 1.42857
8382.5 -1.14286
8383.5 -3.71429
8384.5 -0.571429
8385.5 0.571429
8386.5 -5.42857
8387.5 -0.142857
8388.5 2.71429
8389.5 0.571429
8390.5 -0.571429
8391.5 2.14286
8392.5 -1.14286
8393.5 -0.857143
8394.5 2.71429
8395.5 1.14286
8396.5 -0.142857
8397.5 -4.42857
8398.5 -2.42857
8399.5 1.57143
8400.5 0.857143
8401.5 4.14286
8402.5 0.142857
8403.5 -0.142857
8404.5 0.857143
8405.5 0.857143
8406.5 -3.71429
8407.5 0.142857
8408.5 -2.42857
8409.5 -0.285714
8410.5 -0.285714
8411.5 -3.14286
8412.5 -3.14286
8413.5 3.42857
8414.5 3.42857
8415.5 -6.42857
8416.5 -0.857143
8417.5 -3.57143
8418.5 0.142857
8419.5 -1.57143
8420.5 2.14286
8421.5 -1.42857
8422.5 -3.42857
8423.5 -3.14286
8424.5 2.14286
8425.5 3.57143
8426.5 -2.85714
8427.5 1.42857
8428.5 2.71429
8429.5 -1.14286
8430.5 -0.857143
8431.5 1.14286
8432.5 2.71429
8433.5 -1.85714
8434.5 2.42857
8435.5 -3.14286
8436.5 3.71429
8437.5 -2.14286
8438.5 6.71429
8439.5 -0.714286
8440.5 -2.71429
8441.5 -0.285714
8442.5 2.14286
8443.5 -0.857143
8444.5 4.42857
8445.5 2.42857
8446.5 -1.14286
8447.5 -4.14286
8448.5 4.42857
8449.5 2.42857
8450.5 -5
8451.5 3.71429
8452.5 -2.14286
8453.5 -2.14286
8454.5 -4.71429
8455.5 0.714286
8456.5 2.71429
8457.5 0.714286
8458.5 0.142857
8459.5 -0.857143
8460.5 -2.14286
8461.5 2.42857
8462.5 0.714286
8463.5 -0.571429
8464.5 2.42857
8465.5 3.14286
8466.5 1.42857
8467.5 0.428571
8468.5 3.85714
8469.5 -3.57143
8470.5 1
8471.5 -1
8472.5 3.42857
8473.5 8.71429
8474.5 0.857143
8475.5 6.57143
8476.5 -3
8477.5 -2.28571
8478.5 -4
8479.5 0.857143
8480.5 -2.71429
8481.5 1.85714
8482.5 -4.42857
8483.5 0.714286
8484.5 -3.71429
8485.5 1.14286
8486.5 -4.71429
8487.5 5.71429
8488.5 0.142857
8489.5 5.42857
8490.5 2.14286
8491.5 -6.42857
8492.5 1.14286
8493.5 0.428571
8494.5 -6.28571
8495.5 -0.857143
8496.5 -1.85714
8497.5 -4.28571
8498.5 -1.14286
8499.5 -3.42857
8500.5 -1.14286
8501.5 -0.142857
8502.5 -2.57143
8503.5 -7.28571
8504.5 3.14286
8505.5 3.71429
8506.5 4.71429
8507.5 -0.571429
8508.5 -8
8509.5 -4.71429
8510.5 -1.14286
8511.5 -0.857143
8512.5 1.71429
8513.5 4
8514.5 -1.42857
8515.5 1
8516.5 -1.42857
8517.5 -1.85714
8518.5 3.14286
8519.5 1.42857
8520.5 -0.857143
8521.5 2.71429
8522.5 -2.14286
8523.5 1.42857
8524.5 -2.14286
8525.5 0.857143
8526.5 0.571429
8527.5 4
8528.5 0.428571
8529.5 1.42857
8530.5 0.857143
8531.5 0.428571
8532.5 1.14286
8533.5 1.71429
8534.5 2.42857
8535.5 1.42857
8536.5 1.42857
8537.5 4
8538.5 0.142857
8539.5 0.571429
8540.5 -0.571429
8541.5 -5.71429
8542.5 0.142857
8543.5 5.71429
8544.5 0.428571
8545.5 1.85714
8546.5 -1.28571
8547.5 -1.85714
8548.5 -4.42857
8549.5 0.428571
8550.5 0.142857
8551.5 5.71429
8552.5 -0.285714
8553.5 1.42857
8554.5 -0.571429
8555.5 -2.85714
8556.5 -1.42857
8557.5 -0.428571
8558.5 0.142857
8559.5 3
8560.5 -0.571429
8561.5 -2.14286
8562.5 -5
8563.5 3.71429
8564.5 3.14286
8565.5 -2.14286
8566.5 -0.857143
8567.5 -3.14286
8568.5 0.142857
8569.5 6
8570.5 1.71429
8571.5 -8.28571
8572.5 0.857143
8573.5 -5.28571
8574.5 -1.14286
8575.5 0.142857
8576.5 1.14286
8577.5 2
8578.5 -0.142857
8579.5 1.14286
8580.5 2.42857
8581.5 2.71429
8582.5 -3.42857
8583.5 -2.42857
8584.5 5.42857
8585.5 2.71429
8586.5 2.14286
8587.5 -0.857143
8588.5 -1.42857
8589.5 2.14286
8590.5 -0.571429
8591.5 -0.142857
8592.5 0.714286
8593.5 2.57143
8594.5 4.71429
8595.5 -0.857143
8596.5 -2.42857
8597.5 -3.42857
8598.5 -1.57143
8599.5 0.428571
8600.5 2.42857
8601.5 2
8602.5 -2.71429
8603.5 -4.42857
8604.5 0.428571
8605.5 4.71429
8606.5 2.42857
8607.5 4
8608.5 -1.85714
8609.5 0.428571
8610.5 -1.57143
8611.5 -5.14286
8612.5 3.14286
8613.5 5
8614.5 -1.57143
8615.5 -0.142857
8616.5 2.42857
8617.5 2.42857
8618.5 -2.85714
8619.5 -0.571429
8620.5 -1.14286
8621.5 -1.57143
8622.5 -1.57143
8623.5 1.71429
8624.5 5.71429
8625.5 -7
8626.5 1.71429
8627.5 -4.42857
8628.5 3.71429
8629.5 0.142857
8630.5 2
8631.5 1.14286
8632.5 2.71429
8633.5 -1.85714
8634.5 1.42857
8635.5 -0.857143
8636.5 0.142857
8637.5 -1.57143
8638.5 -0.571429
8639.5 0.714286
8640.5 -0.285714
8641.5 0.428571
8642.5 0.142857
8643.5 0.428571
8644.5 -2.14286
8645.5 -1.57143
8646.5 0
8647.5 2.14286
8648.5 1.71429
8649.5 -3.14286
8650.5 1
8651.5 -3.42857
8652.5 0.571429
8653.5 0.428571
8654.5 0.714286
8655.5 1.71429
8656.5 5.71429
8657.5 1.85714
8658.5 -0.857143
8659.5 -4.14286
8660.5 -3.42857
8661.5 0.428571
8662.5 6
8663.5 -2.14286
8664.5 -0.571429
8665.5 0.428571
8666.5 2.14286
8667.5 -3.14286
8668.5 -3.42857
8669.5 1.71429
8670.5 -1.85714
8671.5 -4.14286
8672.5 -2.14286
8673.5 -5.28571
8674.5 2.71429
8675.5 -3.14286
8676.5 -0.857143
8677.5 0.142857
8678.5 3.71429
8679.5 -1.85714
8680.5 -0.571429
8681.5 -1.14286
8682.5 2
8683.5 -2.42857
8684.5 -1.57143
8685.5 2
8686.5 -1.42857
8687.5 6.71429
8688.5 -0.571429
8689.5 0.428571
8690.5 2.71429
8691.5 -0.571429
8692.5 0.714286
8693.5 -4.42857
8694.5 -1.57143
8695.5 4
8696.5 -5.71429
8697.5 0.714286
8698.5 4.71429
8699.5 2.42857
8700.5 -1.14286
8701.5 2
8702.5 0.714286
8703.5 -1.14286
8704.5 -2.42857
8705.5 -6
8706.5 -0.571429
8707.5 -0.285714
8708.5 1.71429
8709.5 0.428571
8710.5 3
8711.5 -2.14286
8712.5 2.42857
8713.5 -1.85714
8714.5 0.714286
8715.5 -0.857143
8716.5 1.71429
8717.5 -1.57143
8718.5 -0.857143
8719.5 1
8720.5 -2.14286
8721.5 0.714286
8722.5 -0.142857
8723.5 -0.285714
8724.5 0.714286
8725.5 3.42857
8726.5 1.71429
8727.5 0.428571
8728.5 -2.14286
8729.5 -2.85714
8730.5 -0.142857
8731.5 6.42857
8732.5 0.142857
8733.5 1.42857
8734.5 -1.42857
8735.5 2
8736.5 -4.14286
8737.5 -1.57143
8738.5 1.42857
8739.5 1.42857
8740.5 1.71429
8741.5 3.71429
8742.5 3.71429
8743.5 0.142857
8744.5 2.42857
8745.5 -3.85714
8746.5 0.428571
8747.5 1.71429
8748.5 3
8749.5 0.714286
8750.5 -0.571429
8751.5 3.14286
8752.5 2
8753.5 2
8754.5 1.71429
8755.5 -0.857143
8756.5 2
8757.5 0.428571
8758.5 1.71429
8759.5 -2.85714
8760.5 1.71429
8761.5 -2.57143
8762.5 3.14286
8763.5 0.428571
8764.5 0
8765.5 0.428571
8766.5 -0.571429
8767.5 4
8768.5 0.142857
8769.5 -1.28571
8770.5 2
8771.5 -0.285714
8772.5 0.714286
8773.5 -0.285714
8774.5 -0.857143
8775.5 5.71429
8776.5 -0.285714
8777.5 -0.571429
8778.5 2.71429
8779.5 -0.285714
8780.5 3
8781.5 2
8782.5 -0.285714
8783.5 2
8784.5 0.428571
8785.5 1.71429
8786.5 -1.57143
8787.5 2.71429
8788.5 2
8789.5 2
8790.5 -0.285714
8791.5 -1.85714
8792.5 6
8793.5 -4.14286
8794.5 -0.571429
8795.5 -0.857143
8796.5 -2.57143
8797.5 -0.285714
8798.5 -3.85714
8799.5 0.428571
8800.5 -0.571429
8801.5 0.428571
8802.5 3
8803.5 0.714286
8804.5 3.71429
8805.5 -0.571429
8806.5 -0.571429
8807.5 -1.28571
8808.5 1.71429
8809.5 -1.57143
8810.5 -5.14286
8811.5 -0.285714
8812.5 -4.14286
8813.5 2
8814.5 0.428571
8815.5 3
8816.5 -0.285714
8817.5 -2.57143
8818.5 -1.85714
8819.5 2.71429
8820.5 6
8821.5 2.71429
8822.5 2
8823.5 -3.14286
8824.5 2.42857
8825.5 -0.285714
8826.5 1
8827.5 3
8828.5 -1.28571
8829.5 -0.285714
8830.5 -1.85714
8831.5 1
8832.5 -0.571429
8833.5 1.42857
8834.5 0.428571
8835.5 4.71429
8836.5 1.85714
8837.5 -1.42857
8838.5 0.857143
8839.5 4
8840.5 -2.57143
8841.5 0.285715
8842.5 -5.14286
8843.5 4.42857
8844.5 0.571429
8845.5 14
8846.5 -8
8847.5 -4.85714
8848.5 16
8849.5 2.71429
8850.5 1
8851.5 6
8852.5 3
8853.5 -0.714286
8854.5 3.42857
8855.5 1.14286
8856.5 -3.42857
8857.5 -0.571429
8858.5 0.142857
8859.5 0.428571
8860.5 -0.571429
8861.5 -4.14286
8862.5 -0.571429
8863.5 4
8864.5 1.71429
8865.5 -1.85714
8866.5 0.714286
8867.5 3.71429
8868.5 0.714286
8869.5 -0.285714
8870.5 -0.571429
8871.5 -1.28571
8872.5 0
8873.5 1
8874.5 1.71429
8875.5 0
8876.5 -1.28571
8877.5 1
8878.5 0
8879.5 0.714286
8880.5 -1.85714
8881.5 1
8882.5 1
8883.5 -0.285714
8884.5 -1.28571
8885.5 -0.857143
8886.5 2
8887.5 0.714286
8888.5 -1.28571
8889.5 1.71429
8890.5 -1.85714
8891.5 3
8892.5 -0.285714
8893.5 0.714286
8894.5 -2.57143
8895.5 1
8896.5 -2.14286
8897.5 0
8898.5 -2.57143
8899.5 2.42857
8900.5 1
8901.5 2
8902.5 2
8903.5 -1.28571
8904.5 1
8905.5 1
8906.5 -1.28571
8907.5 -1.57143
8908.5 -0.285714
8909.5 1.71429
8910.5 0
8911.5 -2.85714
8912.5 1
8913.5 -1.57143
8914.5 -0.285714
8915.5 0.142857
8916.5 -2.85714
8917.5 -2.57143
8918.5 -0.285714
8919.5 1
8920.5 1
8921.5 0.714286
8922.5 -1.28571
8923.5 -1.57143
8924.5 -0.571429
8925.5 0.714286
8926.5 4
8927.5 2
8928.5 -2.85714
8929.5 1
8930.5 1
8931.5 -2.57143
8932.5 -0.285714
8933.5 -2.57143
8934.5 -3.14286
8935.5 0
8936.5 -5.42857
8937.5 -1.57143
8938.5 0.714286
8939.5 1
8940.5 0.428571
8941.5 0.714286
8942.5 0
8943.5 0.714286
8944.5 -1.57143
8945.5 0
8946.5 3
8947.5 1.71429
8948.5 3
8949.5 -1.85714
8950.5 1.71429
8951.5 -1.28571
8952.5 6
8953.5 -0.142857
8954.5 4
8955.5 0.714286
8956.5 5.71429
8957.5 1.42857
8958.5 2
8959.5 -0.285714
8960.5 -0.571429
8961.5 1
8962.5 2
8963.5 0.714286
8964.5 -1.57143
8965.5 0.714286
8966.5 3
8967.5 -0.571429
8968.5 1.71429
8969.5 0.714286
8970.5 3
8971.5 1
8972.5 -2.57143
8973.5 -2.85714
8974.5 -1.28571
8975.5 2.71429
8976.5 0
8977.5 -0.285714
8978.5 1
8979.5 1
8980.5 0.714286
8981.5 -0.285714
8982.5 1
8983.5 1
8984.5 2
8985.5 0.714286
8986.5 3.71429
8987.5 -0.285714
8988.5 1.71429
8989.5 -2.85714
8990.5 5
8991.5 0
8992.5 -0.285714
8993.5 -2.14286
8994.5 2
8995.5 1.71429
8996.5 -1.28571
8997.5 -2.57143
8998.5 0.714286
8999.5 1
9000.5 -1.57143
9001.5 0
9002.5 0
9003.5 0.714286
9004.5 0.714286
9005.5 2
9006.5 -4.14286
9007.5 -0.571429
9008.5 3
9009.5 -1.57143
9010.5 -1.28571
9011.5 0
9012.5 0
9013.5 1
9014.5 -3.85714
9015.5 -2.57143
9016.5 1
9017.5 1
9018.5 1
9019.5 2
9020.5 -1.57143
9021.5 -2.85714
9022.5 0.714286
9023.5 -1.57143
9024.5 1.71429
9025.5 -1.57143
9026.5 1.71429
9027.5 -1.28571
9028.5 -0.285714
9029.5 -2.57143
9030.5 -1.57143
9031.5 0.714286
9032.5 1.71429
9033.5 -0.285714
9034.5 0
9035.5 4
9036.5 1
9037.5 0.714286
9038.5 -0.285714
9039.5 -0.285714
9040.5 2
9041.5 -1.28571
9042.5 -1.28571
9043.5 1
9044.5 2
9045.5 -1.28571
9046.5 2
9047.5 -0.571429
9048.5 -2.85714
9049.5 0
9050.5 1
9051.5 2.71429
9052.5 -0.285714
9053.5 0
9054.5 2
9055.5 -0.285714
9056.5 -1.28571
9057.5 -1.28571
9058.5 1
9059.5 0
9060.5 -0.285714
9061.5 -0.285714
9062.5 2
9063.5 -2.57143
9064.5 2
9065.5 -0.285714
9066.5 0
9067.5 1.71429
9068.5 0.714286
9069.5 0
9070.5 -0.571429
9071.5 -1.57143
9072.5 1
9073.5 -1.28571
9074.5 3
9075.5 1.71429
9076.5 0.714286
9077.5 -0.285714
9078.5 2
9079.5 1
9080.5 -0.285714
9081.5 2.71429
9082.5 0
9083.5 0
9084.5 -3.85714
9085.5 -1.28571
9086.5 0
9087.5 1
9088.5 0.714286
9089.5 0.714286
9090.5 -4.14286
9091.5 2
9092.5 -2.85714
9093.5 1
9094.5 -1.57143
9095.5 -1.28571
9096.5 -1.28571
9097.5 2
9098.5 4
9099.5 1.42857
9100.5 -0.285714
9101.5 -0.285714
9102.5 2
9103.5 -1.28571
9104.5 -1.28571
9105.5 2
9106.5 -1.57143
9107.5 0.714286
9108.5 1
9109.5 -1.57143
9110.5 1
9111.5 -0.285714
9112.5 1
9113.5 -0.285714
9114.5 -0.571429
9115.5 0
9116.5 0
9117.5 -0.285714
9118.5 -5.14286
9119.5 -0.285714
9120.5 -0.285714
9121.5 -1.28571
9122.5 -1.28571
9123.5 2
9124.5 -1.28571
9125.5 -0.285714
9126.5 -0.285714
9127.5 -3.85714
9128.5 -1.57143
9129.5 -0.285714
9130.5 -2.85714
9131.5 0
9132.5 0
9133.5 0
9134.5 -1.57143
9135.5 1
9136.5 1
9137.5 0
9138.5 -2.57143
9139.5 1.71429
9140.5 -1.57143
9141.5 3
9142.5 0
9143.5 -1.28571
9144.5 -0.571429
9145.5 0.714286
9146.5 -1.28571
9147.5 -1.28571
9148.5 2
9149.5 -2.57143
9150.5 -1.57143
9151.5 -2.57143
9152.5 1
9153.5 -1.57143
9154.5 2
9155.5 0.714286
9156.5 2.71429
9157.5 1
9158.5 -1.28571
9159.5 -0.571429
9160.5 -0.285714
9161.5 0
9162.5 -1.28571
9163.5 1
9164.5 -1.57143
9165.5 -1.57143
9166.5 -2.57143
9167.5 1
9168.5 -0.571429
9169.5 2
9170.5 -1.28571
9171.5 -3.85714
9172.5 -0.285714
9173.5 -0.285714
9174.5 2
9175.5 -0.285714
9176.5 -1.57143
9177.5 0
9178.5 -2.85714
9179.5 -0.285714
9180.5 0.714286
9181.5 1
9182.5 0
9183.5 2
9184.5 0
9185.5 -1.28571
9186.5 3
9187.5 3
9188.5 0
9189.5 -2.57143
9190.5 -0.285714
9191.5 0
9192.5 3
9193.5 1.71429
9194.5 0
9195.5 -1.85714
9196.5 1
9197.5 -1.28571
9198.5 -0.285714
9199.5 -0.285714
9200.5 -0.285714
9201.5 1
9202.5 -0.285714
9203.5 0
9204.5 0.714286
9205.5 2
9206.5 -2.57143
9207.5 1
9208.5 2
9209.5 -0.285714
9210.5 2
9211.5 0
9212.5 4.71429
9213.5 1
9214.5 -1.28571
9215.5 0
9216.5 -3.85714
9217.5 1.71429
9218.5 0
9219.5 -0.285714
9220.5 -1.28571
9221.5 -2.57143
9222.5 0.714286
9223.5 -3.85714
9224.5 -0.285714
9225.5 -0.285714
9226.5 0.714286
9227.5 -0.285714
9228.5 -1.57143
9229.5 0
9230.5 1
9231.5 1
9232.5 -1.28571
9233.5 -1.28571
9234.5 2
9235.5 0
9236.5 1
9237.5 3
9238.5 -1.28571
9239.5 -0.285714
9240.5 -0.285714
9241.5 -1.57143
9242.5 1
9243.5 -2.57143
9244.5 0.714286
9245.5 1
9246.5 0.714286
9247.5 2
9248.5 0
9249.5 -0.285714
9250.5 -1.28571
9251.5 0
9252.5 1
9253.5 -2.57143
9254.5 3
9255.5 -1.85714
9256.5 1
9257.5 -1.28571
9258.5 0
9259.5 -1.28571
9260.5 0.714286
9261.5 -2.57143
9262.5 1
9263.5 2
9264.5 1
9265.5 -3.85714
9266.5 2
9267.5 0
9268.5 0
9269.5 4
9270.5 -2.57143
9271.5 1.42857
9272.5 -1.57143
9273.5 2
9274.5 -0.285714
9275.5 -0.571429
9276.5 1
9277.5 1
9278.5 1
9279.5 -0.285714
9280.5 0
9281.5 0.714286
9282.5 0
9283.5 -0.285714
9284.5 -0.285714
9285.5 -1.28571
9286.5 -1.28571
9287.5 0
9288.5 -1.57143
9289.5 3.71429
9290.5 2
9291.5 2
9292.5 1
9293.5 0
9294.5 -1.57143
9295.5 -0.285714
9296.5 -2.85714
9297.5 0
9298.5 1
9299.5 0.428571
9300.5 2
9301.5 -1.28571
9302.5 3
9303.5 0
9304.5 0
9305.5 0
9306.5 -0.285714
9307.5 -0.571429
9308.5 -0.285714
9309.5 2
9310.5 1
9311.5 0
9312.5 0.714286
9313.5 0
9314.5 1
9315.5 -0.285714
9316.5 -1.28571
9317.5 0
9318.5 -2.57143
9319.5 0
9320.5 -2.57143
9321.5 -1.28571
9322.5 0.714286
9323.5 2
9324.5 1
9325.5 2
9326.5 1
9327.5 0
9328.5 -0.285714
9329.5 0.714286
9330.5 -1.28571
9331.5 0.714286
9332.5 -1.28571
9333.5 0.714286
9334.5 -1.28571
9335.5 -0.285714
9336.5 -1.28571
9337.5 -1.28571
9338.5 -1.57143
9339.5 -0.285714
9340.5 -0.285714
9341.5 -1.57143
9342.5 -0.285714
9343.5 0
9344.5 -0.285714
9345.5 -3.85714
9346.5 -0.285714
9347.5 0
9348.5 -0.571429
9349.5 -1.28571
9350.5 1
9351.5 1
9352.5 -0.285714
9353.5 2
9354.5 1
9355.5 2
9356.5 -1.28571
9357.5 3
9358.5 -2.57143
9359.5 2
9360.5 1
9361.5 -4.14286
9362.5 2
9363.5 -1.28571
9364.5 -1.28571
9365.5 0
9366.5 0
9367.5 1
9368.5 2
9369.5 -0.571429
9370.5 0
9371.5 -1.28571
9372.5 -1.28571
9373.5 -1.28571
9374.5 0
9375.5 1.71429
9376.5 1
9377.5 -1.28571
9378.5 2
9379.5 0
9380.5 -2.57143
9381.5 1
9382.5 -2.57143
9383.5 1
9384.5 -0.285714
9385.5 0
9386.5 0
9387.5 0
9388.5 -5.14286
9389.5 1
9390.5 0
9391.5 1
9392.5 -0.285714
9393.5 -1.28571
9394.5 -3.85714
9395.5 1.71429
9396.5 -1.28571
9397.5 2
9398.5 0
9399.5 -0.285714
9400.5 2
9401.5 0
9402.5 0
9403.5 -1.28571
9404.5 -2.57143
9405.5 0
9406.5 1
9407.5 -0.285714
9408.5 2
9409.5 2
9410.5 -1.28571
9411.5 0
9412.5 0
9413.5 -1.28571
9414.5 -1.28571
9415.5 -1.28571
9416.5 0
9417.5 -0.285714
9418.5 -0.285714
9419.5 -1.57143
9420.5 0
9421.5 1.71429
9422.5 1
9423.5 -0.285714
9424.5 0
9425.5 0
9426.5 -1.57143
9427.5 0
9428.5 1
9429.5 0
9430.5 0
9431.5 0
9432.5 0
9433.5 -2.57143
9434.5 0
9435.5 -3.85714
9436.5 0
9437.5 0
9438.5 2
9439.5 -1.28571
9440.5 1
9441.5 0
9442.5 0
9443.5 2
9444.5 1
9445.5 -1.57143
9446.5 2
9447.5 1
9448.5 0
9449.5 0.714286
9450.5 -0.571429
9451.5 -0.285714
9452.5 -1.28571
9453.5 -0.857143
9454.5 0
9455.5 5
9456.5 -3.85714
9457.5 -1.14286
9458.5 0.857143
9459.5 -1.14286
9460.5 -2.14286
9461.5 2.14286
9462.5 -2.14286
9463.5 -0.571429
9464.5 1.85714
9465.5 -1.85714
9466.5 4
9467.5 -0.571429
9468.5 0
9469.5 0
9470.5 2.71429
9471.5 -1.28571
9472.5 -1.28571
9473.5 -0.285714
9474.5 -0.285714
9475.5 0
9476.5 -0.285714
9477.5 2
9478.5 -2.57143
9479.5 0
9480.5 0.714286
9481.5 -1.28571
9482.5 0
9483.5 -1.28571
9484.5 -2.57143
9485.5 0
9486.5 -1.28571
9487.5 -1.28571
9488.5 0
9489.5 1
9490.5 0
9491.5 0
9492.5 3
9493.5 -1.28571
9494.5 0
9495.5 -0.285714
9496.5 1
9497.5 0
9498.5 -0.285714
9499.5 -0.285714
9500.5 1
9501.5 -1.28571
9502.5 1
9503.5 1
9504.5 0
9505.5 0
9506.5 0
9507.5 0
9508.5 -0.285714
9509.5 1
9510.5 -0.285714
9511.5 0
9512.5 0
9513.5 0
9514.5 0.714286
9515.5 -0.285714
9516.5 1
9517.5 1
9518.5 0
9519.5 0.428571
9520.5 -1.28571
9521.5 1
9522.5 0
9523.5 1
9524.5 2
9525.5 0
9526.5 2
9527.5 1
9528.5 -2.57143
9529.5 -1.28571
9530.5 -1.57143
9531.5 0
9532.5 3
9533.5 -2.57143
9534.5 0.714286
9535.5 1
9536.5 0
9537.5 1
9538.5 -2.57143
9539.5 1
9540.5 2
9541.5 0
9542.5 -1.28571
9543.5 -2.57143
9544.5 -0.285714
9545.5 -2.57143
9546.5 1
9547.5 -0.285714
9548.5 2
9549.5 0
9550.5 0
9551.5 0
9552.5 2
9553.5 -1.28571
9554.5 0
9555.5 -1.28571
9556.5 1
9557.5 0
9558.5 -1.28571
9559.5 -4.14286
9560.5 1
9561.5 0
9562.5 1
9563.5 1
9564.5 0
9565.5 1
9566.5 0
9567.5 0
9568.5 -2.57143
9569.5 0
9570.5 0
9571.5 0
9572.5 0
9573.5 -1.28571
9574.5 -1.28571
9575.5 3
9576.5 0
9577.5 -1.28571
9578.5 0
9579.5 0.714286
9580.5 1
9581.5 -1.28571
9582.5 -2.85714
9583.5 1
9584.5 0
9585.5 1
9586.5 -1.28571
9587.5 -0.285714
9588.5 0
9589.5 1
9590.5 0
9591.5 -1.28571
9592.5 -1.28571
9593.5 0
9594.5 1
9595.5 -2.57143
9596.5 -0.285714
9597.5 2
9598.5 1
9599.5 -1.28571
9600.5 0
9601.5 0
9602.5 0
9603.5 -1.28571
9604.5 0
9605.5 0
9606.5 0
9607.5 1
9608.5 0
9609.5 -2.57143
9610.5 0
9611.5 0
9612.5 0.714286
9613.5 2
9614.5 -0.571429
9615.5 -1.28571
9616.5 2
9617.5 0
9618.5 -0.285714
9619.5 -1.28571
9620.5 1
9621.5 1
9622.5 1
9623.5 1
9624.5 0
9625.5 0
9626.5 0
9627.5 0
9628.5 0
9629.5 -1.28571
9630.5 0
9631.5 1
9632.5 1
9633.5 0
9634.5 -1.28571
9635.5 0
9636.5 1
9637.5 -1.28571
9638.5 0
9639.5 1
9640.5 0
9641.5 2
9642.5 -2.57143
9643.5 -1.28571
9644.5 -0.285714
9645.5 1
9646.5 1
9647.5 2
9648.5 2
9649.5 0
9650.5 -2.57143
9651.5 0
9652.5 0
9653.5 2
9654.5 0
9655.5 1
9656.5 0
9657.5 -1.28571
9658.5 0
9659.5 0
9660.5 -1.28571
9661.5 1
9662.5 0
9663.5 -0.285714
9664.5 -1.28571
9665.5 1
9666.5 -1.28571
9667.5 0
9668.5 0
9669.5 2
9670.5 -1.28571
9671.5 -0.285714
9672.5 1
9673.5 1
9674.5 0
9675.5 -1.28571
9676.5 2
9677.5 0
9678.5 0
9679.5 0
9680.5 -1.28571
9681.5 1
9682.5 -1.28571
9683.5 -1.57143
9684.5 -1.28571
9685.5 1
9686.5 0
9687.5 0
9688.5 -1.28571
9689.5 0
9690.5 1
9691.5 0
9692.5 0
9693.5 1
9694.5 1
9695.5 0
9696.5 2
9697.5 -1.28571
9698.5 1
9699.5 0
9700.5 0
9701.5 0
9702.5 -1.28571
9703.5 2
9704.5 0
9705.5 0
9706.5 1
9707.5 2
9708.5 -1.28571
9709.5 1
9710.5 0
9711.5 0
9712.5 0
9713.5 1
9714.5 1
9715.5 0
9716.5 0
9717.5 1
9718.5 -0.285714
9719.5 -1.28571
9720.5 0
9721.5 1
9722.5 -1.28571
9723.5 1
9724.5 2
9725.5 1
9726.5 1
9727.5 0
9728.5 1
9729.5 0
9730.5 1
9731.5 0
9732.5 0
9733.5 0
9734.5 -1.28571
9735.5 1
9736.5 0
9737.5 0
9738.5 0
9739.5 0
9740.5 0
9741.5 -1.28571
9742.5 0
9743.5 -1.28571
9744.5 -0.285714
9745.5 1
9746.5 0
9747.5 0
9748.5 2
9749.5 0
9750.5 0
9751.5 -0.285714
9752.5 0
9753.5 0
9754.5 0
9755.5 0
9756.5 2
9757.5 0
9758.5 1
9759.5 -0.285714
9760.5 0
9761.5 0
9762.5 -0.285714
9763.5 0
9764.5 0
9765.5 0
9766.5 0
9767.5 0
9768.5 0
9769.5 0
9770.5 -1.28571
9771.5 1
9772.5 0
9773.5 -0.571429
9774.5 0
9775.5 0
9776.5 -1.28571
9777.5 0
9778.5 -1.28571
9779.5 1
9780.5 0
9781.5 -0.285714
9782.5 -0.285714
9783.5 0
9784.5 -1.28571
9785.5 0
9786.5 1
9787.5 1
9788.5 0
9789.5 1
9790.5 1
9791.5 0.714286
9792.5 0
9793.5 -1.28571
9794.5 1
9795.5 0
9796.5 0
9797.5 0
9798.5 -2.57143
9799.5 1
9800.5 1
9801.5 -1.57143
9802.5 1
9803.5 0
9804.5 -1.28571
9805.5 0
9806.5 -0.285714
9807.5 0
9808.5 0
9809.5 1
9810.5 0
9811.5 0
9812.5 -0.285714
9813.5 0
9814.5 0
9815.5 1
9816.5 2
9817.5 3
9818.5 -1.28571
9819.5 0
9820.5 -1.28571
9821.5 -2.85714
9822.5 0
9823.5 0
9824.5 0
9825.5 0
9826.5 0
9827.5 1
9828.5 -2.57143
9829.5 0
9830.5 1
9831.5 1
9832.5 0
9833.5 -1.28571
9834.5 0
9835.5 0
9836.5 0
9837.5 0
9838.5 0
9839.5 1
9840.5 1
9841.5 0
9842.5 0
9843.5 0
9844.5 0
9845.5 1
9846.5 0
9847.5 0
9848.5 0
9849.5 0
9850.5 0
9851.5 -0.285714
9852.5 0
9853.5 0
9854.5 0
9855.5 -1.28571
9856.5 0
9857.5 -1.28571
9858.5 0
9859.5 0
9860.5 -1.28571
9861.5 0
9862.5 0
9863.5 0
9864.5 0
9865.5 0
9866.5 0
9867.5 0
9868.5 -2.57143
9869.5 -0.285714
9870.5 0
9871.5 -3.85714
9872.5 1
9873.5 0
9874.5 0
9875.5 0
9876.5 -1.28571
9877.5 1
9878.5 0
9879.5 0
9880.5 1
9881.5 1
9882.5 1
9883.5 1
9884.5 0
9885.5 0
9886.5 0
9887.5 1
9888.5 0
9889.5 0
9890.5 0
9891.5 0
9892.5 1
9893.5 0
9894.5 0
9895.5 0
9896.5 0
9897.5 0
9898.5 0
9899.5 1
9900.5 0
9901.5 -1.28571
9902.5 0
9903.5 0
9904.5 -1.28571
9905.5 0
9906.5 -1.28571
9907.5 0
9908.5 -1.28571
9909.5 1
9910.5 0
9911.5 0
9912.5 -1.28571
9913.5 0
9914.5 0
9915.5 -1.28571
9916.5 0
9917.5 0
9918.5 0
9919.5 0
9920.5 -1.28571
9921.5 1
9922.5 0
9923.5 0
9924.5 0
9925.5 2
9926.5 1
9927.5 2
9928.5 -1.28571
9929.5 0
9930.5 0
9931.5 0
9932.5 0
9933.5 0
9934.5 0
9935.5 -1.28571
9936.5 0
9937.5 0
9938.5 0
9939.5 0
9940.5 0
9941.5 0
9942.5 0
9943.5 0
9944.5 0
9945.5 0
9946.5 0
9947.5 0
9948.5 1
9949.5 0
9950.5 0
9951.5 0
9952.5 -0.285714
9953.5 0
9954.5 0
9955.5 -1.28571
9956.5 0
9957.5 0
9958.5 1
9959.5 -1.28571
9960.5 0
9961.5 -1.28571
9962.5 -1.28571
9963.5 0
9964.5 2
9965.5 1
9966.5 1.71429
9967.5 4
9968.5 0.428571
9969.5 -3.14286
9970.5 -2.57143
9971.5 1
9972.5 -3.14286
9973.5 -1.85714
9974.5 1
9975.5 -0.571429
9976.5 -2.57143
9977.5 -1.28571
9978.5 1
9979.5 0
9980.5 0
9981.5 0
9982.5 -1.28571
9983.5 0
9984.5 0
9985.5 0
9986.5 1
9987.5 0
9988.5 0
9989.5 -1.28571
9990.5 0
9991.5 0
9992.5 0
9993.5 0
9994.5 -0.285714
9995.5 0
9996.5 0
9997.5 0
9998.5 -1.28571
9999.5 1
10000.5 1
10001.5 0
10002.5 0
10003.5 0
10004.5 0
10005.5 0
10006.5 0
10007.5 0
10008.5 -1.28571
10009.5 0
10010.5 0
10011.5 1
10012.5 0
10013.5 0
10014.5 0
10015.5 0
10016.5 0
10017.5 0
10018.5 0
10019.5 0
10020.5 0
10021.5 1
10022.5 0
10023.5 0
10024.5 0
10025.5 -1.28571
10026.5 0
10027.5 0
10028.5 0
10029.5 0
10030.5 0
10031.5 0
10032.5 -1.28571
10033.5 0
10034.5 0
10035.5 0
10036.5 0
10037.5 1
10038.5 0
10039.5 0
10040.5 1
10041.5 0
10042.5 0
10043.5 0
10044.5 0
10045.5 0
10046.5 0
10047.5 0
10048.5 0
10049.5 0
10050.5 0
10051.5 1
10052.5 0
10053.5 0
10054.5 0
10055.5 0
10056.5 0
10057.5 0
10058.5 0
10059.5 0
10060.5 0
10061.5 0
10062.5 0
10063.5 0
10064.5 0
10065.5 0
10066.5 1
10067.5 0
10068.5 0
10069.5 0
10070.5 0
10071.5 0
10072.5 0
10073.5 0
10074.5 0
10075.5 -1.28571
10076.5 0
10077.5 1
10078.5 -2.57143
10079.5 0
10080.5 1
10081.5 0
10082.5 0
10083.5 0
10084.5 0
10085.5 1
10086.5 0
10087.5 0
10088.5 1
10089.5 0
10090.5 0
10091.5 0
10092.5 0
10093.5 0
10094.5 0
10095.5 0
10096.5 0
10097.5 0
10098.5 1
10099.5 0
10100.5 1
10101.5 0
10102.5 0
10103.5 -1.28571
10104.5 0
10105.5 0
10106.5 0
10107.5 -0.285714
10108.5 -1.28571
10109.5 0
10110.5 0
10111.5 0
10112.5 0
10113.5 0
10114.5 0
10115.5 0
10116.5 0
10117.5 1
10118.5 0
10119.5 0
10120.5 0
10121.5 0
10122.5 0
10123.5 0
10124.5 0
10125.5 0
10126.5 0
10127.5 0
10128.5 0
10129.5 0
10130.5 0
10131.5 0
10132.5 0
10133.5 -1.28571
10134.5 0
10135.5 0
10136.5 0
10137.5 0
10138.5 0
10139.5 1
10140.5 0
10141.5 0
10142.5 0
10143.5 1
10144.5 0
10145.5 0
10146.5 0
10147.5 0
10148.5 0
10149.5 0
10150.5 0
10151.5 0
10152.5 -1.28571
10153.5 0
10154.5 -1.28571
10155.5 0
10156.5 0
10157.5 0
10158.5 0
10159.5 0
10160.5 0
10161.5 0
10162.5 0
10163.5 0
10164.5 0
10165.5 0
10166.5 0
10167.5 0
10168.5 -1.28571
10169.5 0
10170.5 0
10171.5 0
10172.5 0
10173.5 0
10174.5 1
10175.5 0
10176.5 0
10177.5 0
10178.5 0
10179.5 0
10180.5 0
10181.5 0
10182.5 0
10183.5 0
10184.5 0
10185.5 0
10186.5 0
10187.5 0
10188.5 -1.28571
10189.5 0
10190.5 0
10191.5 0
10192.5 2
10193.5 0
10194.5 1
10195.5 0
10196.5 -1.28571
10197.5 -1.28571
10198.5 0
10199.5 0
10200.5 0
10201.5 0
10202.5 0
10203.5 1
10204.5 0
10205.5 1
10206.5 0
10207.5 0
10208.5 0
10209.5 0
10210.5 0
10211.5 0
10212.5 0
10213.5 0
10214.5 0
10215.5 0
10216.5 0
10217.5 0
10218.5 0
10219.5 0
10220.5 0
10221.5 -1.28571
10222.5 0
10223.5 0
10224.5 1
10225.5 0
10226.5 0
10227.5 0
10228.5 -1.28571
10229.5 -1.28571
10230.5 0
10231.5 0
10232.5 0
10233.5 0
10234.5 1
10235.5 0
10236.5 0
10237.5 0
10238.5 0
10239.5 0
10240.5 0
10241.5 0
10242.5 0
10243.5 0
10244.5 0
10245.5 0
10246.5 0
10247.5 0
10248.5 0
10249.5 0
10250.5 1
10251.5 0
10252.5 0
10253.5 0
10254.5 0
10255.5 0
10256.5 0
10257.5 0
10258.5 0
10259.5 0
10260.5 0
10261.5 1
10262.5 0
10263.5 0
10264.5 1
10265.5 0
10266.5 0
10267.5 0
10268.5 0
10269.5 0
10270.5 0
10271.5 0
10272.5 0
10273.5 0
10274.5 1
10275.5 0
10276.5 0
10277.5 0
10278.5 1
10279.5 0
10280.5 0
10281.5 0
10282.5 0
10283.5 0
10284.5 0
10285.5 0
10286.5 0
10287.5 0
10288.5 0
10289.5 0
10290.5 0
10291.5 0
10292.5 0
10293.5 0
10294.5 0
10295.5 0
10296.5 0
10297.5 0
10298.5 0
10299.5 0
10300.5 0
10301.5 0
10302.5 0
10303.5 1
10304.5 0
10305.5 -1.28571
10306.5 0
10307.5 0
10308.5 0
10309.5 0
10310.5 0
10311.5 0
10312.5 0
10313.5 0
10314.5 0
10315.5 0
10316.5 0
10317.5 0
10318.5 0
10319.5 0
10320.5 0
10321.5 0
10322.5 0
10323.5 0
10324.5 0
10325.5 -1.28571
10326.5 0
10327.5 -1.28571
10328.5 0
10329.5 0
10330.5 0
10331.5 0
10332.5 0
10333.5 0
10334.5 -1.28571
10335.5 0
10336.5 0
10337.5 0
10338.5 1
10339.5 0
10340.5 0
10341.5 0
10342.5 0
10343.5 0
10344.5 0
10345.5 0
10346.5 0
10347.5 1
10348.5 0
10349.5 0
10350.5 0
10351.5 0
10352.5 0
10353.5 0
10354.5 0
10355.5 -1.28571
10356.5 -0.285714
10357.5 0
10358.5 0
10359.5 0
10360.5 0
10361.5 1
10362.5 0
10363.5 0
10364.5 0
10365.5 -1.28571
10366.5 0
10367.5 0
10368.5 -1.28571
10369.5 2
10370.5 0
10371.5 0
10372.5 0
10373.5 0
10374.5 0
10375.5 0
10376.5 0
10377.5 0
10378.5 0
10379.5 0
10380.5 0
10381.5 0
10382.5 0
10383.5 0
10384.5 0
10385.5 0
10386.5 0
10387.5 0
10388.5 0
10389.5 0
10390.5 0
10391.5 0
10392.5 0
10393.5 0
10394.5 0
10395.5 0
10396.5 0
10397.5 0
10398.5 0
10399.5 0
10400.5 0
10401.5 0
10402.5 0
10403.5 -1.28571
10404.5 0
10405.5 -1.28571
10406.5 0
10407.5 0
10408.5 0
10409.5 0
10410.5 0
10411.5 0
10412.5 0
10413.5 0
10414.5 0
10415.5 0
10416.5 0
10417.5 1
10418.5 0
10419.5 -1.28571
10420.5 0
10421.5 0
10422.5 0
10423.5 0
10424.5 0
10425.5 0
10426.5 0
10427.5 0
10428.5 1
10429.5 0
10430.5 1
10431.5 -1.28571
10432.5 0
10433.5 1
10434.5 0
10435.5 0
10436.5 0
10437.5 0
10438.5 0
10439.5 0
10440.5 0
10441.5 1
10442.5 1
10443.5 0
10444.5 0
10445.5 0
10446.5 0
10447.5 0
10448.5 0
10449.5 0
10450.5 0
10451.5 0
10452.5 0
10453.5 0
10454.5 0
10455.5 0
10456.5 0
10457.5 1
10458.5 -2.57143
10459.5 0
10460.5 0
10461.5 0
10462.5 0
10463.5 0
10464.5 0
10465.5 0
10466.5 0
10467.5 0
10468.5 0
10469.5 0
10470.5 0
10471.5 0
10472.5 0
10473.5 0
10474.5 0
10475.5 0
10476.5 0
10477.5 0
10478.5 1
10479.5 0
10480.5 0
10481.5 0
10482.5 0
10483.5 0
10484.5 0
10485.5 0
10486.5 0
10487.5 0
10488.5 0
10489.5 0
10490.5 0
10491.5 0
10492.5 0
10493.5 0
10494.5 0
10495.5 1
10496.5 0
10497.5 0
10498.5 1
10499.5 0
10500.5 0
10501.5 -1.28571
10502.5 0
10503.5 0
10504.5 0
10505.5 0
10506.5 0
10507.5 1
10508.5 0
10509.5 0
10510.5 0
10511.5 0
10512.5 0
10513.5 0
10514.5 0
10515.5 0
10516.5 0
10517.5 0
10518.5 0
10519.5 0
10520.5 0
10521.5 0
10522.5 0
10523.5 0
10524.5 0
10525.5 0
10526.5 0
10527.5 0
10528.5 0
10529.5 0
10530.5 0
10531.5 0
10532.5 0
10533.5 0
10534.5 0
10535.5 0
10536.5 0
10537.5 0
10538.5 0
10539.5 0
10540.5 -1.28571
10541.5 0
10542.5 0
10543.5 0
10544.5 -1.28571
10545.5 0
10546.5 0
10547.5 0
10548.5 0
10549.5 0
10550.5 0
10551.5 0
10552.5 0
10553.5 0
10554.5 0
10555.5 0
10556.5 0
10557.5 0
10558.5 0
10559.5 0
10560.5 0
10561.5 0
10562.5 0
10563.5 0
10564.5 0
10565.5 0
10566.5 0
10567.5 0
10568.5 0
10569.5 0
10570.5 0
10571.5 0
10572.5 0
10573.5 0
10574.5 0
10575.5 0
10576.5 0
10577.5 0
10578.5 0
10579.5 0
10580.5 0
10581.5 0
10582.5 0
10583.5 0
10584.5 0
10585.5 0
10586.5 -1.28571
10587.5 0
10588.5 0
10589.5 0
10590.5 0
10591.5 0
10592.5 1
10593.5 0
10594.5 1
10595.5 0
10596.5 0
10597.5 0
10598.5 0
10599.5 0
10600.5 0
10601.5 0
10602.5 0
10603.5 0
10604.5 0
10605.5 0
10606.5 0
10607.5 0
10608.5 0
10609.5 0
10610.5 0
10611.5 0
10612.5 0
10613.5 0
10614.5 0
10615.5 0
10616.5 0
10617.5 0
10618.5 0
10619.5 0
10620.5 0
10621.5 0
10622.5 0
10623.5 0
10624.5 0
10625.5 0
10626.5 0
10627.5 0
10628.5 0
10629.5 0
10630.5 0
10631.5 1
10632.5 0
10633.5 0
10634.5 0
10635.5 0
10636.5 0
10637.5 0
10638.5 0
10639.5 0
10640.5 0
10641.5 0
10642.5 0
10643.5 0
10644.5 0
10645.5 0
10646.5 0
10647.5 0
10648.5 0
10649.5 0
10650.5 0
10651.5 0
10652.5 0
10653.5 0
10654.5 0
10655.5 0
10656.5 0
10657.5 0
10658.5 0
10659.5 0
10660.5 0
10661.5 0
10662.5 0
10663.5 0
10664.5 0
10665.5 0
10666.5 0
10667.5 -1.28571
10668.5 0
10669.5 0
10670.5 0
10671.5 0
10672.5 0
10673.5 0
10674.5 0
10675.5 0
10676.5 0
10677.5 0
10678.5 0
10679.5 0
10680.5 0
10681.5 0
10682.5 0
10683.5 0
10684.5 0
10685.5 -1.28571
10686.5 0
10687.5 0
10688.5 0
10689.5 1
10690.5 0
10691.5 0
10692.5 0
10693.5 1
10694.5 0
10695.5 0
10696.5 0
10697.5 0
10698.5 0
10699.5 0
10700.5 0
10701.5 0
10702.5 0
10703.5 0
10704.5 1
10705.5 0
10706.5 0
10707.5 -1.28571
10708.5 0
10709.5 0
10710.5 0
10711.5 0
10712.5 0
10713.5 0
10714.5 0
10715.5 0
10716.5 0
10717.5 0
10718.5 0
10719.5 0
10720.5 0
10721.5 -1.28571
10722.5 0
10723.5 0
10724.5 0
10725.5 0
10726.5 0
10727.5 0
10728.5 0
10729.5 -1.28571
10730.5 0
10731.5 0
10732.5 0
10733.5 0
10734.5 0
10735.5 0
10736.5 0
10737.5 0
10738.5 0
10739.5 0
10740.5 0
10741.5 0
10742.5 0
10743.5 0
10744.5 0
10745.5 0
10746.5 0
10747.5 0
10748.5 0
10749.5 0
10750.5 0
10751.5 0
10752.5 -1.28571
10753.5 0
10754.5 0
10755.5 0
10756.5 0
10757.5 0
10758.5 0
10759.5 0
10760.5 0
10761.5 0
10762.5 0
10763.5 0
10764.5 0
10765.5 0
10766.5 0
10767.5 0
10768.5 0
10769.5 0
10770.5 0
10771.5 0
10772.5 0
10773.5 0
10774.5 0
10775.5 0
10776.5 0
10777.5 0
10778.5 0
10779.5 0
10780.5 0
10781.5 0
10782.5 0
10783.5 0
10784.5 0
10785.5 0
10786.5 0
10787.5 0
10788.5 0
10789.5 0
10790.5 0
10791.5 0
10792.5 0
10793.5 0
10794.5 1
10795.5 0
10796.5 0
10797.5 0
10798.5 0
10799.5 0
10800.5 -1.28571
10801.5 0
10802.5 0
10803.5 0
10804.5 0
10805.5 0
10806.5 0
10807.5 0
10808.5 0
10809.5 0
10810.5 0
10811.5 0
10812.5 0
10813.5 0
10814.5 0
10815.5 0
10816.5 0
10817.5 1
10818.5 0
10819.5 0
10820.5 0
10821.5 0
10822.5 0
10823.5 0
10824.5 0
10825.5 0
10826.5 0
10827.5 0
10828.5 0
10829.5 0
10830.5 0
10831.5 0
10832.5 1
10833.5 0
10834.5 1
10835.5 0
10836.5 0
10837.5 0
10838.5 0
10839.5 0
10840.5 0
10841.5 0
10842.5 0
10843.5 0
10844.5 0
10845.5 0
10846.5 0
10847.5 0
10848.5 0
10849.5 0
10850.5 1
10851.5 0
10852.5 0
10853.5 0
10854.5 0
10855.5 0
10856.5 0
10857.5 0
10858.5 -1.28571
10859.5 0
10860.5 0
10861.5 0
10862.5 0
10863.5 0
10864.5 0
10865.5 0
10866.5 -1.28571
10867.5 0
10868.5 0
10869.5 0
10870.5 0
10871.5 0
10872.5 0
10873.5 0
10874.5 0
10875.5 0
10876.5 0
10877.5 0
10878.5 0
10879.5 0
10880.5 0
10881.5 0
10882.5 0
10883.5 0
10884.5 1
10885.5 0
10886.5 1
10887.5 0
10888.5 0
10889.5 0
10890.5 0
10891.5 -1.28571
10892.5 0
10893.5 0
10894.5 1
10895.5 0
10896.5 0
10897.5 0
10898.5 0
10899.5 0
10900.5 0
10901.5 0
10902.5 0
10903.5 0
10904.5 0
10905.5 -1.28571
10906.5 0
10907.5 0
10908.5 0
10909.5 0
10910.5 1
10911.5 0
10912.5 0
10913.5 0
10914.5 0
10915.5 0
10916.5 0
10917.5 0
10918.5 0
10919.5 0
10920.5 0
10921.5 0
10922.5 0
10923.5 0
10924.5 0
10925.5 0
10926.5 0
10927.5 0
10928.5 0
10929.5 0
10930.5 0
10931.5 0
10932.5 0
10933.5 0
10934.5 0
10935.5 0
10936.5 0
10937.5 0
10938.5 0
10939.5 0
10940.5 0
10941.5 0
10942.5 1
10943.5 1
10944.5 0
10945.5 1
10946.5 0
10947.5 0
10948.5 0
10949.5 0
10950.5 0
10951.5 0
10952.5 -2.57143
10953.5 1
10954.5 0
10955.5 1
10956.5 0
10957.5 0
10958.5 0
10959.5 0
10960.5 0
10961.5 0
10962.5 0
10963.5 0
10964.5 0
10965.5 0
10966.5 0
10967.5 0
10968.5 0
10969.5 0
10970.5 0
10971.5 1
10972.5 0
10973.5 0
10974.5 -1.28571
10975.5 0
10976.5 0
10977.5 1
10978.5 0
10979.5 1
10980.5 0
10981.5 0
10982.5 0
10983.5 0
10984.5 0
10985.5 0
10986.5 0
10987.5 0
10988.5 0
10989.5 0
10990.5 0
10991.5 0
10992.5 0
10993.5 0
10994.5 0
10995.5 0
10996.5 1
10997.5 0
10998.5 0
10999.5 0
11000.5 0
11001.5 0
11002.5 0
11003.5 0
11004.5 0
11005.5 0
11006.5 0
11007.5 0
11008.5 0
11009.5 0
11010.5 0
11011.5 0
11012.5 0
11013.5 0
11014.5 0
11015.5 0
11016.5 1
11017.5 0
11018.5 0
11019.5 0
11020.5 0
11021.5 0
11022.5 0
11023.5 0
11024.5 0
11025.5 0
11026.5 0
11027.5 0
11028.5 0
11029.5 1
11030.5 1
11031.5 0
11032.5 0
11033.5 0
11034.5 0
11035.5 0
11036.5 0
11037.5 0
11038.5 0
11039.5 0
11040.5 0
11041.5 0
11042.5 0
11043.5 0
11044.5 0
11045.5 0
11046.5 0
11047.5 0
11048.5 0
11049.5 0
11050.5 0
11051.5 0
11052.5 0
11053.5 0
11054.5 0
11055.5 0
11056.5 0
11057.5 0
11058.5 0
11059.5 0
11060.5 0
11061.5 0
11062.5 0
11063.5 0
11064.5 0
11065.5 0
11066.5 0
11067.5 0
11068.5 0
11069.5 0
11070.5 0
11071.5 0
11072.5 0
11073.5 0
11074.5 0
11075.5 0
11076.5 0
11077.5 0
11078.5 0
11079.5 0
11080.5 0
11081.5 0
11082.5 0
11083.5 0
11084.5 0
11085.5 0
11086.5 0
11087.5 0
11088.5 0
11089.5 0
11090.5 0
11091.5 0
11092.5 0
11093.5 0
11094.5 0
11095.5 0
11096.5 0
11097.5 0
11098.5 0
11099.5 0
11100.5 0
11101.5 0
11102.5 0
11103.5 0
11104.5 0
11105.5 0
11106.5 0
11107.5 0
11108.5 1
11109.5 0
11110.5 0
11111.5 0
11112.5 0
11113.5 1
11114.5 0
11115.5 0
11116.5 0
11117.5 0
11118.5 0
11119.5 -1.28571
11120.5 0
11121.5 0
11122.5 0
11123.5 0
11124.5 0
11125.5 0
11126.5 0
11127.5 0
11128.5 0
11129.5 0
11130.5 0
11131.5 0
11132.5 0
11133.5 0
11134.5 0
11135.5 0
11136.5 0
11137.5 0
11138.5 0
11139.5 0
11140.5 0
11141.5 0
11142.5 0
11143.5 0
11144.5 0
11145.5 0
11146.5 0
11147.5 0
11148.5 0
11149.5 0
11150.5 0
11151.5 0
11152.5 0
11153.5 0
11154.5 0
11155.5 0
11156.5 0
11157.5 0
11158.5 0
11159.5 0
11160.5 0
11161.5 0
11162.5 0
11163.5 0
11164.5 0
11165.5 0
11166.5 0
11167.5 0
11168.5 0
11169.5 0
11170.5 0
11171.5 0
11172.5 0
11173.5 0
11174.5 0
11175.5 0
11176.5 0
11177.5 0
11178.5 0
11179.5 0
11180.5 0
11181.5 0
11182.5 1
11183.5 0
11184.5 0
11185.5 0
11186.5 0
11187.5 0
11188.5 0
11189.5 0
11190.5 0
11191.5 0
11192.5 0
11193.5 0
11194.5 0
11195.5 0
11196.5 0
11197.5 0
11198.5 0
11199.5 0
11200.5 0
11201.5 0
11202.5 0
11203.5 0
11204.5 0
11205.5 0
11206.5 0
11207.5 0
11208.5 0
11209.5 0
11210.5 0
11211.5 0
11212.5 0
11213.5 0
11214.5 0
11215.5 0
11216.5 0
11217.5 0
11218.5 0
11219.5 0
11220.5 0
11221.5 0
11222.5 0
11223.5 0
11224.5 0
11225.5 0
11226.5 0
11227.5 0
11228.5 0
11229.5 0
11230.5 0
11231.5 0
11232.5 1
11233.5 0
11234.5 0
11235.5 0
11236.5 0
11237.5 0
11238.5 0
11239.5 0
11240.5 0
11241.5 0
11242.5 0
11243.5 0
11244.5 0
11245.5 0
11246.5 0
11247.5 0
11248.5 0
11249.5 0
11250.5 0
11251.5 0
11252.5 0
11253.5 0
11254.5 -1.28571
11255.5 0
11256.5 0
11257.5 0
11258.5 0
11259.5 0
11260.5 0
11261.5 0
11262.5 0
11263.5 0
11264.5 0
11265.5 0
11266.5 0
11267.5 0
11268.5 0
11269.5 0
11270.5 0
11271.5 0
11272.5 0
11273.5 0
11274.5 0
11275.5 0
11276.5 -1.28571
11277.5 0
11278.5 -1.28571
11279.5 0
11280.5 -1.28571
11281.5 0
11282.5 0
11283.5 0
11284.5 0
11285.5 0
11286.5 0
11287.5 0
11288.5 0
11289.5 0
11290.5 0
11291.5 0
11292.5 0
11293.5 0
11294.5 0
11295.5 0
11296.5 0
11297.5 0
11298.5 0
11299.5 0
11300.5 0
11301.5 0
11302.5 0
11303.5 0
11304.5 0
11305.5 0
11306.5 0
11307.5 0
11308.5 -1.28571
11309.5 0
11310.5 0
11311.5 0
11312.5 0
11313.5 0
11314.5 0
11315.5 0
11316.5 0
11317.5 0
11318.5 0
11319.5 0
11320.5 0
11321.5 0
11322.5 0
11323.5 0
11324.5 0
11325.5 0
11326.5 0
11327.5 -1.28571
11328.5 0
11329.5 0
11330.5 1
11331.5 0
11332.5 0
11333.5 0
11334.5 0
11335.5 0
11336.5 1
11337.5 0
11338.5 0
11339.5 0
11340.5 0
11341.5 0
11342.5 0
11343.5 0
11344.5 0
11345.5 0
11346.5 0
11347.5 0
11348.5 0
11349.5 0
11350.5 0
11351.5 0
11352.5 0
11353.5 0
11354.5 0
11355.5 0
11356.5 -1.28571
11357.5 0
11358.5 0
11359.5 0
11360.5 0
11361.5 0
11362.5 0
11363.5 0
11364.5 0
11365.5 0
11366.5 0
11367.5 0
11368.5 0
11369.5 0
11370.5 0
11371.5 0
11372.5 0
11373.5 0
11374.5 0
11375.5 0
11376.5 0
11377.5 0
11378.5 0
11379.5 0
11380.5 0
11381.5 0
11382.5 0
11383.5 0
11384.5 0
11385.5 0
11386.5 0
11387.5 0
11388.5 0
11389.5 0
11390.5 0
11391.5 0
11392.5 0
11393.5 0
11394.5 0
11395.5 0
11396.5 0
11397.5 1
11398.5 0
11399.5 0
11400.5 0
11401.5 0
11402.5 0
11403.5 0
11404.5 0
11405.5 0
11406.5 0
11407.5 0
11408.5 0
11409.5 0
11410.5 0
11411.5 0
11412.5 0
11413.5 0
11414.5 0
11415.5 0
11416.5 0
11417.5 0
11418.5 0
11419.5 0
11420.5 0
11421.5 0
11422.5 0
11423.5 0
11424.5 0
11425.5 0
11426.5 0
11427.5 0
11428.5 0
11429.5 0
11430.5 0
11431.5 0
11432.5 0
11433.5 0
11434.5 0
11435.5 0
11436.5 0
11437.5 0
11438.5 1
11439.5 0
11440.5 -1.28571
11441.5 0
11442.5 0
11443.5 0
11444.5 0
11445.5 0
11446.5 0
11447.5 -1.28571
11448.5 0
11449.5 0
11450.5 0
11451.5 0
11452.5 0
11453.5 0
11454.5 0
11455.5 0
11456.5 0
11457.5 0
11458.5 0
11459.5 0
11460.5 0
11461.5 0
11462.5 0
11463.5 0
11464.5 0
11465.5 0
11466.5 0
11467.5 0
11468.5 0
11469.5 0
11470.5 0
11471.5 0
11472.5 0
11473.5 0
11474.5 0
11475.5 0
11476.5 0
11477.5 0
11478.5 0
11479.5 -1.28571
11480.5 0
11481.5 0
11482.5 0
11483.5 0
11484.5 0
11485.5 0
11486.5 -1.28571
11487.5 0
11488.5 0
11489.5 0
11490.5 0
11491.5 0
11492.5 0
11493.5 -1.28571
11494.5 0
11495.5 0
11496.5 0
11497.5 0
11498.5 0
11499.5 0
11500.5 0
11501.5 0
11502.5 0
11503.5 0
11504.5 0
11505.5 0
11506.5 1
11507.5 0
11508.5 0
11509.5 0
11510.5 0
11511.5 0
11512.5 0
11513.5 0
11514.5 0
11515.5 0
11516.5 0
11517.5 0
11518.5 2
11519.5 0
11520.5 0
11521.5 0
11522.5 0
11523.5 0
11524.5 0
11525.5 0
11526.5 0
11527.5 0
11528.5 0
11529.5 0
11530.5 0
11531.5 0
11532.5 0
11533.5 0
11534.5 0
11535.5 0
11536.5 -1.28571
11537.5 0
11538.5 0
11539.5 0
11540.5 0
11541.5 0
11542.5 0
11543.5 0
11544.5 0
11545.5 -1.28571
11546.5 0
11547.5 0
11548.5 0
11549.5 0
11550.5 0
11551.5 0
11552.5 0
11553.5 0
11554.5 0
11555.5 0
11556.5 0
11557.5 0
11558.5 0
11559.5 0
11560.5 0
11561.5 0
11562.5 0
11563.5 0
11564.5 0
11565.5 0
11566.5 0
11567.5 0
11568.5 0
11569.5 1
11570.5 0
11571.5 0
11572.5 0
11573.5 0
11574.5 0
11575.5 0
11576.5 -1.28571
11577.5 0
11578.5 0
11579.5 0
11580.5 0
11581.5 0
11582.5 0
11583.5 0
11584.5 0
11585.5 0
11586.5 0
11587.5 0
11588.5 0
11589.5 0
11590.5 0
11591.5 0
11592.5 0
11593.5 0
11594.5 0
11595.5 0
11596.5 0
11597.5 0
11598.5 0
11599.5 0
11600.5 0
11601.5 0
11602.5 0
11603.5 0
11604.5 0
11605.5 0
11606.5 0
11607.5 0
11608.5 0
11609.5 0
11610.5 0
11611.5 1
11612.5 0
11613.5 0
11614.5 0
11615.5 0
11616.5 0
11617.5 0
11618.5 0
11619.5 0
11620.5 0
11621.5 0
11622.5 0
11623.5 0
11624.5 0
11625.5 1
11626.5 0
11627.5 0
11628.5 0
11629.5 0
11630.5 1
11631.5 0
11632.5 0
11633.5 0
11634.5 0
11635.5 0
11636.5 0
11637.5 0
11638.5 0
11639.5 0
11640.5 0
11641.5 0
11642.5 0
11643.5 0
11644.5 0
11645.5 0
11646.5 0
11647.5 0
11648.5 0
11649.5 0
11650.5 0
11651.5 0
11652.5 0
11653.5 0
11654.5 0
11655.5 0
11656.5 0
11657.5 0
11658.5 0
11659.5 0
11660.5 0
11661.5 0
11662.5 0
11663.5 0
11664.5 0
11665.5 0
11666.5 0
11667.5 0
11668.5 0
11669.5 0
11670.5 0
11671.5 0
11672.5 0
11673.5 1
11674.5 0
11675.5 0
11676.5 0
11677.5 0
11678.5 0
11679.5 0
11680.5 0
11681.5 1
11682.5 0
11683.5 0
11684.5 1
11685.5 0
11686.5 0
11687.5 0
11688.5 0
11689.5 0
11690.5 0
11691.5 0
11692.5 0
11693.5 0
11694.5 0
11695.5 0
11696.5 0
11697.5 0
11698.5 0
11699.5 -1.28571
11700.5 0
11701.5 0
11702.5 0
11703.5 0
11704.5 0
11705.5 0
11706.5 0
11707.5 0
11708.5 0
11709.5 0
11710.5 0
11711.5 0
11712.5 0
11713.5 0
11714.5 0
11715.5 0
11716.5 0
11717.5 0
11718.5 0
11719.5 0
11720.5 0
11721.5 0
11722.5 0
11723.5 0
11724.5 0
11725.5 0
11726.5 0
11727.5 0
11728.5 0
11729.5 0
11730.5 0
11731.5 0
11732.5 0
11733.5 0
11734.5 0
11735.5 0
11736.5 0
11737.5 0
11738.5 0
11739.5 0
11740.5 0
11741.5 0
11742.5 0
11743.5 0
11744.5 0
11745.5 0
11746.5 0
11747.5 0
11748.5 0
11749.5 0
11750.5 0
11751.5 0
11752.5 0
11753.5 0
11754.5 0
11755.5 0
11756.5 0
11757.5 0
11758.5 0
11759.5 0
11760.5 0
11761.5 1
11762.5 0
11763.5 0
11764.5 0
11765.5 0
11766.5 0
11767.5 0
11768.5 0
11769.5 0
11770.5 0
11771.5 -1.28571
11772.5 0
11773.5 0
11774.5 0
11775.5 0
11776.5 0
11777.5 0
11778.5 0
11779.5 0
11780.5 0
11781.5 0
11782.5 0
11783.5 0
11784.5 0
11785.5 0
11786.5 0
11787.5 0
11788.5 0
11789.5 0
11790.5 0
11791.5 0
11792.5 0
11793.5 0
11794.5 -1.28571
11795.5 0
11796.5 0
11797.5 0
11798.5 0
11799.5 0
11800.5 0
11801.5 0
11802.5 0
11803.5 0
11804.5 0
11805.5 0
11806.5 0
11807.5 0
11808.5 0
11809.5 0
11810.5 0
11811.5 0
11812.5 0
11813.5 0
11814.5 0
11815.5 0
11816.5 0
11817.5 0
11818.5 -1.28571
11819.5 1
11820.5 0
11821.5 0
11822.5 0
11823.5 0
11824.5 0
11825.5 0
11826.5 0
11827.5 0
11828.5 0
11829.5 0
11830.5 0
11831.5 0
11832.5 0
11833.5 0
11834.5 0
11835.5 0
11836.5 0
11837.5 0
11838.5 1
11839.5 0
11840.5 0
11841.5 0
11842.5 0
11843.5 0
11844.5 0
11845.5 0
11846.5 0
11847.5 0
11848.5 0
11849.5 0
11850.5 0
11851.5 0
11852.5 0
11853.5 0
11854.5 0
11855.5 0
11856.5 0
11857.5 0
11858.5 0
11859.5 0
11860.5 0
11861.5 0
11862.5 0
11863.5 0
11864.5 0
11865.5 0
11866.5 0
11867.5 -1.28571
11868.5 0
11869.5 0
11870.5 0
11871.5 0
11872.5 0
11873.5 0
11874.5 0
11875.5 0
11876.5 0
11877.5 0
11878.5 -1.28571
11879.5 0
11880.5 0
11881.5 0
11882.5 0
11883.5 0
11884.5 0
11885.5 -1.28571
11886.5 0
11887.5 0
11888.5 0
11889.5 0
11890.5 0
11891.5 0
11892.5 0
11893.5 0
11894.5 0
11895.5 0
11896.5 0
11897.5 0
11898.5 0
11899.5 0
11900.5 0
11901.5 0
11902.5 0
11903.5 0
11904.5 0
11905.5 0
11906.5 0
11907.5 0
11908.5 0
11909.5 0
11910.5 0
11911.5 0
11912.5 0
11913.5 0
11914.5 0
11915.5 0
11916.5 0
11917.5 0
11918.5 0
11919.5 0
11920.5 0
11921.5 0
11922.5 0
11923.5 0
11924.5 0
11925.5 0
11926.5 0
11927.5 0
11928.5 0
11929.5 0
11930.5 0
11931.5 0
11932.5 0
11933.5 0
11934.5 0
11935.5 0
11936.5 0
11937.5 0
11938.5 0
11939.5 0
11940.5 0
11941.5 1
11942.5 0
11943.5 0
11944.5 0
11945.5 0
11946.5 0
11947.5 0
11948.5 0
11949.5 0
11950.5 0
11951.5 0
11952.5 0
11953.5 0
11954.5 0
11955.5 0
11956.5 0
11957.5 0
11958.5 0
11959.5 0
11960.5 0
11961.5 0
11962.5 0
11963.5 0
11964.5 0
11965.5 0
11966.5 0
11967.5 0
11968.5 0
11969.5 0
11970.5 0
11971.5 0
11972.5 0
11973.5 0
11974.5 0
11975.5 0
11976.5 0
11977.5 0
11978.5 0
11979.5 0
11980.5 0
11981.5 0
11982.5 0
11983.5 0
11984.5 0
11985.5 0
11986.5 0
11987.5 0
11988.5 0
11989.5 0
11990.5 -1.28571
11991.5 0
11992.5 0
11993.5 0
11994.5 0
11995.5 0
11996.5 0
11997.5 0
11998.5 0
11999.5 0
