# EGG_ProjY_E1541.0(6.0)_B1531.5(2.5)_B1554.0(4.0)
# X axis : Energy (keV) [Y axis]
# Y axis : Counts/1 keV
# N Bins : 12000
# X Min : 0
# X Max : 12000
# X value at the center of the bins
0.5 0
1.5 0
2.5 0
3.5 0
4.5 0
5.5 30
6.5 18.8462
7.5 18.0769
8.5 36.0769
9.5 7.46154
10.5 18.5385
11.5 55.1538
12.5 55.1538
13.5 37.6154
14.5 37.6923
15.5 45.6154
16.5 37.0769
17.5 75.0769
18.5 206
19.5 250.385
20.5 332.385
21.5 311.462
22.5 429.462
23.5 604.769
24.5 539.385
25.5 607.231
26.5 970.385
27.5 987.769
28.5 1008.15
29.5 1072.23
30.5 1076
31.5 1307.15
32.5 1431.85
33.5 1347
34.5 1257.54
35.5 1375.77
36.5 1561.92
37.5 1443.69
38.5 1463.92
39.5 1773.54
40.5 1455
41.5 1313.31
42.5 1481.62
43.5 1550.46
44.5 1365.23
45.5 1716.08
46.5 1700.38
47.5 1648.38
48.5 1316.62
49.5 1630.92
50.5 1672.46
51.5 1761
52.5 1661.46
53.5 1841.31
54.5 1786.31
55.5 1953.92
56.5 1883.38
57.5 2384.31
58.5 2759.23
59.5 2976.92
60.5 2315.08
61.5 1741.62
62.5 1838.38
63.5 1693.46
64.5 1800.31
65.5 2076.69
66.5 2156.46
67.5 2408.92
68.5 2336
69.5 2189.08
70.5 1999.15
71.5 2145
72.5 1991.54
73.5 2343.77
74.5 3245.38
75.5 3403.85
76.5 3667.46
77.5 4517.15
78.5 2684.31
79.5 1632.62
80.5 1721.77
81.5 1608
82.5 1704.62
83.5 1657.62
84.5 1913.77
85.5 2113.46
86.5 2672.46
87.5 3519.46
88.5 3049.85
89.5 2752.23
90.5 2577
91.5 2095.23
92.5 2388.46
93.5 2208.38
94.5 2401.15
95.5 2280.77
96.5 2361.31
97.5 2420.08
98.5 2275.31
99.5 1946.77
100.5 2027.85
101.5 1941.77
102.5 1891.92
103.5 2025.92
104.5 1860.69
105.5 2298.69
106.5 2260
107.5 2063.85
108.5 2282.23
109.5 1939.54
110.5 2029.92
111.5 2480.38
112.5 2325.85
113.5 2171.69
114.5 2095.77
115.5 2101.92
116.5 2216.15
117.5 2194.85
118.5 2179.08
119.5 2310.38
120.5 2440.92
121.5 2373.62
122.5 2480.38
123.5 2562.54
124.5 2358.69
125.5 2192.46
126.5 2593.38
127.5 2601.38
128.5 2610.62
129.5 2510.46
130.5 2414.15
131.5 2241.69
132.5 2331.77
133.5 2631.23
134.5 2376.92
135.5 2621
136.5 2576.77
137.5 2531.92
138.5 2157.08
139.5 2824.23
140.5 2753.54
141.5 2151.54
142.5 2667.38
143.5 2741.08
144.5 2736
145.5 2847.31
146.5 2476.31
147.5 2505.38
148.5 2462.15
149.5 2645
150.5 2736.46
151.5 2517.85
152.5 2330.23
153.5 2312.92
154.5 2392
155.5 2343.31
156.5 2100.31
157.5 2272.69
158.5 2190.23
159.5 1985.38
160.5 2335.62
161.5 2563.38
162.5 2567.31
163.5 2327.92
164.5 2735
165.5 3040.15
166.5 3012.62
167.5 2698.69
168.5 3082.77
169.5 2881.08
170.5 2842.85
171.5 3022.08
172.5 3213.92
173.5 4185.08
174.5 5855.54
175.5 4278.46
176.5 3065.08
177.5 2831
178.5 2519.62
179.5 2792.15
180.5 2646.46
181.5 2088.23
182.5 1737
183.5 2763.54
184.5 3163.92
185.5 3691.38
186.5 3523.77
187.5 3272.38
188.5 3381.08
189.5 3133.54
190.5 2814.38
191.5 2974
192.5 2567.15
193.5 2489.54
194.5 2568.69
195.5 2310.85
196.5 2460.62
197.5 2688
198.5 2983.54
199.5 3293.85
200.5 3108.46
201.5 3014.08
202.5 2954.92
203.5 3165.08
204.5 3279.46
205.5 3238.38
206.5 2957.15
207.5 2994.62
208.5 2837.77
209.5 2806
210.5 2909.92
211.5 2910.77
212.5 3275
213.5 3533.77
214.5 3016.23
215.5 3240.54
216.5 2966.85
217.5 2913.23
218.5 2508.54
219.5 2738.54
220.5 1966.92
221.5 2031.77
222.5 2194.54
223.5 1937.31
224.5 1883.77
225.5 1952.92
226.5 2310.15
227.5 2466.54
228.5 3112.08
229.5 3585.15
230.5 3526
231.5 4062.85
232.5 4560.46
233.5 4571.46
234.5 4783.92
235.5 4631.23
236.5 4518.23
237.5 4342.69
238.5 3987.08
239.5 3999.85
240.5 3924.08
241.5 3815.15
242.5 3483.69
243.5 3360.92
244.5 2469.31
245.5 2418.69
246.5 1914
247.5 1992
248.5 2019.31
249.5 2353.15
250.5 2430.62
251.5 2692.46
252.5 3100.54
253.5 2925.85
254.5 2624.08
255.5 2128.38
256.5 2297.77
257.5 2002.62
258.5 2457.46
259.5 2585.85
260.5 2767.85
261.5 2769.85
262.5 3234.15
263.5 3194
264.5 2919.15
265.5 2881.38
266.5 2915.23
267.5 2918.38
268.5 2919.54
269.5 2858.77
270.5 2765.38
271.5 2659
272.5 2649.15
273.5 2618.54
274.5 2584.62
275.5 2639.77
276.5 2376.15
277.5 2387.54
278.5 2172.54
279.5 2516.77
280.5 2701.69
281.5 2305.15
282.5 2436.38
283.5 2298.85
284.5 2311.77
285.5 2296.92
286.5 2304.23
287.5 2139
288.5 2201.62
289.5 2143.23
290.5 2094.69
291.5 2318.77
292.5 2158.08
293.5 2234.62
294.5 2401.77
295.5 2676.69
296.5 2306.69
297.5 2631.85
298.5 2437.77
299.5 2378.62
300.5 2614.38
301.5 2410.62
302.5 2345.62
303.5 2321.15
304.5 2311.92
305.5 2519.62
306.5 2226.15
307.5 2279.38
308.5 2227.23
309.5 2054.38
310.5 2222.62
311.5 1797.85
312.5 2037.23
313.5 1741.69
314.5 1670.15
315.5 1649.69
316.5 1035.92
317.5 1103.15
318.5 1105.38
319.5 936.308
320.5 1234.92
321.5 1380.85
322.5 1844.62
323.5 2090.46
324.5 2702.08
325.5 2572.38
326.5 3258.69
327.5 3025.77
328.5 2315.23
329.5 1599.85
330.5 1464.62
331.5 1305.77
332.5 899.077
333.5 947.538
334.5 1354.08
335.5 1359.69
336.5 1798
337.5 1931.38
338.5 2123.77
339.5 2346
340.5 2977.46
341.5 3467.38
342.5 3524.69
343.5 3988.85
344.5 4333.62
345.5 4165.08
346.5 4655.54
347.5 4332
348.5 4193.31
349.5 4073.69
350.5 3725.77
351.5 2825
352.5 1777
353.5 698.692
354.5 212.231
355.5 246.923
356.5 90
357.5 604.077
358.5 1242.77
359.5 1659.23
360.5 1861.77
361.5 2122.54
362.5 2085.62
363.5 2058.54
364.5 1932.54
365.5 2016.54
366.5 1972.85
367.5 1615
368.5 2229.92
369.5 1973.38
370.5 1950.62
371.5 1817.54
372.5 1998.92
373.5 2112
374.5 2083.77
375.5 2100.31
376.5 2121.31
377.5 1976.23
378.5 1817.62
379.5 1725.46
380.5 1809.62
381.5 1750.23
382.5 1552.69
383.5 1800.46
384.5 1289.54
385.5 1481.31
386.5 1071.38
387.5 1160.54
388.5 1310.15
389.5 1108.46
390.5 1193.92
391.5 1486.69
392.5 1560.31
393.5 1750.15
394.5 2068.31
395.5 2025
396.5 2276.08
397.5 2496.38
398.5 2427.38
399.5 2648.46
400.5 2580.85
401.5 2805.85
402.5 2619.38
403.5 2995.31
404.5 3329.38
405.5 2655.23
406.5 2278
407.5 1999.46
408.5 1498.92
409.5 1486.31
410.5 1567.23
411.5 1522.38
412.5 1631.46
413.5 2037.15
414.5 2048.23
415.5 2093.85
416.5 1922.69
417.5 1802.85
418.5 1747.23
419.5 1936.77
420.5 1733.62
421.5 1851.23
422.5 2189.38
423.5 1924.38
424.5 1906.85
425.5 1409
426.5 1470.69
427.5 1626.46
428.5 1566.46
429.5 1312.62
430.5 1506.85
431.5 1546.54
432.5 1600.62
433.5 1875.62
434.5 1947.08
435.5 1515.77
436.5 1566.08
437.5 1527
438.5 1632.85
439.5 1669
440.5 1658.15
441.5 1600.08
442.5 1618.46
443.5 1711.85
444.5 1758.08
445.5 1956
446.5 1769.46
447.5 1854
448.5 1810.31
449.5 1864.23
450.5 1933.62
451.5 1882.38
452.5 1906.15
453.5 1858.85
454.5 2160.69
455.5 1939.31
456.5 2112.08
457.5 2096.23
458.5 1961.77
459.5 1851.77
460.5 1620.92
461.5 1752.77
462.5 1958.08
463.5 2135
464.5 1891.46
465.5 1662.15
466.5 1935.08
467.5 1713.62
468.5 1765.69
469.5 1768.77
470.5 1820.69
471.5 1946.23
472.5 1928.46
473.5 1953.92
474.5 1906.92
475.5 1650.85
476.5 1669.69
477.5 1732.38
478.5 1773.92
479.5 1716.85
480.5 1745.38
481.5 1752.23
482.5 1857.38
483.5 1762
484.5 1962.38
485.5 1814.08
486.5 1648.85
487.5 1621.85
488.5 1716.77
489.5 1672.46
490.5 1683.69
491.5 1600.23
492.5 1511.46
493.5 1775
494.5 1752.23
495.5 1449.77
496.5 1573.31
497.5 1352.85
498.5 1276.69
499.5 923.308
500.5 1069.92
501.5 1359.69
502.5 1505.92
503.5 1642.08
504.5 1750.62
505.5 1791.54
506.5 2143.77
507.5 2666.92
508.5 3936.77
509.5 6687.38
510.5 9828.85
511.5 9606.85
512.5 6302.54
513.5 3502
514.5 2343.38
515.5 1709
516.5 1590.23
517.5 1383.46
518.5 1267
519.5 1345.08
520.5 1369.62
521.5 1297.92
522.5 1333
523.5 1336.54
524.5 1384.46
525.5 1441.31
526.5 1538.77
527.5 1390.54
528.5 1399.54
529.5 1390.08
530.5 1355.15
531.5 1409.77
532.5 1289.31
533.5 1281.69
534.5 1369.77
535.5 1377.38
536.5 1437.15
537.5 1487.92
538.5 1369.38
539.5 1303.69
540.5 1469.31
541.5 1370.46
542.5 1542.85
543.5 1646.85
544.5 1403
545.5 1527.23
546.5 1511.15
547.5 1668.85
548.5 1483.31
549.5 1545.77
550.5 1706.46
551.5 1493
552.5 1563.08
553.5 1444.54
554.5 1662.38
555.5 1908.15
556.5 1933.23
557.5 1617.23
558.5 1631.54
559.5 1393.85
560.5 1471
561.5 1566.23
562.5 1542.77
563.5 1560.15
564.5 1639.15
565.5 1395.15
566.5 1511.38
567.5 1468.31
568.5 1438.23
569.5 1474.54
570.5 1573.69
571.5 1492.85
572.5 1562.46
573.5 1337
574.5 1466.31
575.5 1366.46
576.5 1382.62
577.5 1414.54
578.5 1263.62
579.5 1260.31
580.5 1586.15
581.5 2641.15
582.5 7722
583.5 12707
584.5 7821.38
585.5 2724.31
586.5 1610.92
587.5 1099.69
588.5 1124.85
589.5 999.154
590.5 1043.23
591.5 810.692
592.5 708.308
593.5 717.769
594.5 436
595.5 464.615
596.5 557.923
597.5 804
598.5 941.385
599.5 955.385
600.5 1307
601.5 1605.08
602.5 1740.62
603.5 1821.15
604.5 2003.85
605.5 2187.62
606.5 1995.62
607.5 1973.15
608.5 1646.46
609.5 1843.31
610.5 2003.38
611.5 1650.54
612.5 1714.38
613.5 1610.31
614.5 1438.08
615.5 1196.77
616.5 883
617.5 750.923
618.5 523.077
619.5 574.308
620.5 746.154
621.5 1052
622.5 1064.92
623.5 1163
624.5 1120.69
625.5 1070.54
626.5 1213.85
627.5 1283.46
628.5 1555
629.5 1379.77
630.5 1095.77
631.5 1153.92
632.5 1065.31
633.5 1203.85
634.5 1221
635.5 1219.23
636.5 1116.85
637.5 1418.69
638.5 1197.23
639.5 1314.62
640.5 1170.15
641.5 1197.69
642.5 1058
643.5 1051.92
644.5 1352.62
645.5 1807.85
646.5 1615.85
647.5 1345.77
648.5 1015.54
649.5 1119.69
650.5 1172.69
651.5 1425.85
652.5 1349.77
653.5 2646
654.5 8962.54
655.5 21109.1
656.5 18959.5
657.5 7287.38
658.5 2526.54
659.5 1403.62
660.5 1257.85
661.5 1332.31
662.5 1347.08
663.5 803.769
664.5 796.615
665.5 75.6923
666.5 -467.923
667.5 -1085.08
668.5 -1225.62
669.5 -1053.92
670.5 -586.538
671.5 -485.615
672.5 243.462
673.5 690.846
674.5 1534.62
675.5 2099.77
676.5 2787.62
677.5 2860.77
678.5 3206.92
679.5 3299.08
680.5 3161.62
681.5 3011.92
682.5 3157.46
683.5 3215.85
684.5 3030.92
685.5 2920.77
686.5 2410.54
687.5 1259.62
688.5 668.385
689.5 -20.0769
690.5 -581.462
691.5 -568.538
692.5 -303.385
693.5 54.1538
694.5 399.385
695.5 637.154
696.5 800.385
697.5 1050
698.5 931.385
699.5 864.308
700.5 1297.38
701.5 1085.77
702.5 1125.08
703.5 1411.54
704.5 1325.62
705.5 1242.92
706.5 995.462
707.5 1046.77
708.5 1099.08
709.5 1067.77
710.5 1163.69
711.5 1031.92
712.5 1064.31
713.5 1006.15
714.5 1027.23
715.5 1131.62
716.5 1033.15
717.5 931.846
718.5 999.154
719.5 970.154
720.5 1123.62
721.5 1061.85
722.5 956.231
723.5 792.846
724.5 906.231
725.5 997.846
726.5 854.692
727.5 1135.92
728.5 963.077
729.5 891
730.5 1040.54
731.5 1003.15
732.5 1035.23
733.5 1082.92
734.5 1098.77
735.5 1007.15
736.5 1022.38
737.5 990
738.5 1118.08
739.5 1005.31
740.5 1077.54
741.5 1026.23
742.5 1044
743.5 1038.77
744.5 1013.15
745.5 1072.69
746.5 1033.92
747.5 1033.08
748.5 949.231
749.5 955.538
750.5 1100.31
751.5 1054.46
752.5 1009.62
753.5 1011
754.5 1100.62
755.5 1027
756.5 1131.15
757.5 1352.31
758.5 2253.92
759.5 8526.62
760.5 24331.6
761.5 27251.1
762.5 12291.1
763.5 3365.31
764.5 1474.31
765.5 1236.08
766.5 1155.62
767.5 883.538
768.5 930.462
769.5 955.231
770.5 1058.15
771.5 922.154
772.5 889.769
773.5 883.769
774.5 1162.62
775.5 986.615
776.5 1135.62
777.5 849
778.5 916.769
779.5 888.154
780.5 1014.77
781.5 928.154
782.5 839.462
783.5 998.308
784.5 990.154
785.5 739.846
786.5 811.615
787.5 1124.92
788.5 962.769
789.5 991.385
790.5 988.692
791.5 918.462
792.5 926.462
793.5 1080.15
794.5 1038.92
795.5 946.538
796.5 904.615
797.5 993.615
798.5 1165.69
799.5 856.308
800.5 986.769
801.5 993.154
802.5 1015
803.5 1144.31
804.5 1191.62
805.5 1346.46
806.5 1822.23
807.5 1746.92
808.5 1334.69
809.5 1132.62
810.5 972.692
811.5 1004.46
812.5 1088.92
813.5 915.769
814.5 1098.08
815.5 1102.62
816.5 973.077
817.5 1160.46
818.5 941.615
819.5 1037.85
820.5 1022.77
821.5 958.923
822.5 1107.46
823.5 1165.54
824.5 1225.62
825.5 1043.46
826.5 987.077
827.5 1206.23
828.5 1090.38
829.5 1092.31
830.5 1017.38
831.5 1138.85
832.5 1050.31
833.5 1099.46
834.5 1010.38
835.5 906.692
836.5 1006.15
837.5 1083.46
838.5 1125.69
839.5 1166.62
840.5 1020.15
841.5 1101
842.5 1047
843.5 1130
844.5 1021.15
845.5 1108
846.5 1238.23
847.5 936.769
848.5 1071.46
849.5 1055.38
850.5 1155.54
851.5 1064.31
852.5 1118.69
853.5 1105.23
854.5 1079.23
855.5 1235.23
856.5 1149.77
857.5 1041.77
858.5 1143
859.5 1092.15
860.5 1088.46
861.5 1228.08
862.5 1093.85
863.5 1080.92
864.5 1181.31
865.5 1163.15
866.5 1286.46
867.5 1222.15
868.5 1279.69
869.5 1312.15
870.5 1527.38
871.5 945.769
872.5 1111.54
873.5 1207.08
874.5 1157.54
875.5 1056.46
876.5 1223.62
877.5 970
878.5 1084.62
879.5 1173.69
880.5 1226.54
881.5 1064.62
882.5 1204.85
883.5 1175.38
884.5 1202.23
885.5 1225.15
886.5 1113.77
887.5 1149.46
888.5 1140.31
889.5 1264
890.5 1247.62
891.5 1388.69
892.5 1216.85
893.5 1335.46
894.5 1227.54
895.5 1233.23
896.5 1343.77
897.5 1315.08
898.5 1239.77
899.5 1311.69
900.5 1471.54
901.5 1203.08
902.5 1202.69
903.5 1311.62
904.5 1331.85
905.5 1568.08
906.5 1242.46
907.5 1346.62
908.5 1364.69
909.5 1335.31
910.5 1267.77
911.5 1403.54
912.5 1450.77
913.5 1439.31
914.5 1446.46
915.5 1196.69
916.5 1205.77
917.5 1451
918.5 1397
919.5 1335.62
920.5 1354.23
921.5 1260.85
922.5 1328.85
923.5 1480.46
924.5 1388.85
925.5 1314.77
926.5 1433.92
927.5 1368.15
928.5 1229.92
929.5 1352.23
930.5 1397.77
931.5 1380.69
932.5 1390.92
933.5 1286
934.5 1500.69
935.5 1203
936.5 1419.85
937.5 1360
938.5 1444.77
939.5 1145.15
940.5 1442.46
941.5 1234.77
942.5 1396.77
943.5 1530.46
944.5 1365.15
945.5 1225.92
946.5 1286.46
947.5 1056.62
948.5 1185.92
949.5 1169.62
950.5 1130.69
951.5 1173.23
952.5 1139.69
953.5 1163.77
954.5 1157.15
955.5 1085.77
956.5 1139.31
957.5 1073.46
958.5 1089.38
959.5 1063.54
960.5 1224.54
961.5 1072.23
962.5 987.692
963.5 1050.92
964.5 1069
965.5 980.231
966.5 927.385
967.5 950.154
968.5 976.385
969.5 964
970.5 950.538
971.5 895.615
972.5 1028.62
973.5 880.615
974.5 974.308
975.5 977
976.5 900.154
977.5 833.077
978.5 950.769
979.5 1004.69
980.5 996.308
981.5 1104.38
982.5 895.615
983.5 1036.54
984.5 985.231
985.5 907.846
986.5 854.462
987.5 914.846
988.5 1028
989.5 897.154
990.5 1043.54
991.5 888
992.5 876.846
993.5 908.923
994.5 963.769
995.5 999.385
996.5 786.692
997.5 894
998.5 925.385
999.5 956.923
1000.5 1420
1001.5 2057.77
1002.5 2090.23
1003.5 1372.08
1004.5 923.538
1005.5 1060.23
1006.5 829.308
1007.5 887.077
1008.5 856.462
1009.5 971
1010.5 777.923
1011.5 831.154
1012.5 821.462
1013.5 801.846
1014.5 794.615
1015.5 931
1016.5 805.462
1017.5 702.692
1018.5 859.538
1019.5 801.385
1020.5 728.385
1021.5 846.308
1022.5 696.462
1023.5 801.462
1024.5 906.385
1025.5 732.769
1026.5 742.308
1027.5 658.538
1028.5 674.462
1029.5 722.769
1030.5 691.154
1031.5 650
1032.5 688.923
1033.5 713.692
1034.5 710.538
1035.5 643.923
1036.5 716.692
1037.5 792
1038.5 621.538
1039.5 757.846
1040.5 686.615
1041.5 811.154
1042.5 700.923
1043.5 703.231
1044.5 616.385
1045.5 623.154
1046.5 622.538
1047.5 705.692
1048.5 576.538
1049.5 624.615
1050.5 621
1051.5 691.692
1052.5 624.385
1053.5 623.154
1054.5 632.846
1055.5 648.923
1056.5 551.308
1057.5 707.077
1058.5 470.769
1059.5 568
1060.5 560.769
1061.5 535.769
1062.5 738.385
1063.5 618.692
1064.5 676.154
1065.5 569.846
1066.5 741.077
1067.5 599.538
1068.5 657.923
1069.5 684.769
1070.5 635.462
1071.5 1075.77
1072.5 2245.46
1073.5 4550.62
1074.5 5486.08
1075.5 3126.77
1076.5 1146.85
1077.5 705.923
1078.5 635.769
1079.5 563.077
1080.5 588.308
1081.5 637
1082.5 691.538
1083.5 560.769
1084.5 466.385
1085.5 644.231
1086.5 590.692
1087.5 525.846
1088.5 567.538
1089.5 503
1090.5 714.462
1091.5 821.769
1092.5 768.615
1093.5 796.231
1094.5 645.077
1095.5 554.769
1096.5 623.385
1097.5 542.077
1098.5 661
1099.5 625.846
1100.5 576.923
1101.5 605.769
1102.5 653.923
1103.5 627.769
1104.5 435.462
1105.5 607.692
1106.5 589.923
1107.5 630.231
1108.5 637.923
1109.5 589.769
1110.5 624.615
1111.5 692.077
1112.5 585.077
1113.5 487.154
1114.5 556.846
1115.5 600
1116.5 705.769
1117.5 505.538
1118.5 733.154
1119.5 648.154
1120.5 583.615
1121.5 626.308
1122.5 1144.15
1123.5 3391.54
1124.5 10828.8
1125.5 25423.9
1126.5 29039.8
1127.5 12871.2
1128.5 3365.54
1129.5 1075.54
1130.5 688.923
1131.5 640.692
1132.5 538.231
1133.5 535.692
1134.5 582
1135.5 623.538
1136.5 515.769
1137.5 495.769
1138.5 603.846
1139.5 595.154
1140.5 495.462
1141.5 558.615
1142.5 544.923
1143.5 552.692
1144.5 594.769
1145.5 690.538
1146.5 637.231
1147.5 690
1148.5 584.231
1149.5 688.154
1150.5 747.308
1151.5 696.538
1152.5 841.538
1153.5 1933.92
1154.5 7438.62
1155.5 25768
1156.5 56365.2
1157.5 57602.5
1158.5 24096.8
1159.5 5390
1160.5 1305.31
1161.5 635.154
1162.5 540.615
1163.5 416.615
1164.5 341.692
1165.5 565.308
1166.5 499.385
1167.5 424.154
1168.5 494.462
1169.5 402.769
1170.5 437
1171.5 400.538
1172.5 432.769
1173.5 447.231
1174.5 346.538
1175.5 448.615
1176.5 430.154
1177.5 352.538
1178.5 426.692
1179.5 417.538
1180.5 435.692
1181.5 454.923
1182.5 356.308
1183.5 308.692
1184.5 384.538
1185.5 419.769
1186.5 471.308
1187.5 338
1188.5 592.231
1189.5 699.077
1190.5 1204.77
1191.5 1345.69
1192.5 827
1193.5 479.308
1194.5 383.154
1195.5 425.385
1196.5 381.154
1197.5 352.538
1198.5 333.846
1199.5 458.308
1200.5 427.231
1201.5 420.231
1202.5 437.231
1203.5 446.846
1204.5 367.231
1205.5 377.538
1206.5 436.769
1207.5 328.615
1208.5 388.538
1209.5 321.385
1210.5 352.154
1211.5 356.308
1212.5 441.154
1213.5 441.077
1214.5 371.154
1215.5 378.462
1216.5 423.077
1217.5 447.154
1218.5 414
1219.5 378.846
1220.5 346.385
1221.5 379.692
1222.5 361.846
1223.5 361.692
1224.5 368.923
1225.5 420.538
1226.5 365.077
1227.5 399.615
1228.5 339.846
1229.5 459.538
1230.5 296.538
1231.5 344.846
1232.5 400.308
1233.5 350
1234.5 360.231
1235.5 336.615
1236.5 350.923
1237.5 428.462
1238.5 386.308
1239.5 374.154
1240.5 513.385
1241.5 460.615
1242.5 489.308
1243.5 397.462
1244.5 418.462
1245.5 396.846
1246.5 301.308
1247.5 320.692
1248.5 358.154
1249.5 325.846
1250.5 381.077
1251.5 336.692
1252.5 328.154
1253.5 321.846
1254.5 382.308
1255.5 338.692
1256.5 405.231
1257.5 404.615
1258.5 390.077
1259.5 382.077
1260.5 384.538
1261.5 440.231
1262.5 432.538
1263.5 347.231
1264.5 392.692
1265.5 361.692
1266.5 399.923
1267.5 423.385
1268.5 377.923
1269.5 367.462
1270.5 371.692
1271.5 390.615
1272.5 340.308
1273.5 413.385
1274.5 409.615
1275.5 328.538
1276.5 434.692
1277.5 403.769
1278.5 309.154
1279.5 442.846
1280.5 291.308
1281.5 340.385
1282.5 262.692
1283.5 352.385
1284.5 363.308
1285.5 376.385
1286.5 347.385
1287.5 322.769
1288.5 225.769
1289.5 317.538
1290.5 402
1291.5 315.077
1292.5 342.846
1293.5 310
1294.5 332.538
1295.5 298.462
1296.5 305.615
1297.5 274.769
1298.5 435.615
1299.5 320.462
1300.5 314.846
1301.5 284.692
1302.5 312.846
1303.5 296.923
1304.5 271
1305.5 354.769
1306.5 354.692
1307.5 347.538
1308.5 194.769
1309.5 106.231
1310.5 297.385
1311.5 269.154
1312.5 201.615
1313.5 350.846
1314.5 320.769
1315.5 377.846
1316.5 268.385
1317.5 398.538
1318.5 374.462
1319.5 306.615
1320.5 251.308
1321.5 366.923
1322.5 249.923
1323.5 387.154
1324.5 303.231
1325.5 316.692
1326.5 330.769
1327.5 345.846
1328.5 268.231
1329.5 347.231
1330.5 435.154
1331.5 559.769
1332.5 380.692
1333.5 328.154
1334.5 282.462
1335.5 219.462
1336.5 282.077
1337.5 321.231
1338.5 275.462
1339.5 345.231
1340.5 331.615
1341.5 290.692
1342.5 234.462
1343.5 197
1344.5 306.615
1345.5 417.692
1346.5 353.538
1347.5 360.692
1348.5 240.231
1349.5 305
1350.5 401.923
1351.5 489.692
1352.5 667.154
1353.5 588.923
1354.5 403.692
1355.5 329.615
1356.5 353.385
1357.5 331.462
1358.5 296.385
1359.5 266.538
1360.5 316.077
1361.5 223.154
1362.5 318.692
1363.5 367.846
1364.5 334.308
1365.5 233.077
1366.5 284.154
1367.5 180.462
1368.5 311.769
1369.5 301
1370.5 273.538
1371.5 248.231
1372.5 365.154
1373.5 365.692
1374.5 426.692
1375.5 389.538
1376.5 470.923
1377.5 404.846
1378.5 385.077
1379.5 317.385
1380.5 317.769
1381.5 328.308
1382.5 273.923
1383.5 462.923
1384.5 790
1385.5 2392.23
1386.5 6382.77
1387.5 11834.1
1388.5 10337.8
1389.5 4054
1390.5 1102.08
1391.5 456.154
1392.5 265.769
1393.5 301
1394.5 266.846
1395.5 273.154
1396.5 318.308
1397.5 402.231
1398.5 299
1399.5 317.462
1400.5 340
1401.5 431.308
1402.5 357.154
1403.5 368.385
1404.5 295.615
1405.5 374.769
1406.5 283.923
1407.5 351.769
1408.5 358.769
1409.5 375.231
1410.5 289.846
1411.5 323.308
1412.5 265.615
1413.5 260.692
1414.5 190.538
1415.5 275.462
1416.5 191.538
1417.5 261.846
1418.5 264.923
1419.5 249
1420.5 258.923
1421.5 211.154
1422.5 301.769
1423.5 255.077
1424.5 294.692
1425.5 201.154
1426.5 247.077
1427.5 263.615
1428.5 253.385
1429.5 405.615
1430.5 312.692
1431.5 266.615
1432.5 259.077
1433.5 296.615
1434.5 233.462
1435.5 287.846
1436.5 306.615
1437.5 292.846
1438.5 219.308
1439.5 246.923
1440.5 276
1441.5 325.385
1442.5 230.538
1443.5 202.846
1444.5 298
1445.5 260.231
1446.5 213.769
1447.5 296.538
1448.5 276.154
1449.5 208.077
1450.5 292.538
1451.5 278.538
1452.5 290.538
1453.5 364
1454.5 376.385
1455.5 418
1456.5 352.077
1457.5 293
1458.5 344.077
1459.5 338
1460.5 252.846
1461.5 308.923
1462.5 251.308
1463.5 246.923
1464.5 325.769
1465.5 157.615
1466.5 280.538
1467.5 366.538
1468.5 290.385
1469.5 242.538
1470.5 281.154
1471.5 268.615
1472.5 300.385
1473.5 264.462
1474.5 226.462
1475.5 169.538
1476.5 216.692
1477.5 300.692
1478.5 304.923
1479.5 353.538
1480.5 309.846
1481.5 339.692
1482.5 187.692
1483.5 294.231
1484.5 279.538
1485.5 260.231
1486.5 268.692
1487.5 277.615
1488.5 238
1489.5 247.846
1490.5 325.385
1491.5 271.077
1492.5 226.538
1493.5 336.769
1494.5 289.462
1495.5 416.462
1496.5 708.231
1497.5 2063.46
1498.5 4853.62
1499.5 6762.08
1500.5 4341.62
1501.5 1757.77
1502.5 501.308
1503.5 302.769
1504.5 248.615
1505.5 226.538
1506.5 278.077
1507.5 348.692
1508.5 295.923
1509.5 362.462
1510.5 290.462
1511.5 263.231
1512.5 309.692
1513.5 175.538
1514.5 234.077
1515.5 260.385
1516.5 304.692
1517.5 187.231
1518.5 210.846
1519.5 241.154
1520.5 297.154
1521.5 177.538
1522.5 190.615
1523.5 252.231
1524.5 298.538
1525.5 273
1526.5 305.846
1527.5 196.154
1528.5 281.846
1529.5 330.923
1530.5 325.846
1531.5 201.692
1532.5 267.615
1533.5 334.846
1534.5 303.231
1535.5 208.077
1536.5 320.154
1537.5 245
1538.5 256.692
1539.5 182.615
1540.5 280.923
1541.5 237.462
1542.5 267
1543.5 271.077
1544.5 316.231
1545.5 288.154
1546.5 337.846
1547.5 259.846
1548.5 288.462
1549.5 284.462
1550.5 276.231
1551.5 275
1552.5 292.462
1553.5 248.385
1554.5 341.923
1555.5 273.154
1556.5 339
1557.5 202.923
1558.5 283.385
1559.5 246.538
1560.5 344.769
1561.5 268.231
1562.5 378.308
1563.5 286.154
1564.5 317.846
1565.5 301.385
1566.5 209.385
1567.5 268.769
1568.5 273.077
1569.5 338.462
1570.5 362.462
1571.5 429
1572.5 382.231
1573.5 379.769
1574.5 313.308
1575.5 273.154
1576.5 281.538
1577.5 418.923
1578.5 561.154
1579.5 682.692
1580.5 509.615
1581.5 418.923
1582.5 240.923
1583.5 288.846
1584.5 238.154
1585.5 188.231
1586.5 173.385
1587.5 214.538
1588.5 250.154
1589.5 173.385
1590.5 243.462
1591.5 228.846
1592.5 336.769
1593.5 291.462
1594.5 282.154
1595.5 330.385
1596.5 309.385
1597.5 308.231
1598.5 284.692
1599.5 221.462
1600.5 324.692
1601.5 307.692
1602.5 256.154
1603.5 285.154
1604.5 371.077
1605.5 271.769
1606.5 293.154
1607.5 268.538
1608.5 304.462
1609.5 253.308
1610.5 369.385
1611.5 304.615
1612.5 228.308
1613.5 266.846
1614.5 238.538
1615.5 293.538
1616.5 299.154
1617.5 242
1618.5 247.231
1619.5 303.462
1620.5 317.385
1621.5 303.923
1622.5 296.308
1623.5 244.923
1624.5 328.846
1625.5 238.385
1626.5 340.769
1627.5 336.846
1628.5 307.308
1629.5 361.923
1630.5 453.308
1631.5 361.769
1632.5 352
1633.5 395.077
1634.5 455.538
1635.5 277.231
1636.5 322.846
1637.5 378.077
1638.5 389.154
1639.5 333.923
1640.5 390
1641.5 337.308
1642.5 366.615
1643.5 305.538
1644.5 349.308
1645.5 291.231
1646.5 291.923
1647.5 337.077
1648.5 347.385
1649.5 328.385
1650.5 333.154
1651.5 349
1652.5 346.462
1653.5 363.462
1654.5 383.308
1655.5 359.154
1656.5 307.692
1657.5 281.538
1658.5 141
1659.5 212.692
1660.5 267.462
1661.5 297.846
1662.5 265.231
1663.5 349.538
1664.5 316.077
1665.5 284.846
1666.5 292.308
1667.5 262.538
1668.5 294.231
1669.5 356.615
1670.5 282.077
1671.5 224.077
1672.5 301.769
1673.5 237.692
1674.5 271.231
1675.5 276.769
1676.5 234.385
1677.5 221.769
1678.5 199.077
1679.5 252.769
1680.5 281.077
1681.5 223.231
1682.5 289.692
1683.5 306.538
1684.5 242.077
1685.5 283.615
1686.5 259.462
1687.5 319.769
1688.5 293.923
1689.5 205.385
1690.5 165.077
1691.5 281.846
1692.5 224.538
1693.5 305.077
1694.5 256.385
1695.5 278.538
1696.5 288.692
1697.5 397.615
1698.5 171.308
1699.5 310.692
1700.5 215.923
1701.5 248.308
1702.5 257.154
1703.5 305.308
1704.5 516.385
1705.5 665.077
1706.5 725.077
1707.5 487.231
1708.5 411.462
1709.5 223.538
1710.5 252.231
1711.5 211.538
1712.5 258.769
1713.5 259.462
1714.5 306.385
1715.5 211.462
1716.5 292.308
1717.5 408.231
1718.5 460.308
1719.5 279.077
1720.5 340.308
1721.5 260.154
1722.5 226.538
1723.5 180.231
1724.5 266.615
1725.5 255.692
1726.5 302.308
1727.5 218
1728.5 317
1729.5 255.308
1730.5 314
1731.5 341.923
1732.5 321.923
1733.5 244
1734.5 211.615
1735.5 236.077
1736.5 258.462
1737.5 305.462
1738.5 281.308
1739.5 343.077
1740.5 260
1741.5 335.615
1742.5 328.769
1743.5 262
1744.5 209.308
1745.5 158.154
1746.5 285.615
1747.5 210.769
1748.5 224.923
1749.5 212.385
1750.5 215.154
1751.5 143.923
1752.5 217.538
1753.5 190.077
1754.5 290.231
1755.5 243.462
1756.5 301.308
1757.5 281.923
1758.5 212.538
1759.5 200.077
1760.5 201.923
1761.5 206.385
1762.5 276.538
1763.5 188.538
1764.5 184.538
1765.5 198.846
1766.5 277.692
1767.5 191.462
1768.5 258.308
1769.5 339.231
1770.5 446.077
1771.5 744.462
1772.5 747.308
1773.5 610.154
1774.5 476.308
1775.5 224.692
1776.5 208.923
1777.5 180
1778.5 232.231
1779.5 254.615
1780.5 202.154
1781.5 206.231
1782.5 264.769
1783.5 168.154
1784.5 204.308
1785.5 242.846
1786.5 229.846
1787.5 281.692
1788.5 249.769
1789.5 198.538
1790.5 177.769
1791.5 204.154
1792.5 278.077
1793.5 215.615
1794.5 233.846
1795.5 236.077
1796.5 185.077
1797.5 297.462
1798.5 325.615
1799.5 295.077
1800.5 228.846
1801.5 231.154
1802.5 146.308
1803.5 221.923
1804.5 279.154
1805.5 248.615
1806.5 287.462
1807.5 392.538
1808.5 531
1809.5 410.462
1810.5 346.077
1811.5 189.846
1812.5 247.077
1813.5 182.538
1814.5 210.462
1815.5 220.615
1816.5 266.385
1817.5 305.846
1818.5 305.615
1819.5 301.154
1820.5 199.462
1821.5 200.846
1822.5 145.077
1823.5 298.308
1824.5 247.308
1825.5 240.077
1826.5 227.154
1827.5 211.923
1828.5 224.462
1829.5 238.923
1830.5 217
1831.5 261.462
1832.5 249.231
1833.5 240.846
1834.5 184.308
1835.5 164.846
1836.5 280.769
1837.5 281.231
1838.5 248.923
1839.5 190.615
1840.5 257.923
1841.5 245.154
1842.5 219.385
1843.5 316.692
1844.5 335.077
1845.5 262.385
1846.5 230.385
1847.5 210.846
1848.5 121.615
1849.5 237.231
1850.5 186.538
1851.5 211.077
1852.5 234.077
1853.5 243.769
1854.5 248.615
1855.5 226.769
1856.5 253.231
1857.5 288.846
1858.5 237
1859.5 209.769
1860.5 231.385
1861.5 227.692
1862.5 330.615
1863.5 197.846
1864.5 188.231
1865.5 197.462
1866.5 253.923
1867.5 214.846
1868.5 149.154
1869.5 244.462
1870.5 165.385
1871.5 270.769
1872.5 202.385
1873.5 276.615
1874.5 191.846
1875.5 261.385
1876.5 178.692
1877.5 168.769
1878.5 194.462
1879.5 212.846
1880.5 247.231
1881.5 226
1882.5 377.308
1883.5 774.385
1884.5 2276.62
1885.5 5584.15
1886.5 11025.6
1887.5 11378.7
1888.5 6308.85
1889.5 1865.08
1890.5 657.462
1891.5 257.615
1892.5 243.692
1893.5 178.846
1894.5 249.615
1895.5 184.923
1896.5 194.615
1897.5 146.692
1898.5 136.385
1899.5 179.615
1900.5 196.923
1901.5 146.385
1902.5 151.462
1903.5 230.615
1904.5 147.923
1905.5 168.769
1906.5 142.154
1907.5 216.615
1908.5 209.692
1909.5 266.923
1910.5 139.538
1911.5 188.769
1912.5 241.462
1913.5 168.462
1914.5 165.077
1915.5 188.769
1916.5 266
1917.5 312.769
1918.5 441.154
1919.5 355
1920.5 331.077
1921.5 335.692
1922.5 117.769
1923.5 247.385
1924.5 159.077
1925.5 201.308
1926.5 192.923
1927.5 296.923
1928.5 333.538
1929.5 343.462
1930.5 250.385
1931.5 184.154
1932.5 171.538
1933.5 132.308
1934.5 142.385
1935.5 240.462
1936.5 153.846
1937.5 182.846
1938.5 130.385
1939.5 178.308
1940.5 203.462
1941.5 168.385
1942.5 130.308
1943.5 160.231
1944.5 179.538
1945.5 296.692
1946.5 364
1947.5 310.615
1948.5 266.692
1949.5 256.077
1950.5 204.385
1951.5 272.923
1952.5 117.077
1953.5 167.615
1954.5 164.308
1955.5 119.923
1956.5 174.692
1957.5 275.923
1958.5 237.615
1959.5 389.538
1960.5 333.077
1961.5 220.308
1962.5 252.923
1963.5 233.846
1964.5 223.692
1965.5 80.1538
1966.5 175.231
1967.5 168.923
1968.5 160.846
1969.5 228.538
1970.5 238.231
1971.5 200.615
1972.5 172.231
1973.5 176.615
1974.5 138.692
1975.5 113.462
1976.5 152.308
1977.5 183.154
1978.5 153.615
1979.5 211.923
1980.5 135.154
1981.5 164.154
1982.5 176.308
1983.5 150
1984.5 220.231
1985.5 166.692
1986.5 191.692
1987.5 252.462
1988.5 155.692
1989.5 147.769
1990.5 156.385
1991.5 227.692
1992.5 329.615
1993.5 230.769
1994.5 203.615
1995.5 157.308
1996.5 82.2308
1997.5 121.846
1998.5 166.308
1999.5 98.5385
2000.5 161
2001.5 161
2002.5 172.154
2003.5 209.308
2004.5 210.538
2005.5 261.154
2006.5 242.923
2007.5 239.769
2008.5 184.154
2009.5 153.923
2010.5 188.385
2011.5 111.462
2012.5 154.692
2013.5 111.692
2014.5 68.2308
2015.5 304.923
2016.5 120.846
2017.5 169.923
2018.5 201.308
2019.5 165.154
2020.5 185.846
2021.5 174.231
2022.5 165.615
2023.5 148.615
2024.5 167.308
2025.5 204.231
2026.5 197.846
2027.5 235.462
2028.5 273.846
2029.5 392.462
2030.5 308.538
2031.5 226.615
2032.5 148.615
2033.5 97.6923
2034.5 128.308
2035.5 148.923
2036.5 157.231
2037.5 134.385
2038.5 204.538
2039.5 231.769
2040.5 311.846
2041.5 445
2042.5 697.923
2043.5 814.615
2044.5 762.538
2045.5 376.615
2046.5 184.769
2047.5 184.692
2048.5 184.154
2049.5 176.154
2050.5 126.231
2051.5 183.231
2052.5 122.615
2053.5 255.154
2054.5 82.3077
2055.5 145.692
2056.5 174.769
2057.5 137.231
2058.5 172.385
2059.5 196.385
2060.5 156.769
2061.5 178.692
2062.5 189
2063.5 185.462
2064.5 135.538
2065.5 96.9231
2066.5 135.154
2067.5 179.769
2068.5 170.231
2069.5 206.154
2070.5 163.385
2071.5 141.923
2072.5 150.462
2073.5 184.769
2074.5 166.692
2075.5 167.846
2076.5 163.615
2077.5 133.846
2078.5 178.077
2079.5 142.385
2080.5 181
2081.5 164.769
2082.5 160.538
2083.5 234.154
2084.5 226.154
2085.5 576.538
2086.5 1037.46
2087.5 1911.62
2088.5 2327.31
2089.5 1747.54
2090.5 788.231
2091.5 294.077
2092.5 193.077
2093.5 153.615
2094.5 141.923
2095.5 168.077
2096.5 183
2097.5 156.385
2098.5 199.077
2099.5 114.769
2100.5 270.923
2101.5 169.385
2102.5 183.462
2103.5 176.692
2104.5 71
2105.5 167.692
2106.5 178.615
2107.5 142.231
2108.5 189.154
2109.5 105.846
2110.5 180.308
2111.5 190.538
2112.5 218.923
2113.5 176.615
2114.5 115.615
2115.5 234.615
2116.5 157.154
2117.5 180.462
2118.5 217.769
2119.5 178.538
2120.5 190.692
2121.5 159.615
2122.5 266
2123.5 114.154
2124.5 157.385
2125.5 191.692
2126.5 179.923
2127.5 199.385
2128.5 202.308
2129.5 131.846
2130.5 157.692
2131.5 148.308
2132.5 132.308
2133.5 165.385
2134.5 140.692
2135.5 175.308
2136.5 135.077
2137.5 166.923
2138.5 150
2139.5 166.385
2140.5 87.7692
2141.5 116
2142.5 183.846
2143.5 179.923
2144.5 270.769
2145.5 194.846
2146.5 248.231
2147.5 194.769
2148.5 169.692
2149.5 283.923
2150.5 455.538
2151.5 327.462
2152.5 168.846
2153.5 182.308
2154.5 217.615
2155.5 248
2156.5 198.846
2157.5 221.615
2158.5 206
2159.5 167.154
2160.5 191.154
2161.5 357.692
2162.5 485.923
2163.5 678.077
2164.5 653.769
2165.5 338.308
2166.5 237.308
2167.5 197.538
2168.5 181.615
2169.5 194.615
2170.5 140.462
2171.5 186.077
2172.5 208.462
2173.5 117.923
2174.5 155.769
2175.5 134.615
2176.5 135.692
2177.5 148.846
2178.5 121.615
2179.5 85.6154
2180.5 93.6154
2181.5 185.231
2182.5 121.769
2183.5 153.615
2184.5 200.769
2185.5 221.538
2186.5 177.769
2187.5 273.154
2188.5 237.231
2189.5 210.923
2190.5 231.769
2191.5 231.231
2192.5 177.769
2193.5 155.923
2194.5 172.462
2195.5 220.385
2196.5 158.154
2197.5 217.692
2198.5 400.154
2199.5 687
2200.5 594.846
2201.5 352.538
2202.5 215
2203.5 203.154
2204.5 154
2205.5 145.231
2206.5 74.2308
2207.5 177.231
2208.5 93.7692
2209.5 119.231
2210.5 151.462
2211.5 164.154
2212.5 163
2213.5 139.154
2214.5 136.077
2215.5 147.538
2216.5 133.308
2217.5 137.077
2218.5 143.692
2219.5 168.846
2220.5 153.077
2221.5 228.385
2222.5 318.615
2223.5 323.615
2224.5 208.769
2225.5 138.231
2226.5 114.462
2227.5 161.231
2228.5 225.462
2229.5 118.846
2230.5 208.077
2231.5 215.231
2232.5 185.154
2233.5 140.692
2234.5 137.846
2235.5 117.385
2236.5 118
2237.5 213.154
2238.5 143.538
2239.5 156.154
2240.5 167.308
2241.5 151.615
2242.5 174.692
2243.5 92.6154
2244.5 160.923
2245.5 166.462
2246.5 131.615
2247.5 199.077
2248.5 168.385
2249.5 133.769
2250.5 170.923
2251.5 174.154
2252.5 198.692
2253.5 125.462
2254.5 176.077
2255.5 118.846
2256.5 117.231
2257.5 106.769
2258.5 126.692
2259.5 135.154
2260.5 114.308
2261.5 181.308
2262.5 129.615
2263.5 114.385
2264.5 110.231
2265.5 177.077
2266.5 133.385
2267.5 177.308
2268.5 196.308
2269.5 161.538
2270.5 196.615
2271.5 159.231
2272.5 181.462
2273.5 162.385
2274.5 128
2275.5 174.923
2276.5 118.923
2277.5 139.077
2278.5 166.231
2279.5 126.846
2280.5 206.615
2281.5 232.462
2282.5 209
2283.5 204.462
2284.5 97.3077
2285.5 208.462
2286.5 242.077
2287.5 335.462
2288.5 287
2289.5 232.308
2290.5 232.231
2291.5 176.769
2292.5 119.231
2293.5 64.7692
2294.5 119.385
2295.5 111.615
2296.5 137.077
2297.5 120.385
2298.5 132.692
2299.5 205.538
2300.5 191.692
2301.5 115.769
2302.5 190.615
2303.5 121.231
2304.5 139.154
2305.5 100.692
2306.5 116.154
2307.5 118.385
2308.5 201.231
2309.5 154.385
2310.5 153.462
2311.5 181.231
2312.5 81
2313.5 122.769
2314.5 183.923
2315.5 169.692
2316.5 153.846
2317.5 165.154
2318.5 136.846
2319.5 135.077
2320.5 109.923
2321.5 170.692
2322.5 193.846
2323.5 170.231
2324.5 188.308
2325.5 137.692
2326.5 139.692
2327.5 138.846
2328.5 96.0769
2329.5 70.3077
2330.5 178.231
2331.5 130.077
2332.5 208.615
2333.5 214.692
2334.5 244.077
2335.5 229.154
2336.5 325.462
2337.5 155.154
2338.5 176.769
2339.5 170.231
2340.5 165.154
2341.5 153.231
2342.5 130
2343.5 252.231
2344.5 186.615
2345.5 159
2346.5 193.615
2347.5 254.154
2348.5 373.692
2349.5 412.692
2350.5 398.385
2351.5 296.077
2352.5 287.154
2353.5 199.769
2354.5 173.231
2355.5 100.154
2356.5 105.385
2357.5 61.6154
2358.5 114.846
2359.5 91.8462
2360.5 105.769
2361.5 92.6154
2362.5 110.769
2363.5 142.769
2364.5 149.846
2365.5 156.154
2366.5 100
2367.5 135.692
2368.5 158.462
2369.5 153.231
2370.5 98.3077
2371.5 94.8462
2372.5 181.692
2373.5 114.077
2374.5 101.462
2375.5 124.231
2376.5 136.231
2377.5 187.308
2378.5 162.154
2379.5 164.308
2380.5 50.0769
2381.5 169.077
2382.5 97.3846
2383.5 78.9231
2384.5 127.231
2385.5 119.385
2386.5 168.308
2387.5 99.9231
2388.5 117.692
2389.5 126.692
2390.5 63.6154
2391.5 150.538
2392.5 149.538
2393.5 125.538
2394.5 143.231
2395.5 142.462
2396.5 140.077
2397.5 116.462
2398.5 97.6154
2399.5 121.692
2400.5 105.231
2401.5 150.308
2402.5 120.538
2403.5 149
2404.5 145.077
2405.5 131.385
2406.5 151.154
2407.5 125.692
2408.5 97.6154
2409.5 90.5385
2410.5 111.692
2411.5 138.615
2412.5 203.769
2413.5 153.846
2414.5 164.154
2415.5 184.615
2416.5 159
2417.5 161.462
2418.5 120.154
2419.5 104.077
2420.5 152.615
2421.5 138.077
2422.5 135.769
2423.5 120
2424.5 166.846
2425.5 172.231
2426.5 267.154
2427.5 602
2428.5 1064.77
2429.5 1834
2430.5 2786.54
2431.5 2774.69
2432.5 1773.08
2433.5 764.692
2434.5 282.385
2435.5 193.769
2436.5 79
2437.5 128.154
2438.5 60
2439.5 99.3846
2440.5 124.462
2441.5 118.692
2442.5 106.385
2443.5 90.9231
2444.5 149.615
2445.5 138.154
2446.5 112.231
2447.5 94.1538
2448.5 122.385
2449.5 115
2450.5 82.3846
2451.5 81.9231
2452.5 138.769
2453.5 113.692
2454.5 123
2455.5 143.846
2456.5 78.9231
2457.5 200.846
2458.5 119.231
2459.5 166.923
2460.5 93.7692
2461.5 121.692
2462.5 114.692
2463.5 137.538
2464.5 104.692
2465.5 91.3077
2466.5 142.077
2467.5 112.154
2468.5 85.9231
2469.5 166.692
2470.5 97.6154
2471.5 151.923
2472.5 142.385
2473.5 178.077
2474.5 236.231
2475.5 158.385
2476.5 240.923
2477.5 241.923
2478.5 227.077
2479.5 127
2480.5 193.462
2481.5 91.0769
2482.5 120.692
2483.5 146.231
2484.5 128.154
2485.5 138
2486.5 108
2487.5 145.231
2488.5 156.231
2489.5 92.3846
2490.5 109.692
2491.5 90.7692
2492.5 144.231
2493.5 144.846
2494.5 71.8462
2495.5 39.3846
2496.5 112.692
2497.5 66.6923
2498.5 125.154
2499.5 176.538
2500.5 206
2501.5 240.615
2502.5 288.846
2503.5 337.846
2504.5 324.077
2505.5 155.077
2506.5 210.538
2507.5 119.538
2508.5 103.462
2509.5 119.385
2510.5 132.077
2511.5 120.538
2512.5 129
2513.5 87.2308
2514.5 141
2515.5 70.3846
2516.5 117.769
2517.5 298.923
2518.5 337.615
2519.5 393.923
2520.5 219.231
2521.5 165.615
2522.5 148.231
2523.5 99.8462
2524.5 86.1538
2525.5 99.7692
2526.5 120.231
2527.5 137.615
2528.5 163.538
2529.5 125.769
2530.5 152.923
2531.5 123
2532.5 160.615
2533.5 176.923
2534.5 115.538
2535.5 142
2536.5 151.692
2537.5 152.769
2538.5 79.7692
2539.5 157.692
2540.5 146.154
2541.5 119.308
2542.5 108.923
2543.5 69.6923
2544.5 124
2545.5 187.462
2546.5 124.692
2547.5 136.615
2548.5 141.385
2549.5 199.615
2550.5 150.615
2551.5 226.154
2552.5 199.769
2553.5 226.462
2554.5 183.308
2555.5 205.154
2556.5 151.692
2557.5 99.6923
2558.5 80.5385
2559.5 141.154
2560.5 107.077
2561.5 158.615
2562.5 84.3077
2563.5 122.846
2564.5 125.231
2565.5 150.231
2566.5 158
2567.5 143.615
2568.5 115.154
2569.5 126.538
2570.5 155.538
2571.5 89.6923
2572.5 97.2308
2573.5 129.154
2574.5 157.077
2575.5 94.5385
2576.5 114
2577.5 68.6923
2578.5 160.385
2579.5 94.3846
2580.5 138.615
2581.5 81.3077
2582.5 143.462
2583.5 111.308
2584.5 121.923
2585.5 195.308
2586.5 194.308
2587.5 166.692
2588.5 267.385
2589.5 186.615
2590.5 119.308
2591.5 155.923
2592.5 85
2593.5 111.846
2594.5 114.231
2595.5 159.692
2596.5 127.385
2597.5 110.308
2598.5 190.692
2599.5 107.615
2600.5 171.154
2601.5 135.077
2602.5 165.538
2603.5 144.923
2604.5 170.769
2605.5 231.308
2606.5 253.615
2607.5 219.154
2608.5 173.077
2609.5 157.615
2610.5 166.538
2611.5 92.6923
2612.5 134.077
2613.5 93.9231
2614.5 140.462
2615.5 84.2308
2616.5 154.846
2617.5 135.692
2618.5 175.154
2619.5 207.923
2620.5 239.154
2621.5 148.154
2622.5 136.231
2623.5 165.077
2624.5 149.769
2625.5 109.154
2626.5 136.538
2627.5 117.615
2628.5 130.846
2629.5 123.692
2630.5 74.2308
2631.5 102.231
2632.5 58.1538
2633.5 57.5385
2634.5 80.3846
2635.5 102.615
2636.5 131.385
2637.5 109.231
2638.5 100.846
2639.5 106.154
2640.5 130.308
2641.5 91.7692
2642.5 137.385
2643.5 125.923
2644.5 126.077
2645.5 94.3077
2646.5 122.769
2647.5 136.462
2648.5 104.154
2649.5 157.846
2650.5 94.1538
2651.5 167.385
2652.5 173.769
2653.5 273.769
2654.5 360.077
2655.5 548.231
2656.5 606.231
2657.5 545.615
2658.5 306.308
2659.5 227.462
2660.5 128.385
2661.5 214.231
2662.5 148.538
2663.5 91.5385
2664.5 99
2665.5 145.154
2666.5 116.538
2667.5 181.385
2668.5 185.923
2669.5 301.154
2670.5 244.308
2671.5 257.231
2672.5 137.923
2673.5 147.231
2674.5 136.385
2675.5 100.462
2676.5 103.769
2677.5 59
2678.5 148.308
2679.5 96.3077
2680.5 97.5385
2681.5 98.7692
2682.5 62.9231
2683.5 56.7692
2684.5 126.077
2685.5 129.538
2686.5 94.9231
2687.5 61.3077
2688.5 54
2689.5 169
2690.5 136.154
2691.5 91.7692
2692.5 80.0769
2693.5 116.462
2694.5 185.615
2695.5 123.462
2696.5 113.308
2697.5 98.0769
2698.5 97.9231
2699.5 103.308
2700.5 136.769
2701.5 121.385
2702.5 125.769
2703.5 92.6923
2704.5 128.615
2705.5 108.154
2706.5 95.7692
2707.5 108
2708.5 90
2709.5 94.8462
2710.5 147.769
2711.5 121.923
2712.5 142.077
2713.5 103.385
2714.5 120.769
2715.5 111.154
2716.5 110.846
2717.5 136.769
2718.5 165.308
2719.5 175.692
2720.5 129.692
2721.5 156.615
2722.5 97.1538
2723.5 123.769
2724.5 123.154
2725.5 124.846
2726.5 117.231
2727.5 128.077
2728.5 96.0769
2729.5 166
2730.5 138.308
2731.5 95.6154
2732.5 114.231
2733.5 170.385
2734.5 167.538
2735.5 136.538
2736.5 133.769
2737.5 61.7692
2738.5 157.769
2739.5 150.077
2740.5 110.846
2741.5 143.462
2742.5 149.769
2743.5 56.1538
2744.5 117.538
2745.5 147.231
2746.5 98.3846
2747.5 67.6154
2748.5 162.231
2749.5 116
2750.5 172.615
2751.5 168.385
2752.5 126.769
2753.5 77.6154
2754.5 52.5385
2755.5 187.692
2756.5 169.308
2757.5 133.308
2758.5 116.385
2759.5 135.615
2760.5 117.462
2761.5 191.385
2762.5 81.3846
2763.5 133.538
2764.5 83.7692
2765.5 151.462
2766.5 187.538
2767.5 128.385
2768.5 91.9231
2769.5 136.846
2770.5 114.692
2771.5 100
2772.5 105.154
2773.5 152.308
2774.5 130
2775.5 115
2776.5 117.923
2777.5 102.846
2778.5 134.462
2779.5 160.846
2780.5 78.1538
2781.5 109.769
2782.5 93.4615
2783.5 165.538
2784.5 27.9231
2785.5 129.308
2786.5 145.615
2787.5 86
2788.5 86.7692
2789.5 102.231
2790.5 98.5385
2791.5 111.538
2792.5 74.6154
2793.5 93.6154
2794.5 136.154
2795.5 110
2796.5 127.077
2797.5 73.4615
2798.5 163.308
2799.5 68.8462
2800.5 187.231
2801.5 174.846
2802.5 83.8462
2803.5 145.769
2804.5 70.8462
2805.5 98.0769
2806.5 104
2807.5 108.462
2808.5 106
2809.5 59.8462
2810.5 61.8462
2811.5 152.769
2812.5 94.3846
2813.5 151.846
2814.5 120.231
2815.5 106.846
2816.5 114.538
2817.5 147.769
2818.5 85
2819.5 141.077
2820.5 107.231
2821.5 145.846
2822.5 179.231
2823.5 112.923
2824.5 145.846
2825.5 99.3077
2826.5 94
2827.5 98.6923
2828.5 147
2829.5 103.538
2830.5 148.231
2831.5 150.308
2832.5 129.692
2833.5 116.769
2834.5 95.3077
2835.5 71
2836.5 87.6923
2837.5 98.6154
2838.5 115.385
2839.5 118.385
2840.5 150.308
2841.5 126.846
2842.5 246.538
2843.5 278.538
2844.5 526.769
2845.5 753.231
2846.5 1162
2847.5 1018.38
2848.5 658
2849.5 240.077
2850.5 143.615
2851.5 111.846
2852.5 130.385
2853.5 79.3846
2854.5 111.538
2855.5 117.231
2856.5 107.462
2857.5 66.3846
2858.5 101.154
2859.5 55.6154
2860.5 115.923
2861.5 110.077
2862.5 71.8462
2863.5 71.0769
2864.5 81.5385
2865.5 91.7692
2866.5 137.538
2867.5 127.077
2868.5 147.846
2869.5 112.923
2870.5 112.462
2871.5 119.692
2872.5 102.923
2873.5 99.8462
2874.5 102.308
2875.5 92.8462
2876.5 70.1538
2877.5 97.7692
2878.5 115.846
2879.5 95.4615
2880.5 112.462
2881.5 95.3846
2882.5 98.3846
2883.5 59.9231
2884.5 85.1538
2885.5 89.0769
2886.5 133.308
2887.5 66.6923
2888.5 129.231
2889.5 70.3077
2890.5 76.8462
2891.5 91.4615
2892.5 124.154
2893.5 136.462
2894.5 140.154
2895.5 78.4615
2896.5 90.8462
2897.5 99.7692
2898.5 75.4615
2899.5 84.9231
2900.5 32.7692
2901.5 130.154
2902.5 72.3846
2903.5 82.1538
2904.5 93.8462
2905.5 86.0769
2906.5 69.5385
2907.5 115.538
2908.5 123.923
2909.5 147.692
2910.5 116
2911.5 86.8462
2912.5 142.538
2913.5 147.769
2914.5 116.846
2915.5 99.5385
2916.5 84.6923
2917.5 53.9231
2918.5 115.846
2919.5 92.3846
2920.5 108.385
2921.5 72.3077
2922.5 86.3846
2923.5 74.6154
2924.5 122.154
2925.5 56.7692
2926.5 106.769
2927.5 73
2928.5 36.2308
2929.5 109.615
2930.5 68
2931.5 103.154
2932.5 76.7692
2933.5 107.538
2934.5 109.385
2935.5 127.462
2936.5 126.077
2937.5 107.385
2938.5 102.846
2939.5 84.3077
2940.5 77.8462
2941.5 70.7692
2942.5 137.846
2943.5 107.154
2944.5 74.9231
2945.5 74.9231
2946.5 177.385
2947.5 175.462
2948.5 143.308
2949.5 100
2950.5 97.3846
2951.5 150.615
2952.5 154.769
2953.5 36.6154
2954.5 116.846
2955.5 100.769
2956.5 120.615
2957.5 90.6154
2958.5 93.7692
2959.5 81.6154
2960.5 110.308
2961.5 128.538
2962.5 46.5385
2963.5 128.308
2964.5 43.1538
2965.5 76.4615
2966.5 131.692
2967.5 79.7692
2968.5 108.385
2969.5 97.5385
2970.5 81.6923
2971.5 41.0769
2972.5 150.077
2973.5 93.8462
2974.5 150.538
2975.5 86.2308
2976.5 105
2977.5 65.6923
2978.5 94.3846
2979.5 129.231
2980.5 141.846
2981.5 117.769
2982.5 70.0769
2983.5 76.9231
2984.5 63
2985.5 81.1538
2986.5 65.2308
2987.5 78.9231
2988.5 99.4615
2989.5 99
2990.5 109.462
2991.5 67.3077
2992.5 96.3077
2993.5 58.0769
2994.5 111.462
2995.5 117.692
2996.5 97.4615
2997.5 90.9231
2998.5 49.3846
2999.5 82.3077
3000.5 78.6923
3001.5 103.231
3002.5 64.3077
3003.5 102.385
3004.5 120.692
3005.5 81.8462
3006.5 140.462
3007.5 102.538
3008.5 160.154
3009.5 215.385
3010.5 320.077
3011.5 649.308
3012.5 1236.46
3013.5 2011.38
3014.5 2629.92
3015.5 2348.31
3016.5 1296.92
3017.5 516.538
3018.5 222.308
3019.5 94.2308
3020.5 117.615
3021.5 41.3077
3022.5 58.7692
3023.5 56.3846
3024.5 94.8462
3025.5 96.3846
3026.5 114.385
3027.5 72
3028.5 159.923
3029.5 187.154
3030.5 180.385
3031.5 249
3032.5 245.538
3033.5 206.923
3034.5 145.077
3035.5 69.7692
3036.5 216.385
3037.5 277.385
3038.5 270.769
3039.5 199.385
3040.5 114.923
3041.5 77.9231
3042.5 124
3043.5 113.154
3044.5 23.7692
3045.5 76.1538
3046.5 69.2308
3047.5 52.3077
3048.5 103.231
3049.5 132.538
3050.5 189.385
3051.5 238.077
3052.5 233.462
3053.5 174.077
3054.5 110.462
3055.5 77.5385
3056.5 65.3846
3057.5 108.077
3058.5 69.2308
3059.5 65.9231
3060.5 102.462
3061.5 54.6154
3062.5 32.6923
3063.5 105.846
3064.5 93.3846
3065.5 68.2308
3066.5 72.5385
3067.5 79.4615
3068.5 76.6154
3069.5 52.1538
3070.5 51.9231
3071.5 48
3072.5 27
3073.5 59.5385
3074.5 118.846
3075.5 101.538
3076.5 77.2308
3077.5 59
3078.5 100.154
3079.5 109.231
3080.5 123.846
3081.5 71.3077
3082.5 56.9231
3083.5 62.7692
3084.5 117.923
3085.5 21.2308
3086.5 103.769
3087.5 113.923
3088.5 66.4615
3089.5 109.154
3090.5 94.4615
3091.5 85.2308
3092.5 97.3077
3093.5 121.385
3094.5 78.6923
3095.5 91.8462
3096.5 45.2308
3097.5 103.923
3098.5 99.3077
3099.5 40.3077
3100.5 110.154
3101.5 68.4615
3102.5 -0.307694
3103.5 72
3104.5 137.769
3105.5 163.846
3106.5 133.923
3107.5 131.385
3108.5 185.692
3109.5 148.846
3110.5 195.231
3111.5 128
3112.5 25.6923
3113.5 93.5385
3114.5 97.2308
3115.5 117.462
3116.5 89.5385
3117.5 84.1538
3118.5 102.077
3119.5 130.308
3120.5 83.2308
3121.5 31.3077
3122.5 70.4615
3123.5 34.6154
3124.5 87.3077
3125.5 88.9231
3126.5 60.0769
3127.5 61.5385
3128.5 75.6154
3129.5 39.8462
3130.5 83.9231
3131.5 108.615
3132.5 72.3846
3133.5 50.8462
3134.5 32.1538
3135.5 84.3077
3136.5 53.3077
3137.5 98.1538
3138.5 92.5385
3139.5 102.692
3140.5 77.7692
3141.5 32.1538
3142.5 89.3077
3143.5 40.3846
3144.5 123.077
3145.5 105.231
3146.5 62.6923
3147.5 66.7692
3148.5 75.6923
3149.5 101.231
3150.5 120.077
3151.5 91.9231
3152.5 87.3846
3153.5 54.8462
3154.5 85
3155.5 92.6154
3156.5 60.3077
3157.5 -5.76923
3158.5 45.7692
3159.5 75.4615
3160.5 55.6154
3161.5 56.4615
3162.5 52.3077
3163.5 125.692
3164.5 109.923
3165.5 23.6154
3166.5 108.154
3167.5 58.8462
3168.5 94.6154
3169.5 56
3170.5 110.462
3171.5 77.3077
3172.5 112.615
3173.5 97.8462
3174.5 94.3846
3175.5 131.692
3176.5 97.3077
3177.5 122.538
3178.5 71.1538
3179.5 89.7692
3180.5 85.4615
3181.5 54.5385
3182.5 42.1538
3183.5 126.769
3184.5 42
3185.5 131.385
3186.5 76.4615
3187.5 138.769
3188.5 110.538
3189.5 95.5385
3190.5 111.538
3191.5 100.231
3192.5 118.231
3193.5 134.769
3194.5 42.2308
3195.5 85.5385
3196.5 92.9231
3197.5 86.4615
3198.5 46.3846
3199.5 53.4615
3200.5 44.8462
3201.5 73.0769
3202.5 109.923
3203.5 80.7692
3204.5 148.385
3205.5 138.231
3206.5 239.462
3207.5 163.077
3208.5 121.615
3209.5 93.7692
3210.5 69.0769
3211.5 82.1538
3212.5 106
3213.5 79.3846
3214.5 93.9231
3215.5 85.5385
3216.5 96.2308
3217.5 50
3218.5 55.7692
3219.5 103.077
3220.5 79.9231
3221.5 92.9231
3222.5 81.3077
3223.5 86.9231
3224.5 57.0769
3225.5 54.6154
3226.5 66.5385
3227.5 119.462
3228.5 67.2308
3229.5 72.8462
3230.5 72.0769
3231.5 73.4615
3232.5 42.3846
3233.5 116.231
3234.5 59.5385
3235.5 98.3077
3236.5 116.692
3237.5 113.692
3238.5 124.462
3239.5 149.308
3240.5 90.9231
3241.5 175.308
3242.5 157.385
3243.5 117.154
3244.5 50.2308
3245.5 69.6923
3246.5 71.6154
3247.5 47.6154
3248.5 121.385
3249.5 108.231
3250.5 57.0769
3251.5 122.462
3252.5 26.6923
3253.5 67.9231
3254.5 86
3255.5 142.154
3256.5 62.0769
3257.5 135.385
3258.5 160.154
3259.5 200.769
3260.5 210.538
3261.5 139.308
3262.5 103.308
3263.5 155.538
3264.5 104.923
3265.5 101.077
3266.5 75.5385
3267.5 91.3077
3268.5 46
3269.5 6.07692
3270.5 82.3077
3271.5 96.0769
3272.5 84.9231
3273.5 62.4615
3274.5 117.385
3275.5 94.6923
3276.5 62.2308
3277.5 74.1538
3278.5 34.3846
3279.5 104.385
3280.5 69.4615
3281.5 69.7692
3282.5 64.9231
3283.5 109.231
3284.5 82.3846
3285.5 118.308
3286.5 111.154
3287.5 82.3846
3288.5 116.385
3289.5 78.0769
3290.5 90.8462
3291.5 84.4615
3292.5 107.154
3293.5 53.6154
3294.5 72.9231
3295.5 58.5385
3296.5 90.6923
3297.5 79.7692
3298.5 89.6154
3299.5 77.1538
3300.5 52.3077
3301.5 96.0769
3302.5 36.6923
3303.5 99.1538
3304.5 87.6923
3305.5 98.5385
3306.5 59.5385
3307.5 69.3846
3308.5 119.462
3309.5 39.2308
3310.5 76
3311.5 49
3312.5 99.8462
3313.5 98.1538
3314.5 133.923
3315.5 82.7692
3316.5 49.7692
3317.5 91.0769
3318.5 99.2308
3319.5 31.8462
3320.5 60.4615
3321.5 59.2308
3322.5 54.3846
3323.5 87.6154
3324.5 60.5385
3325.5 60.3846
3326.5 41.6154
3327.5 99.9231
3328.5 101.769
3329.5 75.5385
3330.5 138.462
3331.5 55.1538
3332.5 109.308
3333.5 102.308
3334.5 81.6154
3335.5 69.6923
3336.5 81.8462
3337.5 76
3338.5 76.6154
3339.5 89.8462
3340.5 74.3077
3341.5 57.0769
3342.5 89.4615
3343.5 80.6154
3344.5 75.4615
3345.5 76.6154
3346.5 78.1538
3347.5 48.3846
3348.5 68.0769
3349.5 95.6154
3350.5 54.7692
3351.5 78.3077
3352.5 106.231
3353.5 110.154
3354.5 157.308
3355.5 128.385
3356.5 97.2308
3357.5 125.385
3358.5 125.615
3359.5 126.769
3360.5 99.1538
3361.5 117.692
3362.5 79.3846
3363.5 71.1538
3364.5 74.9231
3365.5 100.462
3366.5 107.154
3367.5 113.923
3368.5 102
3369.5 55.1538
3370.5 37.3077
3371.5 100.769
3372.5 61.6154
3373.5 69.6154
3374.5 103.923
3375.5 67
3376.5 91.3077
3377.5 87.6154
3378.5 91
3379.5 90.9231
3380.5 76.1538
3381.5 77.6923
3382.5 22.9231
3383.5 60.4615
3384.5 67.5385
3385.5 86
3386.5 82.3077
3387.5 115.692
3388.5 131.538
3389.5 129.308
3390.5 88.5385
3391.5 69.0769
3392.5 105.846
3393.5 22
3394.5 70.5385
3395.5 78.2308
3396.5 120.077
3397.5 79.8462
3398.5 74.4615
3399.5 100.385
3400.5 80.4615
3401.5 109.462
3402.5 43.4615
3403.5 24.3077
3404.5 99.9231
3405.5 77.3846
3406.5 75.9231
3407.5 104.769
3408.5 85.6154
3409.5 93.8462
3410.5 80.5385
3411.5 38.2308
3412.5 86.8462
3413.5 30.4615
3414.5 104.923
3415.5 100.538
3416.5 91.8462
3417.5 48.6923
3418.5 92.6923
3419.5 97.7692
3420.5 62.6154
3421.5 54.3077
3422.5 68.8462
3423.5 39.5385
3424.5 71.9231
3425.5 102.846
3426.5 98.8462
3427.5 104.538
3428.5 136.923
3429.5 127.769
3430.5 65.6923
3431.5 81.9231
3432.5 123.538
3433.5 151.769
3434.5 275.923
3435.5 233.769
3436.5 181.923
3437.5 189.385
3438.5 137.462
3439.5 166.077
3440.5 68.1538
3441.5 81.7692
3442.5 69.1538
3443.5 100.923
3444.5 130
3445.5 98.3846
3446.5 52.5385
3447.5 105.615
3448.5 79.5385
3449.5 142.769
3450.5 101.769
3451.5 77.6923
3452.5 116.692
3453.5 68.0769
3454.5 84.8462
3455.5 63.3846
3456.5 36.9231
3457.5 103.154
3458.5 113.462
3459.5 140.615
3460.5 204.923
3461.5 202.769
3462.5 151.615
3463.5 134.769
3464.5 68.9231
3465.5 103
3466.5 92.3846
3467.5 97
3468.5 117.923
3469.5 83.9231
3470.5 35.8462
3471.5 72.6154
3472.5 77.1538
3473.5 50
3474.5 53.4615
3475.5 52.8462
3476.5 99.3846
3477.5 78.6154
3478.5 122.077
3479.5 20.3846
3480.5 97.1538
3481.5 101.154
3482.5 74.3846
3483.5 74.2308
3484.5 90.3846
3485.5 88.5385
3486.5 133.923
3487.5 46.9231
3488.5 58
3489.5 87.3077
3490.5 96.6923
3491.5 130.077
3492.5 110.769
3493.5 164.385
3494.5 165.538
3495.5 101.231
3496.5 136.692
3497.5 99.7692
3498.5 59.9231
3499.5 44.2308
3500.5 112.385
3501.5 106.077
3502.5 85.6923
3503.5 96.9231
3504.5 50.6154
3505.5 147.923
3506.5 97.7692
3507.5 100.538
3508.5 174.308
3509.5 153.538
3510.5 103.692
3511.5 102.154
3512.5 96.3846
3513.5 80
3514.5 84.9231
3515.5 87.8462
3516.5 141.769
3517.5 135.615
3518.5 78.6154
3519.5 80.3846
3520.5 105.231
3521.5 34.6923
3522.5 43.3077
3523.5 65.6923
3524.5 74.6923
3525.5 120.692
3526.5 52.3077
3527.5 53.7692
3528.5 66.2308
3529.5 70.9231
3530.5 -10.3077
3531.5 -8.15385
3532.5 6.69231
3533.5 16.6923
3534.5 90.9231
3535.5 73.3077
3536.5 30.3846
3537.5 52.6154
3538.5 115.308
3539.5 80.0769
3540.5 46.8462
3541.5 87.4615
3542.5 108.692
3543.5 161
3544.5 144.231
3545.5 135.231
3546.5 124
3547.5 67.8462
3548.5 73.3077
3549.5 44.6923
3550.5 121.538
3551.5 105.385
3552.5 99.1538
3553.5 67
3554.5 57.3846
3555.5 39.7692
3556.5 63.1538
3557.5 130.846
3558.5 76.9231
3559.5 123.615
3560.5 79.3846
3561.5 97.0769
3562.5 83
3563.5 61
3564.5 62.7692
3565.5 105.846
3566.5 78.3077
3567.5 78.7692
3568.5 89.8462
3569.5 30.5385
3570.5 51.3846
3571.5 69.6923
3572.5 70.8462
3573.5 82.6923
3574.5 42.3077
3575.5 66.2308
3576.5 68.8462
3577.5 54.3846
3578.5 106.154
3579.5 80.8462
3580.5 78.3846
3581.5 121.385
3582.5 57.2308
3583.5 115.385
3584.5 82.7692
3585.5 82
3586.5 93.5385
3587.5 80.2308
3588.5 80
3589.5 119.923
3590.5 73.2308
3591.5 66.9231
3592.5 98.6154
3593.5 115
3594.5 123.077
3595.5 48.1538
3596.5 96.7692
3597.5 51.4615
3598.5 66.4615
3599.5 28.6154
3600.5 79.5385
3601.5 86.9231
3602.5 75.9231
3603.5 90.1538
3604.5 84.1538
3605.5 79.6923
3606.5 65.6923
3607.5 67.9231
3608.5 92.8462
3609.5 76.1538
3610.5 49.4615
3611.5 90.3846
3612.5 81.4615
3613.5 74
3614.5 79.5385
3615.5 101.308
3616.5 69.8462
3617.5 61.6923
3618.5 107.615
3619.5 184.692
3620.5 246.692
3621.5 326.154
3622.5 297.692
3623.5 188.231
3624.5 126.846
3625.5 132.231
3626.5 45.8462
3627.5 90.2308
3628.5 103.077
3629.5 50.9231
3630.5 75.5385
3631.5 46.8462
3632.5 32.5385
3633.5 56.3846
3634.5 47.3077
3635.5 75.3077
3636.5 98.4615
3637.5 62.9231
3638.5 72.3077
3639.5 108.154
3640.5 76.4615
3641.5 110.231
3642.5 87.3077
3643.5 87.3077
3644.5 51.1538
3645.5 73.6154
3646.5 93
3647.5 81.9231
3648.5 122.538
3649.5 99.0769
3650.5 72.3077
3651.5 134.385
3652.5 84.6923
3653.5 104.462
3654.5 72.6154
3655.5 137.923
3656.5 67
3657.5 64.3846
3658.5 97.8462
3659.5 71.5385
3660.5 56.2308
3661.5 26.9231
3662.5 67.2308
3663.5 57.7692
3664.5 78.3846
3665.5 70.3077
3666.5 62.5385
3667.5 77.2308
3668.5 61.5385
3669.5 123.615
3670.5 132.769
3671.5 144.538
3672.5 107.769
3673.5 151.769
3674.5 120.538
3675.5 132.923
3676.5 127.692
3677.5 69.7692
3678.5 84.5385
3679.5 104.385
3680.5 84.6923
3681.5 60.1538
3682.5 97.6154
3683.5 72.9231
3684.5 90.7692
3685.5 107.769
3686.5 89.4615
3687.5 58.5385
3688.5 89.7692
3689.5 66.3846
3690.5 105.538
3691.5 76.8462
3692.5 59.9231
3693.5 46.0769
3694.5 79.8462
3695.5 95.7692
3696.5 93.7692
3697.5 75.5385
3698.5 49.1538
3699.5 79.7692
3700.5 147.538
3701.5 94.3077
3702.5 83.5385
3703.5 46.3077
3704.5 61.2308
3705.5 82.0769
3706.5 53.5385
3707.5 54.0769
3708.5 88.6923
3709.5 85.2308
3710.5 79.6154
3711.5 95.8462
3712.5 65.0769
3713.5 102.538
3714.5 153.077
3715.5 84.6154
3716.5 126.846
3717.5 115.615
3718.5 95.7692
3719.5 96.1538
3720.5 82.3846
3721.5 99.9231
3722.5 57.6923
3723.5 143.769
3724.5 99.3077
3725.5 57.2308
3726.5 108.077
3727.5 123.231
3728.5 80.3846
3729.5 71.4615
3730.5 99.1538
3731.5 106.231
3732.5 89.7692
3733.5 57.7692
3734.5 80.1538
3735.5 132.769
3736.5 39.3846
3737.5 88.7692
3738.5 65.0769
3739.5 106.077
3740.5 81.9231
3741.5 95.6923
3742.5 47.6923
3743.5 119.538
3744.5 87.1538
3745.5 101.538
3746.5 122.308
3747.5 91
3748.5 104.769
3749.5 75.7692
3750.5 74
3751.5 67.8462
3752.5 105.231
3753.5 94.6923
3754.5 60.6923
3755.5 96.2308
3756.5 36.3846
3757.5 36.5385
3758.5 64.6154
3759.5 82.3846
3760.5 91.1538
3761.5 90.1538
3762.5 111.385
3763.5 60.1538
3764.5 69.5385
3765.5 92.6923
3766.5 86.9231
3767.5 67.2308
3768.5 79.7692
3769.5 73.3846
3770.5 76.7692
3771.5 30.1538
3772.5 96.6923
3773.5 82.5385
3774.5 71.0769
3775.5 82.5385
3776.5 66.6923
3777.5 70.1538
3778.5 68.3846
3779.5 75.6923
3780.5 70.6923
3781.5 69.6154
3782.5 59.7692
3783.5 87.5385
3784.5 79.2308
3785.5 98.2308
3786.5 72.0769
3787.5 107.769
3788.5 70
3789.5 39.9231
3790.5 78.9231
3791.5 115.308
3792.5 76.4615
3793.5 68.0769
3794.5 91.3077
3795.5 93.6923
3796.5 68.8462
3797.5 79.6154
3798.5 74.7692
3799.5 55.6923
3800.5 38.4615
3801.5 64
3802.5 126.769
3803.5 89.1538
3804.5 100.923
3805.5 49.5385
3806.5 66.2308
3807.5 54.3077
3808.5 119.769
3809.5 128.923
3810.5 104.308
3811.5 97.7692
3812.5 48.4615
3813.5 90.3846
3814.5 78.7692
3815.5 57
3816.5 79.0769
3817.5 64.6923
3818.5 106.308
3819.5 51.3846
3820.5 82.9231
3821.5 92.4615
3822.5 33.6154
3823.5 126.077
3824.5 79.5385
3825.5 92.6923
3826.5 56.8462
3827.5 70.6923
3828.5 77.3077
3829.5 54.2308
3830.5 63.6154
3831.5 83.6923
3832.5 61.2308
3833.5 49.6923
3834.5 73.6923
3835.5 57.4615
3836.5 74
3837.5 42.9231
3838.5 51.9231
3839.5 28.3846
3840.5 73.0769
3841.5 117
3842.5 69.0769
3843.5 83.0769
3844.5 76.0769
3845.5 92.9231
3846.5 84.5385
3847.5 97.8462
3848.5 8.61538
3849.5 55.4615
3850.5 91.2308
3851.5 80.8462
3852.5 56.9231
3853.5 113.385
3854.5 132.385
3855.5 78.2308
3856.5 68
3857.5 85.9231
3858.5 99.6154
3859.5 83.0769
3860.5 83.7692
3861.5 77.2308
3862.5 78.1538
3863.5 85.3846
3864.5 74.4615
3865.5 110.308
3866.5 127.769
3867.5 155.769
3868.5 153.154
3869.5 241.769
3870.5 235.538
3871.5 221.923
3872.5 144.154
3873.5 180.154
3874.5 116.923
3875.5 119.077
3876.5 161.154
3877.5 134.769
3878.5 91.3846
3879.5 47.5385
3880.5 102.692
3881.5 81.7692
3882.5 81.3077
3883.5 83.8462
3884.5 59.3077
3885.5 58.7692
3886.5 51.6923
3887.5 71.3077
3888.5 97.0769
3889.5 92.0769
3890.5 105
3891.5 102
3892.5 136.154
3893.5 135.308
3894.5 101.077
3895.5 72.0769
3896.5 95
3897.5 99.3077
3898.5 50.9231
3899.5 103.692
3900.5 91.8462
3901.5 149.846
3902.5 234.462
3903.5 181.462
3904.5 150.154
3905.5 116.615
3906.5 90.6154
3907.5 108.846
3908.5 73.4615
3909.5 82.5385
3910.5 49.0769
3911.5 52.1538
3912.5 78.7692
3913.5 61.2308
3914.5 40.5385
3915.5 49.6154
3916.5 89.7692
3917.5 89.5385
3918.5 54.1538
3919.5 71.8462
3920.5 44.0769
3921.5 113.692
3922.5 76.3846
3923.5 50.8462
3924.5 82.6154
3925.5 65
3926.5 65.3077
3927.5 78.3077
3928.5 63
3929.5 50.1538
3930.5 26.8462
3931.5 57
3932.5 63.4615
3933.5 41
3934.5 110.154
3935.5 59.2308
3936.5 85.1538
3937.5 78.2308
3938.5 62.6923
3939.5 114.077
3940.5 104.308
3941.5 125.385
3942.5 209.154
3943.5 251.462
3944.5 381.692
3945.5 485.077
3946.5 532.308
3947.5 456.769
3948.5 352.308
3949.5 169.692
3950.5 158.923
3951.5 91.1538
3952.5 73.8462
3953.5 50.5385
3954.5 73.7692
3955.5 163.692
3956.5 99.2308
3957.5 139.846
3958.5 153.462
3959.5 148.615
3960.5 121.615
3961.5 83.3077
3962.5 69.8462
3963.5 89.1538
3964.5 74.1538
3965.5 110.231
3966.5 54.3077
3967.5 145.385
3968.5 102
3969.5 199.615
3970.5 390
3971.5 510.846
3972.5 641.154
3973.5 599.462
3974.5 437.231
3975.5 235
3976.5 163.154
3977.5 141
3978.5 70.3846
3979.5 86.9231
3980.5 89.6923
3981.5 76.8462
3982.5 60.1538
3983.5 52.2308
3984.5 70.7692
3985.5 52.4615
3986.5 78.6154
3987.5 68.6923
3988.5 40.0769
3989.5 79.0769
3990.5 60.6154
3991.5 92.9231
3992.5 143.308
3993.5 108.769
3994.5 121.615
3995.5 282.692
3996.5 232.308
3997.5 206.385
3998.5 154.846
3999.5 74.2308
4000.5 67.0769
4001.5 61.4615
4002.5 53.3077
4003.5 77.1538
4004.5 66.9231
4005.5 55.2308
4006.5 46.5385
4007.5 56.3846
4008.5 70
4009.5 38.2308
4010.5 92.6154
4011.5 115.538
4012.5 39.1538
4013.5 38
4014.5 60.0769
4015.5 75.8462
4016.5 63.6923
4017.5 51.4615
4018.5 94.5385
4019.5 53.3846
4020.5 45.4615
4021.5 41
4022.5 37
4023.5 37.3846
4024.5 -6.53846
4025.5 -38.3077
4026.5 11.6154
4027.5 23
4028.5 34.2308
4029.5 24.1538
4030.5 44
4031.5 23.7692
4032.5 29.6154
4033.5 60.3077
4034.5 44.5385
4035.5 38.1538
4036.5 35.6923
4037.5 23.4615
4038.5 68.0769
4039.5 97.1538
4040.5 74.9231
4041.5 14.1538
4042.5 93.3077
4043.5 60.0769
4044.5 71.5385
4045.5 59.5385
4046.5 99.6154
4047.5 84.7692
4048.5 95.3077
4049.5 32.5385
4050.5 91.3846
4051.5 125.154
4052.5 119.923
4053.5 76.2308
4054.5 140.231
4055.5 117.077
4056.5 88.3846
4057.5 71.2308
4058.5 73.8462
4059.5 76.6923
4060.5 65.9231
4061.5 81.3077
4062.5 96.5385
4063.5 58.8462
4064.5 90.4615
4065.5 86.4615
4066.5 98.6154
4067.5 54.7692
4068.5 122.308
4069.5 150.538
4070.5 69.7692
4071.5 67.9231
4072.5 85.3077
4073.5 49.6923
4074.5 72.3077
4075.5 57.1538
4076.5 90
4077.5 79.6923
4078.5 38.4615
4079.5 28.5385
4080.5 74.3077
4081.5 46.6154
4082.5 90.0769
4083.5 52.4615
4084.5 77.8462
4085.5 84.6923
4086.5 89.3846
4087.5 71.2308
4088.5 55
4089.5 88.3077
4090.5 64.1538
4091.5 67.7692
4092.5 96.5385
4093.5 108.077
4094.5 64.9231
4095.5 85.5385
4096.5 39.6154
4097.5 52.3846
4098.5 81.1538
4099.5 50
4100.5 79.6923
4101.5 61.0769
4102.5 55
4103.5 97.1538
4104.5 96.9231
4105.5 70
4106.5 65.7692
4107.5 63.8462
4108.5 53.3077
4109.5 57.1538
4110.5 55.7692
4111.5 42.8462
4112.5 67.5385
4113.5 72.3077
4114.5 90.2308
4115.5 73.7692
4116.5 87.9231
4117.5 110.692
4118.5 60.5385
4119.5 64
4120.5 53.7692
4121.5 9.30769
4122.5 76.0769
4123.5 46.2308
4124.5 81.7692
4125.5 67.5385
4126.5 45.1538
4127.5 80.3077
4128.5 80.7692
4129.5 72.3846
4130.5 131.462
4131.5 131.692
4132.5 125.308
4133.5 165.769
4134.5 161.231
4135.5 157.923
4136.5 126.308
4137.5 82.9231
4138.5 35.1538
4139.5 63.6923
4140.5 65.6923
4141.5 58.0769
4142.5 54.1538
4143.5 33.1538
4144.5 45.7692
4145.5 59.6154
4146.5 64.5385
4147.5 92.6154
4148.5 59.8462
4149.5 55.8462
4150.5 108.231
4151.5 69.6923
4152.5 67.6923
4153.5 44.0769
4154.5 69.4615
4155.5 94.4615
4156.5 53.9231
4157.5 60.3846
4158.5 62.9231
4159.5 87.6154
4160.5 72.6923
4161.5 63
4162.5 63.7692
4163.5 57
4164.5 41.6923
4165.5 120.077
4166.5 106.385
4167.5 96.1538
4168.5 98.6154
4169.5 106.231
4170.5 66.6923
4171.5 122.923
4172.5 113.308
4173.5 69.8462
4174.5 67.0769
4175.5 76.5385
4176.5 86.3077
4177.5 43.6154
4178.5 82.8462
4179.5 92.6923
4180.5 58.1538
4181.5 36.3077
4182.5 65.0769
4183.5 61.3846
4184.5 84.3077
4185.5 97.5385
4186.5 79.6154
4187.5 72.6923
4188.5 43.6154
4189.5 87.0769
4190.5 98.7692
4191.5 106.077
4192.5 70.4615
4193.5 78.3077
4194.5 84.2308
4195.5 82
4196.5 110.846
4197.5 65.4615
4198.5 84.6923
4199.5 91.1538
4200.5 92.8462
4201.5 137.692
4202.5 98.9231
4203.5 106.154
4204.5 150.385
4205.5 86.6923
4206.5 116.077
4207.5 131.462
4208.5 111.846
4209.5 122.231
4210.5 82.3846
4211.5 168.462
4212.5 106.462
4213.5 88.3846
4214.5 82.3846
4215.5 65.6923
4216.5 58
4217.5 87
4218.5 43.6154
4219.5 112.385
4220.5 91.8462
4221.5 42.1538
4222.5 51.1538
4223.5 60.3077
4224.5 68.0769
4225.5 48.8462
4226.5 48.3846
4227.5 75.2308
4228.5 52
4229.5 75.4615
4230.5 46.7692
4231.5 50.9231
4232.5 55.1538
4233.5 61.6154
4234.5 109.462
4235.5 117.231
4236.5 75.6923
4237.5 70.6154
4238.5 75.1538
4239.5 49.1538
4240.5 53.4615
4241.5 77.1538
4242.5 45.3077
4243.5 93.8462
4244.5 56.8462
4245.5 81.9231
4246.5 35
4247.5 97.2308
4248.5 95.3077
4249.5 62.9231
4250.5 107
4251.5 79.6154
4252.5 29.6154
4253.5 58.8462
4254.5 68.0769
4255.5 68.3846
4256.5 94.0769
4257.5 129.846
4258.5 142.615
4259.5 128.385
4260.5 138.538
4261.5 91.4615
4262.5 106.769
4263.5 109.077
4264.5 192.231
4265.5 196.308
4266.5 129.231
4267.5 95.4615
4268.5 79.0769
4269.5 85.8462
4270.5 48.0769
4271.5 63.3077
4272.5 37.7692
4273.5 61.7692
4274.5 70.4615
4275.5 70.3077
4276.5 69.6154
4277.5 47.3077
4278.5 49.9231
4279.5 65.7692
4280.5 31.6923
4281.5 93.9231
4282.5 63.3846
4283.5 41
4284.5 98.3846
4285.5 56.7692
4286.5 63.3846
4287.5 79.8462
4288.5 66.1538
4289.5 35.7692
4290.5 91.0769
4291.5 59.3077
4292.5 51.8462
4293.5 64.2308
4294.5 59.3846
4295.5 70
4296.5 93.2308
4297.5 89.5385
4298.5 96.6154
4299.5 68
4300.5 136.462
4301.5 63.9231
4302.5 112.077
4303.5 92.6154
4304.5 117
4305.5 42.6923
4306.5 96.3846
4307.5 48.2308
4308.5 81.2308
4309.5 61.4615
4310.5 57.1538
4311.5 54.8462
4312.5 64.3846
4313.5 49.6923
4314.5 64.0769
4315.5 68.2308
4316.5 60.4615
4317.5 67.6923
4318.5 78.9231
4319.5 91
4320.5 63.4615
4321.5 50.6154
4322.5 95.6923
4323.5 61.1538
4324.5 88.7692
4325.5 37.5385
4326.5 57.4615
4327.5 47.6154
4328.5 67.3077
4329.5 86.7692
4330.5 81.3077
4331.5 59.3077
4332.5 58.5385
4333.5 101.462
4334.5 58.3846
4335.5 71
4336.5 81.2308
4337.5 99
4338.5 65.5385
4339.5 109.923
4340.5 55.0769
4341.5 64.5385
4342.5 54.2308
4343.5 40
4344.5 43.7692
4345.5 37.7692
4346.5 58.6923
4347.5 46.6154
4348.5 -0.846155
4349.5 44.3846
4350.5 51.3077
4351.5 76
4352.5 102.846
4353.5 72.9231
4354.5 84.9231
4355.5 82.8462
4356.5 71.0769
4357.5 79.9231
4358.5 72.6923
4359.5 81.5385
4360.5 102.846
4361.5 32.0769
4362.5 61.7692
4363.5 69.0769
4364.5 41.3846
4365.5 37.8462
4366.5 69.7692
4367.5 35.5385
4368.5 44.3077
4369.5 20.1538
4370.5 44.5385
4371.5 53.9231
4372.5 37.6923
4373.5 57.3846
4374.5 51.0769
4375.5 81.9231
4376.5 36.1538
4377.5 77.3077
4378.5 74.8462
4379.5 112.462
4380.5 195.308
4381.5 196.538
4382.5 268.462
4383.5 265.077
4384.5 153
4385.5 51.2308
4386.5 46.3846
4387.5 40.3077
4388.5 66.1538
4389.5 43
4390.5 79.1538
4391.5 56.0769
4392.5 51.1538
4393.5 47.8462
4394.5 34.6154
4395.5 98
4396.5 62.0769
4397.5 55.3077
4398.5 49.4615
4399.5 85.4615
4400.5 37.7692
4401.5 35.5385
4402.5 11.3077
4403.5 26
4404.5 50.6923
4405.5 66.1538
4406.5 76.3077
4407.5 30.9231
4408.5 25.2308
4409.5 73.0769
4410.5 47.7692
4411.5 29.1538
4412.5 50.0769
4413.5 31.3846
4414.5 26.5385
4415.5 34.1538
4416.5 64.8462
4417.5 53.6154
4418.5 37.0769
4419.5 19.8462
4420.5 22.3077
4421.5 28.1538
4422.5 51.7692
4423.5 54
4424.5 55.7692
4425.5 27.7692
4426.5 54.8462
4427.5 77.4615
4428.5 56.7692
4429.5 55.1538
4430.5 68
4431.5 68.7692
4432.5 60.6923
4433.5 31
4434.5 66.9231
4435.5 52.1538
4436.5 30.0769
4437.5 51.7692
4438.5 30.6923
4439.5 24.1538
4440.5 47.9231
4441.5 26
4442.5 47.0769
4443.5 58.5385
4444.5 26.8462
4445.5 16.7692
4446.5 70.1538
4447.5 81
4448.5 81.2308
4449.5 98.3077
4450.5 84.3077
4451.5 152.923
4452.5 216.538
4453.5 436.615
4454.5 796.462
4455.5 1308
4456.5 1709.69
4457.5 1865.23
4458.5 1579.38
4459.5 954.769
4460.5 495.308
4461.5 232.077
4462.5 161.154
4463.5 77.6923
4464.5 53.0769
4465.5 46.5385
4466.5 52.3846
4467.5 35.2308
4468.5 59.2308
4469.5 43
4470.5 58.5385
4471.5 83.2308
4472.5 60
4473.5 28.0769
4474.5 51.3846
4475.5 51.3077
4476.5 51.4615
4477.5 70.8462
4478.5 61.8462
4479.5 42.8462
4480.5 -12.4615
4481.5 43.3077
4482.5 27.6154
4483.5 32.9231
4484.5 31.1538
4485.5 47.6923
4486.5 8.53846
4487.5 52.9231
4488.5 19.8462
4489.5 72.8462
4490.5 41.6154
4491.5 53.8462
4492.5 72.7692
4493.5 68.0769
4494.5 90.3846
4495.5 55.3077
4496.5 50.3846
4497.5 44
4498.5 51.9231
4499.5 61.4615
4500.5 18.2308
4501.5 69.2308
4502.5 30.6923
4503.5 53.5385
4504.5 20.4615
4505.5 26.3077
4506.5 53.3077
4507.5 1.84615
4508.5 40.3077
4509.5 64.6923
4510.5 32.0769
4511.5 40.9231
4512.5 32.3846
4513.5 53.8462
4514.5 29.3846
4515.5 32.0769
4516.5 13.0769
4517.5 66.0769
4518.5 39.6154
4519.5 46.2308
4520.5 10.9231
4521.5 26.2308
4522.5 47.0769
4523.5 27.6154
4524.5 46.8462
4525.5 35.4615
4526.5 49.2308
4527.5 46
4528.5 9.61538
4529.5 29.5385
4530.5 -0.923078
4531.5 38.4615
4532.5 44.6923
4533.5 15
4534.5 22.2308
4535.5 43.6154
4536.5 51.4615
4537.5 47.8462
4538.5 34.9231
4539.5 5.46154
4540.5 31.7692
4541.5 36.6923
4542.5 -1.38462
4543.5 17.1538
4544.5 33.3077
4545.5 20.7692
4546.5 43.7692
4547.5 12.4615
4548.5 0.999999
4549.5 -18.7692
4550.5 -51.6923
4551.5 -55.0769
4552.5 -68.6154
4553.5 -5.76923
4554.5 28.5385
4555.5 78.1538
4556.5 94.9231
4557.5 87.0769
4558.5 77.0769
4559.5 68.8462
4560.5 89.4615
4561.5 114.154
4562.5 152.154
4563.5 267.077
4564.5 371.462
4565.5 260.462
4566.5 207.846
4567.5 118.846
4568.5 72.3077
4569.5 54.6923
4570.5 55.1538
4571.5 39.6154
4572.5 19.8462
4573.5 48
4574.5 34.3077
4575.5 30
4576.5 57.7692
4577.5 58.7692
4578.5 56.6154
4579.5 76.2308
4580.5 69.2308
4581.5 63.5385
4582.5 67.0769
4583.5 45.6154
4584.5 67.1538
4585.5 71.5385
4586.5 61.1538
4587.5 51.5385
4588.5 32.9231
4589.5 31.1538
4590.5 22
4591.5 8.07692
4592.5 37.8462
4593.5 49.3846
4594.5 39.9231
4595.5 44.6923
4596.5 49.6154
4597.5 68.9231
4598.5 108.308
4599.5 33.4615
4600.5 96.6154
4601.5 13.3077
4602.5 41.6923
4603.5 31.3077
4604.5 26.5385
4605.5 74.2308
4606.5 41.1538
4607.5 85.4615
4608.5 45.2308
4609.5 52.6154
4610.5 11.8462
4611.5 32.6154
4612.5 33.2308
4613.5 9.76923
4614.5 53.9231
4615.5 64.3077
4616.5 102
4617.5 36.2308
4618.5 54
4619.5 3.69231
4620.5 42.9231
4621.5 47.4615
4622.5 15.5385
4623.5 63.4615
4624.5 39.9231
4625.5 -4.92308
4626.5 27
4627.5 33.8462
4628.5 46.9231
4629.5 25.3846
4630.5 25.5385
4631.5 33.9231
4632.5 79.0769
4633.5 22.6154
4634.5 15.6923
4635.5 26
4636.5 43.4615
4637.5 43.3846
4638.5 34.0769
4639.5 30.7692
4640.5 24.9231
4641.5 22.4615
4642.5 66.9231
4643.5 22.6923
4644.5 39
4645.5 44.0769
4646.5 32.6923
4647.5 50
4648.5 56.2308
4649.5 26.6923
4650.5 31
4651.5 46
4652.5 43.6154
4653.5 25.8462
4654.5 31.3846
4655.5 51.4615
4656.5 76.9231
4657.5 67.6923
4658.5 6.15385
4659.5 45.7692
4660.5 61.6923
4661.5 27.1538
4662.5 75.2308
4663.5 22.4615
4664.5 6.53846
4665.5 17.1538
4666.5 29.8462
4667.5 30.7692
4668.5 32.6923
4669.5 35.9231
4670.5 67.2308
4671.5 15.4615
4672.5 49.6923
4673.5 19.8462
4674.5 27.1538
4675.5 12.9231
4676.5 29.6923
4677.5 67.1538
4678.5 81.8462
4679.5 50.0769
4680.5 61.6923
4681.5 25.8462
4682.5 40.3077
4683.5 28.6154
4684.5 53.5385
4685.5 46.1538
4686.5 46.2308
4687.5 39.1538
4688.5 54.4615
4689.5 45.4615
4690.5 18.9231
4691.5 33
4692.5 14.0769
4693.5 14.9231
4694.5 18.9231
4695.5 2.38461
4696.5 11.7692
4697.5 60.1538
4698.5 -1.84615
4699.5 2
4700.5 48
4701.5 16.9231
4702.5 70
4703.5 33.2308
4704.5 50.8462
4705.5 69.4615
4706.5 77.1538
4707.5 81.6923
4708.5 69.8462
4709.5 58.6154
4710.5 40
4711.5 61.6154
4712.5 43.5385
4713.5 54.7692
4714.5 35
4715.5 21.6154
4716.5 95.4615
4717.5 33.9231
4718.5 49.2308
4719.5 27.6154
4720.5 63.9231
4721.5 17.8462
4722.5 16.6923
4723.5 38.6923
4724.5 19
4725.5 65
4726.5 49.9231
4727.5 42.8462
4728.5 36.5385
4729.5 34.7692
4730.5 41.7692
4731.5 38.8462
4732.5 19.6923
4733.5 20.2308
4734.5 42.6923
4735.5 49
4736.5 23.1538
4737.5 46.1538
4738.5 46
4739.5 35.6923
4740.5 67.3077
4741.5 33.3077
4742.5 28.6154
4743.5 43.3846
4744.5 53.0769
4745.5 32.7692
4746.5 88.1538
4747.5 113.462
4748.5 82
4749.5 74.2308
4750.5 48.6154
4751.5 54.7692
4752.5 30.6154
4753.5 29.8462
4754.5 77.7692
4755.5 46
4756.5 21.9231
4757.5 50.7692
4758.5 19.7692
4759.5 9.53846
4760.5 8.30769
4761.5 43.2308
4762.5 29.9231
4763.5 59.0769
4764.5 33.8462
4765.5 42.6923
4766.5 52.3846
4767.5 18.7692
4768.5 18.0769
4769.5 14
4770.5 34
4771.5 31.7692
4772.5 18.3846
4773.5 32.5385
4774.5 58.4615
4775.5 34.5385
4776.5 37.8462
4777.5 21.4615
4778.5 38
4779.5 31.5385
4780.5 41.6923
4781.5 31.7692
4782.5 43.1538
4783.5 -11.7692
4784.5 25.6154
4785.5 35
4786.5 52.3846
4787.5 30.6154
4788.5 -0.615385
4789.5 13.0769
4790.5 18.3846
4791.5 41.6154
4792.5 43.6154
4793.5 64.3846
4794.5 32.8462
4795.5 17.9231
4796.5 42.5385
4797.5 -1.23077
4798.5 0.76923
4799.5 48.6923
4800.5 44.4615
4801.5 42.3077
4802.5 3.61538
4803.5 47.7692
4804.5 10.8462
4805.5 57.9231
4806.5 56.3846
4807.5 71.5385
4808.5 45
4809.5 42.9231
4810.5 18.5385
4811.5 47.6154
4812.5 43
4813.5 25.3077
4814.5 47.5385
4815.5 95.1538
4816.5 95.1538
4817.5 35.7692
4818.5 48.1538
4819.5 16
4820.5 38.1538
4821.5 51.0769
4822.5 32.0769
4823.5 41.0769
4824.5 29.3846
4825.5 22.2308
4826.5 41.2308
4827.5 31.7692
4828.5 18.4615
4829.5 63.0769
4830.5 31.6923
4831.5 7.53846
4832.5 15.9231
4833.5 28.1538
4834.5 35.2308
4835.5 46.9231
4836.5 9
4837.5 52.9231
4838.5 11.2308
4839.5 29.6154
4840.5 61
4841.5 50.6154
4842.5 100.308
4843.5 90
4844.5 110.462
4845.5 86.7692
4846.5 96
4847.5 14.6923
4848.5 30.1538
4849.5 79.9231
4850.5 44.3077
4851.5 30.2308
4852.5 51.0769
4853.5 54.5385
4854.5 3.84615
4855.5 1.30769
4856.5 34
4857.5 -4.84615
4858.5 18.3077
4859.5 32.9231
4860.5 -3
4861.5 30
4862.5 -3.92308
4863.5 30.9231
4864.5 25.2308
4865.5 39.4615
4866.5 53.6923
4867.5 46.3077
4868.5 34.6154
4869.5 18.3846
4870.5 46.9231
4871.5 23.2308
4872.5 46.6154
4873.5 29.3077
4874.5 30.1538
4875.5 37.4615
4876.5 64.7692
4877.5 28.1538
4878.5 10.3846
4879.5 51
4880.5 54.8462
4881.5 82
4882.5 76.8462
4883.5 72.3077
4884.5 19.6154
4885.5 41.7692
4886.5 42.9231
4887.5 77.3077
4888.5 47.5385
4889.5 25.0769
4890.5 34.5385
4891.5 25.3846
4892.5 59.6923
4893.5 27.6154
4894.5 43.3077
4895.5 48.8462
4896.5 0.153845
4897.5 42.6154
4898.5 54.7692
4899.5 41.7692
4900.5 59.6154
4901.5 35.3077
4902.5 74.3846
4903.5 95.1538
4904.5 82.1538
4905.5 89.5385
4906.5 117.538
4907.5 36.6923
4908.5 63.0769
4909.5 23.2308
4910.5 66.6154
4911.5 17.1538
4912.5 16.3077
4913.5 27.9231
4914.5 22.4615
4915.5 58.5385
4916.5 42.5385
4917.5 52.4615
4918.5 61.7692
4919.5 50.3846
4920.5 41.6154
4921.5 32.6923
4922.5 21.8462
4923.5 31
4924.5 38
4925.5 26.0769
4926.5 53
4927.5 40.5385
4928.5 41.7692
4929.5 36.3077
4930.5 54.2308
4931.5 9.23077
4932.5 25
4933.5 26.0769
4934.5 34.6923
4935.5 54.5385
4936.5 28.4615
4937.5 25.3077
4938.5 44.6923
4939.5 50.6154
4940.5 54.4615
4941.5 46.6923
4942.5 55.3846
4943.5 33
4944.5 35.6154
4945.5 52.3846
4946.5 53.3846
4947.5 31.8462
4948.5 24.0769
4949.5 19.5385
4950.5 53.3077
4951.5 39.2308
4952.5 22.5385
4953.5 28.6923
4954.5 26.3077
4955.5 29.6923
4956.5 36.7692
4957.5 39
4958.5 99
4959.5 47.4615
4960.5 58.7692
4961.5 47
4962.5 53.6154
4963.5 24.8462
4964.5 72.6154
4965.5 27.9231
4966.5 41.1538
4967.5 32.6923
4968.5 40.1538
4969.5 17.6923
4970.5 39
4971.5 41
4972.5 44
4973.5 83.2308
4974.5 75.7692
4975.5 60.8462
4976.5 53.5385
4977.5 36.3846
4978.5 19.5385
4979.5 54.7692
4980.5 64.9231
4981.5 116
4982.5 102.538
4983.5 120.846
4984.5 128.615
4985.5 100.308
4986.5 68.1538
4987.5 44.4615
4988.5 30.3077
4989.5 -15.6923
4990.5 18.4615
4991.5 18.5385
4992.5 21.3077
4993.5 31.1538
4994.5 13.7692
4995.5 -12.4615
4996.5 9.23077
4997.5 50.7692
4998.5 50.0769
4999.5 11.9231
5000.5 44.2308
5001.5 69.6923
5002.5 30.2308
5003.5 66
5004.5 37.7692
5005.5 52
5006.5 35.3846
5007.5 34.4615
5008.5 34.6154
5009.5 52.5385
5010.5 27.1538
5011.5 17.6923
5012.5 47.6154
5013.5 50.3077
5014.5 18.6154
5015.5 55.6154
5016.5 58.3846
5017.5 41.8462
5018.5 26.3077
5019.5 41.3077
5020.5 21
5021.5 87.5385
5022.5 19.8462
5023.5 21.4615
5024.5 45.0769
5025.5 65.3846
5026.5 43.7692
5027.5 55.7692
5028.5 56.4615
5029.5 16.9231
5030.5 55
5031.5 33.7692
5032.5 33.3077
5033.5 29.8462
5034.5 -9
5035.5 26.2308
5036.5 31.9231
5037.5 50.3077
5038.5 7.46154
5039.5 41.8462
5040.5 29.4615
5041.5 24.4615
5042.5 55.6154
5043.5 23.6154
5044.5 42.5385
5045.5 29.6154
5046.5 35.6154
5047.5 51.7692
5048.5 58.9231
5049.5 24
5050.5 32.9231
5051.5 35.0769
5052.5 14.5385
5053.5 52.0769
5054.5 14.7692
5055.5 29
5056.5 30.1538
5057.5 37.6923
5058.5 30.2308
5059.5 4.07692
5060.5 20.4615
5061.5 19
5062.5 18.7692
5063.5 47.0769
5064.5 44.8462
5065.5 55.3077
5066.5 36.3846
5067.5 31.0769
5068.5 46
5069.5 29.6923
5070.5 101.692
5071.5 10.2308
5072.5 37.0769
5073.5 52.1538
5074.5 49.3077
5075.5 40.7692
5076.5 34.8462
5077.5 33
5078.5 6.30769
5079.5 52.3077
5080.5 51.0769
5081.5 39.0769
5082.5 28.8462
5083.5 5.69231
5084.5 26.6923
5085.5 72.5385
5086.5 17.1538
5087.5 42.2308
5088.5 59.9231
5089.5 39.6154
5090.5 46.3846
5091.5 45.8462
5092.5 64
5093.5 36.4615
5094.5 69.0769
5095.5 50.3846
5096.5 41.3077
5097.5 33.0769
5098.5 19.4615
5099.5 57.2308
5100.5 68.6923
5101.5 29.7692
5102.5 26.0769
5103.5 36.0769
5104.5 39
5105.5 30.3077
5106.5 45.6154
5107.5 26
5108.5 38.1538
5109.5 35.9231
5110.5 34.4615
5111.5 44.5385
5112.5 29.6154
5113.5 13.3846
5114.5 41.3077
5115.5 27.3846
5116.5 24.1538
5117.5 41.7692
5118.5 24.8462
5119.5 46.3077
5120.5 31.5385
5121.5 13.3846
5122.5 22.4615
5123.5 -3.84615
5124.5 49.8462
5125.5 19.6154
5126.5 38.4615
5127.5 67.8462
5128.5 22.6923
5129.5 61.2308
5130.5 19.6923
5131.5 71.6923
5132.5 40.6923
5133.5 60.8462
5134.5 40
5135.5 28.4615
5136.5 -3.15385
5137.5 72.5385
5138.5 -2.69231
5139.5 52.8462
5140.5 43.2308
5141.5 32.6923
5142.5 50.1538
5143.5 33
5144.5 33.6154
5145.5 42.9231
5146.5 26.4615
5147.5 12.2308
5148.5 28.6154
5149.5 12.3077
5150.5 25.2308
5151.5 60.6923
5152.5 49
5153.5 44.5385
5154.5 59.3077
5155.5 37.9231
5156.5 56.7692
5157.5 33.7692
5158.5 74.0769
5159.5 43.6154
5160.5 51.6923
5161.5 70.6923
5162.5 88.9231
5163.5 67.8462
5164.5 37.6923
5165.5 46.1538
5166.5 57.8462
5167.5 34.6923
5168.5 37.8462
5169.5 63.6154
5170.5 40.4615
5171.5 51.0769
5172.5 24.7692
5173.5 34.3077
5174.5 63.4615
5175.5 21.0769
5176.5 45.9231
5177.5 56.2308
5178.5 30.9231
5179.5 37.2308
5180.5 9.53846
5181.5 44.3846
5182.5 16.6923
5183.5 18.3077
5184.5 28.8462
5185.5 12.5385
5186.5 56.4615
5187.5 5.23077
5188.5 3.07692
5189.5 12.8462
5190.5 29.6154
5191.5 66.9231
5192.5 55.5385
5193.5 80.3077
5194.5 124.385
5195.5 56.9231
5196.5 107.615
5197.5 55.5385
5198.5 34.4615
5199.5 -6
5200.5 26.8462
5201.5 76.6923
5202.5 35.9231
5203.5 47.5385
5204.5 29.8462
5205.5 62.6923
5206.5 74.3077
5207.5 42.6923
5208.5 48.6154
5209.5 36.3077
5210.5 65.0769
5211.5 24.3846
5212.5 36.3077
5213.5 42.0769
5214.5 29.6923
5215.5 28.4615
5216.5 59.0769
5217.5 22.7692
5218.5 19.9231
5219.5 7
5220.5 21.2308
5221.5 44
5222.5 0.461537
5223.5 67
5224.5 36.2308
5225.5 42.4615
5226.5 49.2308
5227.5 16.2308
5228.5 37.2308
5229.5 34.9231
5230.5 19.9231
5231.5 41.3846
5232.5 46.6154
5233.5 66.1538
5234.5 33.9231
5235.5 24.8462
5236.5 28
5237.5 8
5238.5 9.07692
5239.5 36.2308
5240.5 23.7692
5241.5 27.3846
5242.5 26.6154
5243.5 23.6154
5244.5 35.1538
5245.5 23.3077
5246.5 1.38461
5247.5 47.1538
5248.5 34.1538
5249.5 30.8462
5250.5 46.1538
5251.5 64
5252.5 33.7692
5253.5 29.7692
5254.5 43.0769
5255.5 13.6154
5256.5 30
5257.5 35.7692
5258.5 76.6154
5259.5 10.2308
5260.5 21.6923
5261.5 20.6154
5262.5 46.2308
5263.5 38.2308
5264.5 49.1538
5265.5 23.9231
5266.5 68
5267.5 41.9231
5268.5 7.69231
5269.5 55.3846
5270.5 46.6154
5271.5 21.6923
5272.5 35.2308
5273.5 12.2308
5274.5 73.3846
5275.5 29.2308
5276.5 52.5385
5277.5 69.3846
5278.5 48.7692
5279.5 31.6923
5280.5 51.9231
5281.5 27.3846
5282.5 23.2308
5283.5 36.0769
5284.5 14.0769
5285.5 57.1538
5286.5 47.9231
5287.5 53.8462
5288.5 31.0769
5289.5 53
5290.5 47.7692
5291.5 61.4615
5292.5 56.3077
5293.5 36.2308
5294.5 38.8462
5295.5 31.4615
5296.5 23.3077
5297.5 47.6154
5298.5 45
5299.5 24.6154
5300.5 41.2308
5301.5 64.6154
5302.5 17.3077
5303.5 69.9231
5304.5 25.5385
5305.5 41.0769
5306.5 28.3846
5307.5 39
5308.5 17.8462
5309.5 12.6154
5310.5 14.9231
5311.5 12.7692
5312.5 49.7692
5313.5 34.0769
5314.5 23.2308
5315.5 20.3846
5316.5 26.3846
5317.5 20.2308
5318.5 58.4615
5319.5 5.92308
5320.5 5.30769
5321.5 44.6923
5322.5 41
5323.5 50.3077
5324.5 43.3077
5325.5 24.8462
5326.5 34
5327.5 0.923076
5328.5 12.9231
5329.5 43.8462
5330.5 45.3077
5331.5 12
5332.5 34.4615
5333.5 37.1538
5334.5 23.2308
5335.5 -0.384616
5336.5 20.3077
5337.5 17.0769
5338.5 36.1538
5339.5 32.4615
5340.5 20.3077
5341.5 28.4615
5342.5 27.6154
5343.5 -2
5344.5 2.23077
5345.5 37
5346.5 41.8462
5347.5 35.0769
5348.5 46.0769
5349.5 55.5385
5350.5 40.0769
5351.5 94.3077
5352.5 60.8462
5353.5 181.846
5354.5 235.538
5355.5 239.385
5356.5 173.385
5357.5 126.231
5358.5 78.0769
5359.5 68.2308
5360.5 32.7692
5361.5 39.8462
5362.5 20.6923
5363.5 38.6923
5364.5 7.69231
5365.5 11.4615
5366.5 -1.69231
5367.5 46.3077
5368.5 16.7692
5369.5 47.2308
5370.5 41.3077
5371.5 53.4615
5372.5 27.7692
5373.5 46.6923
5374.5 18.6923
5375.5 29.3846
5376.5 50.7692
5377.5 30.5385
5378.5 25.6923
5379.5 17.4615
5380.5 7.46154
5381.5 -20.2308
5382.5 22.2308
5383.5 5.76923
5384.5 -18
5385.5 -9.15385
5386.5 43.3077
5387.5 36.3846
5388.5 41.8462
5389.5 23.9231
5390.5 53.0769
5391.5 38.4615
5392.5 70.3077
5393.5 90.7692
5394.5 65.5385
5395.5 65.3846
5396.5 203.385
5397.5 51.3846
5398.5 113.538
5399.5 78.1538
5400.5 52.4615
5401.5 65.6923
5402.5 49.4615
5403.5 39.7692
5404.5 56.2308
5405.5 13.7692
5406.5 46.4615
5407.5 68.1538
5408.5 33.3077
5409.5 37.0769
5410.5 27.0769
5411.5 33.3077
5412.5 25.9231
5413.5 48.3846
5414.5 23.6154
5415.5 19
5416.5 19.3846
5417.5 34.1538
5418.5 35.9231
5419.5 46
5420.5 40.4615
5421.5 21.2308
5422.5 18.0769
5423.5 29.7692
5424.5 46.8462
5425.5 43.0769
5426.5 25
5427.5 56.0769
5428.5 29.7692
5429.5 50.0769
5430.5 18.7692
5431.5 26
5432.5 16.8462
5433.5 38.7692
5434.5 54.6154
5435.5 19.4615
5436.5 41.4615
5437.5 37.3077
5438.5 47.8462
5439.5 63.6923
5440.5 6.46154
5441.5 64.3846
5442.5 42
5443.5 35.8462
5444.5 7
5445.5 21.3077
5446.5 21.6923
5447.5 48.0769
5448.5 17.2308
5449.5 38.1538
5450.5 5.76923
5451.5 39.7692
5452.5 -3.53846
5453.5 32.0769
5454.5 44.4615
5455.5 18.9231
5456.5 49.3077
5457.5 32.5385
5458.5 27.6923
5459.5 31.5385
5460.5 25.4615
5461.5 43.1538
5462.5 24.4615
5463.5 43.4615
5464.5 37.3077
5465.5 39.3846
5466.5 34.6923
5467.5 31.4615
5468.5 65.6923
5469.5 80.0769
5470.5 74.6923
5471.5 81.6923
5472.5 53.6154
5473.5 89.4615
5474.5 47.6923
5475.5 10.7692
5476.5 47.1538
5477.5 31.3077
5478.5 43.0769
5479.5 26.1538
5480.5 15.3077
5481.5 11.3846
5482.5 21.6923
5483.5 52.1538
5484.5 40.8462
5485.5 50.5385
5486.5 32.9231
5487.5 38.6923
5488.5 39
5489.5 11.3846
5490.5 36.6154
5491.5 14.9231
5492.5 45.6923
5493.5 30.3846
5494.5 9.15385
5495.5 30
5496.5 62.7692
5497.5 27.2308
5498.5 43.3077
5499.5 35.4615
5500.5 47.6154
5501.5 43.2308
5502.5 5.53846
5503.5 17.1538
5504.5 48
5505.5 35.3077
5506.5 42.7692
5507.5 33.2308
5508.5 54.8462
5509.5 15.8462
5510.5 -3.76923
5511.5 59
5512.5 43.9231
5513.5 29.2308
5514.5 68.5385
5515.5 30.6923
5516.5 77.3077
5517.5 101.846
5518.5 96.4615
5519.5 103.846
5520.5 98.4615
5521.5 187.077
5522.5 297.077
5523.5 395.308
5524.5 345
5525.5 293.769
5526.5 216.769
5527.5 144.154
5528.5 61.2308
5529.5 44.0769
5530.5 44
5531.5 29.3077
5532.5 66.3846
5533.5 35.1538
5534.5 69.6154
5535.5 26.0769
5536.5 43.6154
5537.5 51.8462
5538.5 49.8462
5539.5 45.8462
5540.5 22.9231
5541.5 66.6154
5542.5 45.6154
5543.5 26.4615
5544.5 23.7692
5545.5 24.9231
5546.5 24.1538
5547.5 60.3846
5548.5 40.9231
5549.5 31.6154
5550.5 41.2308
5551.5 36.8462
5552.5 59.8462
5553.5 60.3077
5554.5 15.8462
5555.5 23.2308
5556.5 41.2308
5557.5 47.5385
5558.5 41.4615
5559.5 19.6154
5560.5 12.0769
5561.5 45.6923
5562.5 -0.307693
5563.5 33.3846
5564.5 5.61538
5565.5 49.4615
5566.5 56.9231
5567.5 30.3846
5568.5 69.8462
5569.5 42
5570.5 20.0769
5571.5 51.5385
5572.5 54.0769
5573.5 48.6154
5574.5 55.6154
5575.5 66.6154
5576.5 42.6923
5577.5 100.846
5578.5 53.8462
5579.5 83.1538
5580.5 95
5581.5 101.308
5582.5 97.3077
5583.5 68.7692
5584.5 93.4615
5585.5 69.1538
5586.5 52.6154
5587.5 46.6154
5588.5 49.3846
5589.5 16.2308
5590.5 51.9231
5591.5 44.0769
5592.5 33.9231
5593.5 60.9231
5594.5 31.2308
5595.5 51.4615
5596.5 57.3846
5597.5 25.7692
5598.5 14.7692
5599.5 23.8462
5600.5 29.3846
5601.5 45.3846
5602.5 55
5603.5 52
5604.5 70.4615
5605.5 25.6154
5606.5 34.3077
5607.5 44.0769
5608.5 21.3846
5609.5 37.1538
5610.5 64.4615
5611.5 4.15385
5612.5 73.3846
5613.5 40.6154
5614.5 47.1538
5615.5 37.4615
5616.5 42.8462
5617.5 27.3846
5618.5 47.2308
5619.5 94.5385
5620.5 41.8462
5621.5 32.3077
5622.5 51.5385
5623.5 59.8462
5624.5 28.6154
5625.5 46.1538
5626.5 43.6923
5627.5 56.2308
5628.5 51.2308
5629.5 39.5385
5630.5 47.0769
5631.5 38.2308
5632.5 51.4615
5633.5 39.4615
5634.5 22.1538
5635.5 44.0769
5636.5 35.1538
5637.5 43.3846
5638.5 41.0769
5639.5 39.3077
5640.5 63
5641.5 43.3077
5642.5 31.5385
5643.5 48.8462
5644.5 23.1538
5645.5 21.2308
5646.5 24.9231
5647.5 37.4615
5648.5 22.6154
5649.5 17.4615
5650.5 40.3077
5651.5 33.5385
5652.5 24.6154
5653.5 40.0769
5654.5 28.1538
5655.5 32
5656.5 29.3846
5657.5 50.0769
5658.5 28
5659.5 38.8462
5660.5 38.7692
5661.5 34.8462
5662.5 52.5385
5663.5 46.3077
5664.5 38
5665.5 22.3077
5666.5 33.2308
5667.5 74.6154
5668.5 32
5669.5 79.6923
5670.5 50
5671.5 78.6923
5672.5 50.3077
5673.5 39.2308
5674.5 60.0769
5675.5 70.5385
5676.5 54.5385
5677.5 62.1538
5678.5 54.8462
5679.5 75.0769
5680.5 42.3077
5681.5 50.0769
5682.5 41.2308
5683.5 32.9231
5684.5 35.6154
5685.5 15.2308
5686.5 75.9231
5687.5 65.5385
5688.5 47.3077
5689.5 57.4615
5690.5 35.3846
5691.5 53.4615
5692.5 45.7692
5693.5 70.3846
5694.5 25.7692
5695.5 61.3077
5696.5 62.8462
5697.5 50.0769
5698.5 58.4615
5699.5 49.6154
5700.5 46.0769
5701.5 27.3846
5702.5 43.1538
5703.5 35.3846
5704.5 53.7692
5705.5 54.1538
5706.5 15.5385
5707.5 45.1538
5708.5 48.3077
5709.5 53.3846
5710.5 38.1538
5711.5 54.0769
5712.5 75.7692
5713.5 105.615
5714.5 97.4615
5715.5 84
5716.5 87.6923
5717.5 123.077
5718.5 147
5719.5 52.0769
5720.5 71.7692
5721.5 20.8462
5722.5 28.1538
5723.5 44.9231
5724.5 48.2308
5725.5 39.8462
5726.5 69
5727.5 42
5728.5 38
5729.5 49.0769
5730.5 31.2308
5731.5 59.6923
5732.5 46.3846
5733.5 58.3846
5734.5 57.9231
5735.5 40.3077
5736.5 40
5737.5 53
5738.5 36.9231
5739.5 50.2308
5740.5 45.5385
5741.5 51.4615
5742.5 27.6923
5743.5 47.7692
5744.5 33.3077
5745.5 59
5746.5 63.3846
5747.5 19.1538
5748.5 52.0769
5749.5 53.5385
5750.5 45.9231
5751.5 52.6923
5752.5 14.9231
5753.5 73.5385
5754.5 37.0769
5755.5 40.2308
5756.5 36.5385
5757.5 48
5758.5 42.6154
5759.5 59.0769
5760.5 59.1538
5761.5 54.6923
5762.5 44.4615
5763.5 44.8462
5764.5 49.6923
5765.5 52.5385
5766.5 31.5385
5767.5 60.5385
5768.5 71.6923
5769.5 73.8462
5770.5 57.9231
5771.5 49.3846
5772.5 33
5773.5 27.3846
5774.5 63
5775.5 54
5776.5 54.2308
5777.5 49.6154
5778.5 65.5385
5779.5 54
5780.5 59.3846
5781.5 44
5782.5 47.3077
5783.5 37.9231
5784.5 57.1538
5785.5 8.23077
5786.5 48.2308
5787.5 47.6923
5788.5 46.6154
5789.5 58.1538
5790.5 43.1538
5791.5 52.4615
5792.5 38.3077
5793.5 54.8462
5794.5 59.9231
5795.5 44.6154
5796.5 31.2308
5797.5 60.7692
5798.5 75.3846
5799.5 33.4615
5800.5 69.5385
5801.5 34.1538
5802.5 36
5803.5 32.2308
5804.5 62.7692
5805.5 65.7692
5806.5 52.9231
5807.5 35.0769
5808.5 54.3846
5809.5 41.6154
5810.5 49.6923
5811.5 49.6154
5812.5 45.6923
5813.5 29.9231
5814.5 56.3846
5815.5 48.6154
5816.5 47.1538
5817.5 61.0769
5818.5 41.3077
5819.5 50.6154
5820.5 38.0769
5821.5 64.3846
5822.5 72.4615
5823.5 40.8462
5824.5 74.4615
5825.5 44.3846
5826.5 48.3846
5827.5 68.6923
5828.5 64.5385
5829.5 72.7692
5830.5 57.6154
5831.5 54.3077
5832.5 59.3077
5833.5 30.0769
5834.5 51
5835.5 60
5836.5 65.1538
5837.5 68.6154
5838.5 73.6923
5839.5 105.615
5840.5 54.3077
5841.5 64.3077
5842.5 104.154
5843.5 88.7692
5844.5 74.5385
5845.5 49.4615
5846.5 45.8462
5847.5 57.2308
5848.5 83.3077
5849.5 59.5385
5850.5 69.1538
5851.5 41.9231
5852.5 60.3846
5853.5 26.4615
5854.5 48.7692
5855.5 47.1538
5856.5 60.6923
5857.5 52.6923
5858.5 69.1538
5859.5 38.3077
5860.5 17.2308
5861.5 43.0769
5862.5 26.0769
5863.5 48.6923
5864.5 27.4615
5865.5 30.4615
5866.5 39.3077
5867.5 62
5868.5 45.6923
5869.5 67.2308
5870.5 76.2308
5871.5 78.8462
5872.5 67.6154
5873.5 55.0769
5874.5 79.4615
5875.5 71.3077
5876.5 58.8462
5877.5 45.7692
5878.5 51.0769
5879.5 81.1538
5880.5 53.6923
5881.5 54.6154
5882.5 56.1538
5883.5 56.3077
5884.5 34.9231
5885.5 48.1538
5886.5 27.9231
5887.5 32.3077
5888.5 32.6154
5889.5 19.4615
5890.5 58.3077
5891.5 68.6923
5892.5 28.4615
5893.5 51.6154
5894.5 88.2308
5895.5 23.7692
5896.5 90.2308
5897.5 41.2308
5898.5 83.6154
5899.5 113.615
5900.5 138.077
5901.5 111
5902.5 62
5903.5 93.2308
5904.5 89.9231
5905.5 60.1538
5906.5 45.2308
5907.5 76.1538
5908.5 76.2308
5909.5 101.385
5910.5 106.462
5911.5 110.154
5912.5 93.4615
5913.5 81.6923
5914.5 82.0769
5915.5 59.0769
5916.5 63.8462
5917.5 63.6923
5918.5 70.8462
5919.5 57.0769
5920.5 51.1538
5921.5 67.2308
5922.5 68.1538
5923.5 40.6923
5924.5 51.9231
5925.5 59.4615
5926.5 41.1538
5927.5 52.9231
5928.5 32.4615
5929.5 42.1538
5930.5 54.7692
5931.5 47.8462
5932.5 22.6154
5933.5 45.6923
5934.5 46.1538
5935.5 49.9231
5936.5 50.4615
5937.5 20.3846
5938.5 42.9231
5939.5 50.6154
5940.5 63.9231
5941.5 36.1538
5942.5 41.3846
5943.5 42.0769
5944.5 31.1538
5945.5 46.3077
5946.5 32.8462
5947.5 72
5948.5 37.9231
5949.5 51.6923
5950.5 34.5385
5951.5 41.3846
5952.5 41.7692
5953.5 47.9231
5954.5 70.3846
5955.5 57.3077
5956.5 52.8462
5957.5 52.1538
5958.5 31.8462
5959.5 50.2308
5960.5 41.3077
5961.5 38.8462
5962.5 33.7692
5963.5 49
5964.5 77.6154
5965.5 59
5966.5 58.9231
5967.5 44.6154
5968.5 50.3077
5969.5 40.1538
5970.5 42.4615
5971.5 51
5972.5 44.3846
5973.5 69.2308
5974.5 37.1538
5975.5 12.9231
5976.5 43.3077
5977.5 58.4615
5978.5 33.6154
5979.5 31.0769
5980.5 33.6154
5981.5 46.2308
5982.5 63.4615
5983.5 41.1538
5984.5 55.2308
5985.5 59.2308
5986.5 22.7692
5987.5 40
5988.5 44.0769
5989.5 52.3846
5990.5 51.6154
5991.5 41.6923
5992.5 49.6923
5993.5 16.6923
5994.5 70.7692
5995.5 42.6154
5996.5 63.1538
5997.5 50
5998.5 56
5999.5 76.4615
6000.5 8
6001.5 61
6002.5 101.846
6003.5 88.9231
6004.5 40.0769
6005.5 35.7692
6006.5 44
6007.5 37.5385
6008.5 62
6009.5 33.3077
6010.5 49.2308
6011.5 51
6012.5 51.3846
6013.5 38.5385
6014.5 41.4615
6015.5 56
6016.5 42.9231
6017.5 42.4615
6018.5 46.3077
6019.5 12.8462
6020.5 42.8462
6021.5 54.6923
6022.5 51.2308
6023.5 59.5385
6024.5 45.1538
6025.5 54.4615
6026.5 113.615
6027.5 124.462
6028.5 194.692
6029.5 224.615
6030.5 351.615
6031.5 454.308
6032.5 625.462
6033.5 775.462
6034.5 959.385
6035.5 961.615
6036.5 829.308
6037.5 584.538
6038.5 352.769
6039.5 195.231
6040.5 115.385
6041.5 92.2308
6042.5 90.2308
6043.5 59.6154
6044.5 50.2308
6045.5 61.9231
6046.5 71.6923
6047.5 38.3077
6048.5 55.0769
6049.5 54.7692
6050.5 41.4615
6051.5 57.7692
6052.5 32.2308
6053.5 48.3846
6054.5 40.0769
6055.5 52.6923
6056.5 50.3846
6057.5 30.7692
6058.5 43
6059.5 49.6923
6060.5 57.6154
6061.5 55.1538
6062.5 40.6154
6063.5 50.3077
6064.5 64
6065.5 45.3077
6066.5 63.1538
6067.5 44.4615
6068.5 54.8462
6069.5 43.7692
6070.5 53.9231
6071.5 59.3846
6072.5 73.0769
6073.5 54.3846
6074.5 56.4615
6075.5 31.6923
6076.5 58.3077
6077.5 50.6923
6078.5 45.8462
6079.5 53.8462
6080.5 46.3077
6081.5 48.3077
6082.5 46
6083.5 52.3846
6084.5 65.6923
6085.5 31.8462
6086.5 53.6154
6087.5 44.3077
6088.5 82.6154
6089.5 57.3077
6090.5 66.3077
6091.5 40.2308
6092.5 59.9231
6093.5 66.8462
6094.5 75.6923
6095.5 54.4615
6096.5 47.7692
6097.5 33.3846
6098.5 61.4615
6099.5 85.6923
6100.5 45.3077
6101.5 48.3077
6102.5 41.4615
6103.5 38.1538
6104.5 62.5385
6105.5 46.8462
6106.5 43.5385
6107.5 48
6108.5 48.7692
6109.5 59.9231
6110.5 41.5385
6111.5 49.7692
6112.5 31.9231
6113.5 50.3846
6114.5 40.9231
6115.5 46.2308
6116.5 46.5385
6117.5 66
6118.5 63.7692
6119.5 79.9231
6120.5 50.7692
6121.5 52.3077
6122.5 59.9231
6123.5 60.2308
6124.5 90.7692
6125.5 80.1538
6126.5 38.9231
6127.5 45.4615
6128.5 53.8462
6129.5 44.7692
6130.5 43.7692
6131.5 71.8462
6132.5 54.3077
6133.5 40.3846
6134.5 53.3846
6135.5 49.1538
6136.5 55.7692
6137.5 33.1538
6138.5 39.1538
6139.5 45.4615
6140.5 49.6154
6141.5 49.5385
6142.5 61
6143.5 53.6923
6144.5 35.7692
6145.5 48.2308
6146.5 61.1538
6147.5 60.6154
6148.5 52
6149.5 46.9231
6150.5 44.4615
6151.5 38.3846
6152.5 51.5385
6153.5 30.8462
6154.5 61.8462
6155.5 57.6154
6156.5 51.5385
6157.5 38.6923
6158.5 64.2308
6159.5 58.0769
6160.5 26.0769
6161.5 30.3846
6162.5 45.0769
6163.5 57.7692
6164.5 32.7692
6165.5 58.6923
6166.5 28
6167.5 42.9231
6168.5 44.4615
6169.5 52.3846
6170.5 43.3846
6171.5 55.2308
6172.5 45.2308
6173.5 39.2308
6174.5 65.3846
6175.5 63.6154
6176.5 60.8462
6177.5 38
6178.5 66.9231
6179.5 51.6923
6180.5 72.9231
6181.5 82.3077
6182.5 52.2308
6183.5 44.3846
6184.5 72.9231
6185.5 55.8462
6186.5 47.5385
6187.5 56.6923
6188.5 57.7692
6189.5 57.1538
6190.5 42
6191.5 28.0769
6192.5 69.1538
6193.5 47.8462
6194.5 44.1538
6195.5 30.5385
6196.5 46.2308
6197.5 61.4615
6198.5 41.6154
6199.5 39.2308
6200.5 63.4615
6201.5 40.7692
6202.5 46.1538
6203.5 35.0769
6204.5 44.7692
6205.5 65.4615
6206.5 62.0769
6207.5 49.5385
6208.5 50.4615
6209.5 47.4615
6210.5 60.8462
6211.5 44.6923
6212.5 55.4615
6213.5 38.2308
6214.5 56.1538
6215.5 51.6154
6216.5 52.2308
6217.5 42.6923
6218.5 78.8462
6219.5 25.6923
6220.5 43
6221.5 70.5385
6222.5 91.6154
6223.5 109.615
6224.5 156.769
6225.5 141.385
6226.5 191.308
6227.5 215.154
6228.5 186.385
6229.5 143.308
6230.5 137.538
6231.5 98.1538
6232.5 60.7692
6233.5 51.6154
6234.5 79.6923
6235.5 34.5385
6236.5 60.5385
6237.5 45.5385
6238.5 66.7692
6239.5 40.8462
6240.5 57.1538
6241.5 54.3077
6242.5 57.7692
6243.5 40.1538
6244.5 58.0769
6245.5 56.6923
6246.5 65.5385
6247.5 58.3077
6248.5 69.3077
6249.5 69.9231
6250.5 47.0769
6251.5 46.1538
6252.5 55.4615
6253.5 44.2308
6254.5 37.3846
6255.5 54.6923
6256.5 68.3846
6257.5 59.5385
6258.5 52.3077
6259.5 50.7692
6260.5 55.7692
6261.5 79.4615
6262.5 56.9231
6263.5 62.3846
6264.5 75.0769
6265.5 45.4615
6266.5 36
6267.5 34.3077
6268.5 40.7692
6269.5 42.3077
6270.5 22.8462
6271.5 60.3846
6272.5 55.6923
6273.5 41.3846
6274.5 57.3846
6275.5 70.3846
6276.5 36.2308
6277.5 59.3077
6278.5 68.8462
6279.5 67.3077
6280.5 51.2308
6281.5 71.0769
6282.5 46
6283.5 59.7692
6284.5 41.7692
6285.5 65.0769
6286.5 70.3846
6287.5 50.7692
6288.5 52.6154
6289.5 55.7692
6290.5 76.6923
6291.5 73.4615
6292.5 52.3846
6293.5 50.6923
6294.5 46.4615
6295.5 56
6296.5 64.3846
6297.5 45.1538
6298.5 38.1538
6299.5 52.0769
6300.5 41
6301.5 52.6923
6302.5 47.1538
6303.5 60.3846
6304.5 43
6305.5 39.6923
6306.5 34.2308
6307.5 68.8462
6308.5 38.3846
6309.5 43.5385
6310.5 66.2308
6311.5 57.4615
6312.5 51.4615
6313.5 53.3846
6314.5 59.9231
6315.5 49.2308
6316.5 42.2308
6317.5 36.2308
6318.5 50.3846
6319.5 54.6154
6320.5 47.1538
6321.5 40.4615
6322.5 41.2308
6323.5 36.7692
6324.5 48.5385
6325.5 34.1538
6326.5 50.1538
6327.5 56.3846
6328.5 53.4615
6329.5 58.1538
6330.5 44.3846
6331.5 44.3846
6332.5 42.3846
6333.5 62.6154
6334.5 48
6335.5 48.3846
6336.5 43
6337.5 41.6923
6338.5 39.8462
6339.5 30.7692
6340.5 57.7692
6341.5 70.6154
6342.5 48.8462
6343.5 24.0769
6344.5 61.0769
6345.5 29.6154
6346.5 44.5385
6347.5 56.1538
6348.5 59.4615
6349.5 75.9231
6350.5 42.7692
6351.5 45.3846
6352.5 34.1538
6353.5 29.0769
6354.5 47.5385
6355.5 25.9231
6356.5 39.6154
6357.5 49.9231
6358.5 49.7692
6359.5 33.5385
6360.5 45.1538
6361.5 55.4615
6362.5 26.8462
6363.5 40.4615
6364.5 49.3846
6365.5 36.1538
6366.5 41
6367.5 41.6154
6368.5 60.3077
6369.5 53.0769
6370.5 48
6371.5 41.1538
6372.5 54.9231
6373.5 40.6154
6374.5 22.9231
6375.5 52.3077
6376.5 24.6923
6377.5 23.3077
6378.5 54.6154
6379.5 54.5385
6380.5 47.1538
6381.5 44.6923
6382.5 51.1538
6383.5 47.3846
6384.5 37.1538
6385.5 40.0769
6386.5 28
6387.5 39
6388.5 29.4615
6389.5 26.2308
6390.5 42.4615
6391.5 47
6392.5 29.6923
6393.5 44.7692
6394.5 31.5385
6395.5 58.2308
6396.5 40.4615
6397.5 40.3846
6398.5 40.2308
6399.5 34.0769
6400.5 42.4615
6401.5 41.3077
6402.5 32.6154
6403.5 45.7692
6404.5 56.6154
6405.5 43.4615
6406.5 26
6407.5 27.6154
6408.5 47.6923
6409.5 29
6410.5 31.9231
6411.5 29.3077
6412.5 21.2308
6413.5 37.3846
6414.5 6.46154
6415.5 50.4615
6416.5 41.1538
6417.5 93.3077
6418.5 85.0769
6419.5 102.615
6420.5 74
6421.5 102.308
6422.5 115.538
6423.5 133.308
6424.5 146.308
6425.5 137.154
6426.5 74
6427.5 48.6154
6428.5 32.0769
6429.5 47.6154
6430.5 13.8462
6431.5 33
6432.5 16.3077
6433.5 45.8462
6434.5 18.3846
6435.5 24.8462
6436.5 19.9231
6437.5 21.6154
6438.5 19.0769
6439.5 16.0769
6440.5 32.2308
6441.5 35.3846
6442.5 28.7692
6443.5 26.3077
6444.5 24.4615
6445.5 39.9231
6446.5 18.3846
6447.5 22.2308
6448.5 20
6449.5 34.6923
6450.5 20.8462
6451.5 40.2308
6452.5 22.7692
6453.5 25.4615
6454.5 29.6923
6455.5 27.3077
6456.5 32.6923
6457.5 25.7692
6458.5 40.4615
6459.5 19.3077
6460.5 7.53846
6461.5 15.3077
6462.5 32.0769
6463.5 23.8462
6464.5 25.8462
6465.5 14.5385
6466.5 15.0769
6467.5 22.3846
6468.5 28.4615
6469.5 26.8462
6470.5 34.0769
6471.5 28.1538
6472.5 25.6923
6473.5 38.8462
6474.5 15.0769
6475.5 24.1538
6476.5 23.5385
6477.5 8
6478.5 25.1538
6479.5 49.9231
6480.5 13.3846
6481.5 11.4615
6482.5 -2.92308
6483.5 38.8462
6484.5 26.3846
6485.5 24.2308
6486.5 36.9231
6487.5 25.5385
6488.5 29.0769
6489.5 18.2308
6490.5 33.8462
6491.5 16.5385
6492.5 32
6493.5 10.2308
6494.5 43.4615
6495.5 13.6154
6496.5 15.9231
6497.5 28.3846
6498.5 3.15385
6499.5 23.9231
6500.5 23.0769
6501.5 23.6154
6502.5 23
6503.5 28.6154
6504.5 8.53846
6505.5 18
6506.5 25.9231
6507.5 11.1538
6508.5 24.2308
6509.5 25
6510.5 23.2308
6511.5 27
6512.5 23.8462
6513.5 12.0769
6514.5 15.1538
6515.5 32.5385
6516.5 15.4615
6517.5 21.3846
6518.5 23
6519.5 25.8462
6520.5 30.6154
6521.5 29.8462
6522.5 11.2308
6523.5 31.0769
6524.5 8.76923
6525.5 32
6526.5 17.6923
6527.5 28.2308
6528.5 27.5385
6529.5 17.0769
6530.5 -0.384616
6531.5 21.3846
6532.5 23.8462
6533.5 33.8462
6534.5 14.4615
6535.5 38.0769
6536.5 48.7692
6537.5 82.3077
6538.5 146.923
6539.5 226.462
6540.5 365
6541.5 559.615
6542.5 898.846
6543.5 1187.77
6544.5 1568.62
6545.5 1853.38
6546.5 1953.77
6547.5 1818.23
6548.5 1210.38
6549.5 725.769
6550.5 319.385
6551.5 185.154
6552.5 84.9231
6553.5 70.0769
6554.5 48.6923
6555.5 47.3077
6556.5 22.8462
6557.5 25.7692
6558.5 2.46154
6559.5 23.0769
6560.5 20.1538
6561.5 7.15385
6562.5 20.6154
6563.5 11.1538
6564.5 2.69231
6565.5 16.7692
6566.5 14.8462
6567.5 37
6568.5 11.9231
6569.5 15.3846
6570.5 8.61538
6571.5 9.92308
6572.5 -6.15385
6573.5 3.07692
6574.5 13.2308
6575.5 -1.92308
6576.5 2.76923
6577.5 -5.07692
6578.5 12.6154
6579.5 7.46154
6580.5 18.2308
6581.5 11.3846
6582.5 -0.230769
6583.5 8.38462
6584.5 8.76923
6585.5 3.15385
6586.5 7.53846
6587.5 12
6588.5 9.46154
6589.5 6.38462
6590.5 2.92308
6591.5 3.92308
6592.5 11.0769
6593.5 6.30769
6594.5 3.92308
6595.5 5.53846
6596.5 3.84615
6597.5 3
6598.5 5.23077
6599.5 10.4615
6600.5 6
6601.5 16.3846
6602.5 17.6154
6603.5 -0.230769
6604.5 14.4615
6605.5 7.61538
6606.5 17.5385
6607.5 7.46154
6608.5 4.46154
6609.5 15.0769
6610.5 1.76923
6611.5 14.6923
6612.5 12.0769
6613.5 5.69231
6614.5 13
6615.5 13.3077
6616.5 10.3846
6617.5 4.76923
6618.5 16.3846
6619.5 -8.07692
6620.5 -7.61538
6621.5 3.69231
6622.5 13.2308
6623.5 3.84615
6624.5 16.6923
6625.5 8.23077
6626.5 -0.538462
6627.5 -9.53846
6628.5 12.6154
6629.5 8.61538
6630.5 15.8462
6631.5 8
6632.5 -0.230769
6633.5 11
6634.5 2.61538
6635.5 10.3846
6636.5 14.4615
6637.5 11
6638.5 19.9231
6639.5 16.0769
6640.5 10.3077
6641.5 1.07692
6642.5 15.2308
6643.5 1.15385
6644.5 8.07692
6645.5 10.6154
6646.5 8.61538
6647.5 21.9231
6648.5 0.769231
6649.5 2.84615
6650.5 18.3077
6651.5 12.8462
6652.5 9.07692
6653.5 2.76923
6654.5 4.46154
6655.5 10.5385
6656.5 14.4615
6657.5 2.61538
6658.5 2.15385
6659.5 3.53846
6660.5 3.23077
6661.5 19.7692
6662.5 -4.07692
6663.5 8.07692
6664.5 11
6665.5 14.2308
6666.5 -3.92308
6667.5 1.69231
6668.5 19.6154
6669.5 -2.38462
6670.5 14.7692
6671.5 6.15385
6672.5 5.76923
6673.5 24.7692
6674.5 24.4615
6675.5 9.15385
6676.5 1.23077
6677.5 9.61538
6678.5 11.6923
6679.5 12.9231
6680.5 14
6681.5 1.92308
6682.5 17.9231
6683.5 1.53846
6684.5 -1
6685.5 -0.153846
6686.5 3.53846
6687.5 12.6154
6688.5 10.6154
6689.5 3.69231
6690.5 7.46154
6691.5 7.53846
6692.5 -8.69231
6693.5 15.6923
6694.5 19.7692
6695.5 0.307692
6696.5 10.5385
6697.5 14.2308
6698.5 0.230769
6699.5 11
6700.5 24
6701.5 1
6702.5 7.61538
6703.5 -8.92308
6704.5 3.23077
6705.5 9.07692
6706.5 7
6707.5 13.2308
6708.5 6.53846
6709.5 13.0769
6710.5 9.07692
6711.5 -0.0769231
6712.5 3.76923
6713.5 14.6923
6714.5 -3.76923
6715.5 3.84615
6716.5 3.30769
6717.5 1.61538
6718.5 18
6719.5 0.230769
6720.5 17.5385
6721.5 6.46154
6722.5 15.3077
6723.5 -2
6724.5 15.0769
6725.5 -7.07692
6726.5 12.1538
6727.5 6.61538
6728.5 14.0769
6729.5 8.07692
6730.5 -4.53846
6731.5 15.2308
6732.5 5.84615
6733.5 4.23077
6734.5 10.6154
6735.5 6
6736.5 8.38462
6737.5 14.3846
6738.5 11.4615
6739.5 8.38462
6740.5 8.61538
6741.5 12.3846
6742.5 -2.38462
6743.5 2.38462
6744.5 3.46154
6745.5 6.46154
6746.5 21.0769
6747.5 14.2308
6748.5 11.7692
6749.5 -7.30769
6750.5 2.76923
6751.5 22.3077
6752.5 16.4615
6753.5 -0.923077
6754.5 3.07692
6755.5 13.8462
6756.5 12.9231
6757.5 15.9231
6758.5 10
6759.5 5.92308
6760.5 -6.07692
6761.5 -4.15385
6762.5 6.38462
6763.5 11.5385
6764.5 5.76923
6765.5 5
6766.5 9.84615
6767.5 -1.61538
6768.5 1.69231
6769.5 5.69231
6770.5 -3.84615
6771.5 11.1538
6772.5 9.46154
6773.5 -7.92308
6774.5 7.92308
6775.5 -5.23077
6776.5 7.46154
6777.5 -3.76923
6778.5 -0.307692
6779.5 8.30769
6780.5 -1.19209e-07
6781.5 3.76923
6782.5 -7.76923
6783.5 -13.4615
6784.5 3.84615
6785.5 -3.84615
6786.5 6.23077
6787.5 0.076923
6788.5 12.3077
6789.5 7.30769
6790.5 9.38462
6791.5 11.9231
6792.5 11.3077
6793.5 4
6794.5 2.30769
6795.5 9.15385
6796.5 5.07692
6797.5 8
6798.5 2.30769
6799.5 12.3846
6800.5 8.30769
6801.5 12
6802.5 10.6154
6803.5 10.8462
6804.5 15.6154
6805.5 6.30769
6806.5 19
6807.5 3.30769
6808.5 -0.692308
6809.5 -4.07692
6810.5 5.30769
6811.5 8.53846
6812.5 1.61538
6813.5 -0.384615
6814.5 17.0769
6815.5 5
6816.5 2.53846
6817.5 15.8462
6818.5 0.230769
6819.5 6.92308
6820.5 0.153846
6821.5 9.15385
6822.5 4.15385
6823.5 11.8462
6824.5 -2.30769
6825.5 -2.61538
6826.5 7.46154
6827.5 6.92308
6828.5 13.0769
6829.5 11.1538
6830.5 3.07692
6831.5 6.15385
6832.5 -3.53846
6833.5 2.30769
6834.5 4.07692
6835.5 2.07692
6836.5 -0.769231
6837.5 6.30769
6838.5 -4.23077
6839.5 -1.07692
6840.5 4.38462
6841.5 9
6842.5 6.30769
6843.5 2.69231
6844.5 3.38462
6845.5 -6
6846.5 6.23077
6847.5 9.23077
6848.5 3.76923
6849.5 9.61538
6850.5 8.76923
6851.5 1.92308
6852.5 0.461538
6853.5 10
6854.5 11.0769
6855.5 6
6856.5 -3.38462
6857.5 0.076923
6858.5 2.07692
6859.5 3
6860.5 -4.38462
6861.5 0.153846
6862.5 13.6923
6863.5 -0.692308
6864.5 15.3077
6865.5 10.9231
6866.5 1
6867.5 3
6868.5 -0.615385
6869.5 1.53846
6870.5 -0.692308
6871.5 3.84615
6872.5 -3.69231
6873.5 9
6874.5 4.07692
6875.5 7.76923
6876.5 6.07692
6877.5 1.92308
6878.5 -1.84615
6879.5 10.3846
6880.5 -8.30769
6881.5 -4.46154
6882.5 8.15385
6883.5 5.07692
6884.5 4
6885.5 2.30769
6886.5 4.07692
6887.5 5.69231
6888.5 0.307692
6889.5 9
6890.5 2.38462
6891.5 13.8462
6892.5 -5.69231
6893.5 7
6894.5 4.92308
6895.5 15.7692
6896.5 4.76923
6897.5 7
6898.5 7
6899.5 0.076923
6900.5 -3
6901.5 9.38462
6902.5 5.30769
6903.5 -0.230769
6904.5 5.61538
6905.5 6.76923
6906.5 4
6907.5 10.8462
6908.5 -4.69231
6909.5 4.46154
6910.5 -3.69231
6911.5 13.5385
6912.5 -1.92308
6913.5 9.15385
6914.5 3.15385
6915.5 4.92308
6916.5 5.23077
6917.5 6.23077
6918.5 2.53846
6919.5 1.38462
6920.5 3.15385
6921.5 -8.53846
6922.5 -5.46154
6923.5 3.46154
6924.5 7.76923
6925.5 16.0769
6926.5 13.3846
6927.5 28.3846
6928.5 43.6923
6929.5 36.6923
6930.5 107.077
6931.5 126.077
6932.5 167.308
6933.5 217.385
6934.5 235.308
6935.5 206.385
6936.5 165.385
6937.5 133.769
6938.5 75
6939.5 51.1538
6940.5 31
6941.5 16
6942.5 11.2308
6943.5 10.4615
6944.5 10.0769
6945.5 6.30769
6946.5 4
6947.5 1.38462
6948.5 5.92308
6949.5 -1.76923
6950.5 2.07692
6951.5 -2.46154
6952.5 -8.53846
6953.5 -3.53846
6954.5 -1.76923
6955.5 14.8462
6956.5 3.46154
6957.5 7.84615
6958.5 5.07692
6959.5 -3.84615
6960.5 -0.923077
6961.5 5.92308
6962.5 -0.615385
6963.5 4.23077
6964.5 4.69231
6965.5 -6.46154
6966.5 -5.76923
6967.5 -4.84615
6968.5 1.84615
6969.5 6.30769
6970.5 2
6971.5 5.92308
6972.5 -1.15385
6973.5 13.6154
6974.5 5.15385
6975.5 -1.61538
6976.5 2.46154
6977.5 -9.38462
6978.5 -5.84615
6979.5 4.07692
6980.5 7.07692
6981.5 4.23077
6982.5 0.384615
6983.5 0.153846
6984.5 -6.61538
6985.5 3
6986.5 -5.92308
6987.5 7.76923
6988.5 0.846154
6989.5 1.07692
6990.5 3.46154
6991.5 -2.07692
6992.5 10.9231
6993.5 4.84615
6994.5 8.92308
6995.5 3.38462
6996.5 -2.53846
6997.5 -6.92308
6998.5 -5.96046e-08
6999.5 -5.76923
7000.5 5.15385
7001.5 0.384615
7002.5 1
7003.5 0.307692
7004.5 -11.3846
7005.5 -4.69231
7006.5 5.84615
7007.5 2.53846
7008.5 -0.769231
7009.5 -3.07692
7010.5 -4.30769
7011.5 -6.76923
7012.5 -7.53846
7013.5 0.230769
7014.5 -10.2308
7015.5 5.07692
7016.5 -2.76923
7017.5 1.07692
7018.5 12.7692
7019.5 -1.30769
7020.5 -2.07692
7021.5 3.46154
7022.5 2.23077
7023.5 2.38462
7024.5 12.9231
7025.5 -1.76923
7026.5 6.61538
7027.5 3.30769
7028.5 7
7029.5 0.846154
7030.5 11.6923
7031.5 0.076923
7032.5 -3.53846
7033.5 4
7034.5 5.30769
7035.5 -6.23077
7036.5 1.07692
7037.5 -0.615385
7038.5 1.15385
7039.5 0.384615
7040.5 4.92308
7041.5 8.61538
7042.5 -4.53846
7043.5 -3.76923
7044.5 1
7045.5 3.07692
7046.5 7.84615
7047.5 2.69231
7048.5 2
7049.5 4.76923
7050.5 -1
7051.5 2.30769
7052.5 -5.96046e-08
7053.5 0.307692
7054.5 -0.769231
7055.5 7.92308
7056.5 -1.92308
7057.5 1.23077
7058.5 0.384615
7059.5 -1
7060.5 5.38462
7061.5 -2.61538
7062.5 -5.46154
7063.5 1.84615
7064.5 7.07692
7065.5 -14.5385
7066.5 5.23077
7067.5 8.92308
7068.5 1.61538
7069.5 2.69231
7070.5 4.92308
7071.5 9.46154
7072.5 -7.92308
7073.5 7.07692
7074.5 1.76923
7075.5 11.6923
7076.5 1.76923
7077.5 -2.69231
7078.5 4.84615
7079.5 3.61538
7080.5 7
7081.5 -3.61538
7082.5 -3.46154
7083.5 8.07692
7084.5 3.69231
7085.5 2
7086.5 10.6923
7087.5 -2
7088.5 7.76923
7089.5 2.76923
7090.5 7
7091.5 1.92308
7092.5 -3.46154
7093.5 -0.0769231
7094.5 0.923077
7095.5 -6
7096.5 5.76923
7097.5 -4.15385
7098.5 7.84615
7099.5 -3
7100.5 6.69231
7101.5 -2.23077
7102.5 -0.153846
7103.5 3.84615
7104.5 -3.53846
7105.5 -5.96046e-08
7106.5 9.76923
7107.5 0.846154
7108.5 1.76923
7109.5 -2.92308
7110.5 1.76923
7111.5 4.69231
7112.5 3.15385
7113.5 1.15385
7114.5 2.15385
7115.5 -3.76923
7116.5 -2
7117.5 -1.46154
7118.5 0.307692
7119.5 4.53846
7120.5 3.38462
7121.5 4.07692
7122.5 -5.46154
7123.5 -1.61538
7124.5 0.692308
7125.5 3.76923
7126.5 5.84615
7127.5 -5.61538
7128.5 8.53846
7129.5 -5.07692
7130.5 4.69231
7131.5 -5.96046e-08
7132.5 -0.923077
7133.5 1.76923
7134.5 5.23077
7135.5 -1
7136.5 2.84615
7137.5 -3.07692
7138.5 5.84615
7139.5 -5.92308
7140.5 -2.23077
7141.5 7.53846
7142.5 -1.84615
7143.5 -0.307692
7144.5 1.92308
7145.5 5.15385
7146.5 -8.61538
7147.5 7.38462
7148.5 -1.69231
7149.5 -2.15385
7150.5 1.84615
7151.5 0.615385
7152.5 -2.76923
7153.5 2.53846
7154.5 4
7155.5 2.76923
7156.5 0.384615
7157.5 -2.15385
7158.5 -6.69231
7159.5 1.76923
7160.5 -3.15385
7161.5 0.846154
7162.5 -2.07692
7163.5 -0.923077
7164.5 -0.538462
7165.5 4.76923
7166.5 -3.84615
7167.5 4.92308
7168.5 -4.61538
7169.5 4.84615
7170.5 3.07692
7171.5 0.692308
7172.5 5.76923
7173.5 2.69231
7174.5 -9.53846
7175.5 0.076923
7176.5 5.38462
7177.5 1.84615
7178.5 5.38462
7179.5 7.69231
7180.5 -2.76923
7181.5 -3.76923
7182.5 -7.53846
7183.5 4
7184.5 -2.07692
7185.5 4
7186.5 1.84615
7187.5 3.76923
7188.5 4.76923
7189.5 4.76923
7190.5 2.84615
7191.5 -6.84615
7192.5 6.76923
7193.5 -4.92308
7194.5 1.15385
7195.5 6.69231
7196.5 6.92308
7197.5 5.92308
7198.5 2.76923
7199.5 -0.692308
7200.5 -3.30769
7201.5 11.9231
7202.5 -12.0769
7203.5 -0.692308
7204.5 -6.92308
7205.5 -0.615385
7206.5 2.61538
7207.5 -13.6154
7208.5 -5.38462
7209.5 11.3077
7210.5 -2.76923
7211.5 5.07692
7212.5 -8.53846
7213.5 8.30769
7214.5 -3.76923
7215.5 -0.769231
7216.5 2.92308
7217.5 -0.0769231
7218.5 13.8462
7219.5 -1.92308
7220.5 0.769231
7221.5 3.76923
7222.5 1.92308
7223.5 -4.15385
7224.5 -2
7225.5 -2
7226.5 -1.92308
7227.5 -7.69231
7228.5 2.76923
7229.5 5.38462
7230.5 -1.30769
7231.5 -2.23077
7232.5 -3.15385
7233.5 4.76923
7234.5 4.61538
7235.5 -1.46154
7236.5 5.46154
7237.5 5.69231
7238.5 7.46154
7239.5 1.76923
7240.5 3.61538
7241.5 7.38462
7242.5 -8.84615
7243.5 2.15385
7244.5 -6.61538
7245.5 3.07692
7246.5 -2.30769
7247.5 -1.07692
7248.5 7.76923
7249.5 1.92308
7250.5 4.69231
7251.5 0.692308
7252.5 4.69231
7253.5 1.46154
7254.5 4.61538
7255.5 8.61538
7256.5 3.84615
7257.5 4.76923
7258.5 -13.1538
7259.5 13.9231
7260.5 14.0769
7261.5 5.84615
7262.5 3.61538
7263.5 6
7264.5 6.23077
7265.5 -7.15385
7266.5 -2.53846
7267.5 -9.76923
7268.5 5.07692
7269.5 1
7270.5 0.923077
7271.5 0.461538
7272.5 -5.84615
7273.5 -3.15385
7274.5 4.69231
7275.5 4.69231
7276.5 -8.61538
7277.5 3.61538
7278.5 15.6154
7279.5 1.07692
7280.5 4.76923
7281.5 0.846154
7282.5 2.46154
7283.5 -4.69231
7284.5 -5
7285.5 2.69231
7286.5 -4
7287.5 1.84615
7288.5 -5
7289.5 -5.61538
7290.5 -12.4615
7291.5 -7.38462
7292.5 -9.76923
7293.5 -15.8462
7294.5 -11.7692
7295.5 -11.3846
7296.5 -18.5385
7297.5 -12.0769
7298.5 -0.461539
7299.5 7.15385
7300.5 6.84615
7301.5 13.6154
7302.5 1.07692
7303.5 14
7304.5 16.6154
7305.5 20.5385
7306.5 19.8462
7307.5 2.07692
7308.5 4.07692
7309.5 5.84615
7310.5 -0.461539
7311.5 -3.46154
7312.5 -1.23077
7313.5 -1.30769
7314.5 4.46154
7315.5 -3.23077
7316.5 8.92308
7317.5 -7.38462
7318.5 -9.84615
7319.5 -11.5385
7320.5 4.15385
7321.5 -0.769231
7322.5 0.769231
7323.5 -6.15385
7324.5 -6.84615
7325.5 1.53846
7326.5 -2.23077
7327.5 5.53846
7328.5 -1.38462
7329.5 -8.92308
7330.5 4.38462
7331.5 4.38462
7332.5 0.461538
7333.5 -2.30769
7334.5 -5.84615
7335.5 4.46154
7336.5 2.46154
7337.5 0.615385
7338.5 3.38462
7339.5 0.538462
7340.5 -0.384615
7341.5 -0.538462
7342.5 -1.15385
7343.5 3.46154
7344.5 4.46154
7345.5 -3.38462
7346.5 0.769231
7347.5 3.61538
7348.5 2.61538
7349.5 7.92308
7350.5 -7.92308
7351.5 2.69231
7352.5 3.07692
7353.5 14.3846
7354.5 -5.69231
7355.5 -3.84615
7356.5 -9.15385
7357.5 2.15385
7358.5 -0.384615
7359.5 -4.15385
7360.5 2.76923
7361.5 -4
7362.5 -0.307692
7363.5 -6
7364.5 2.53846
7365.5 -2.07692
7366.5 -2.92308
7367.5 1.46154
7368.5 -3.15385
7369.5 -3
7370.5 1.53846
7371.5 4.61538
7372.5 4.69231
7373.5 5.53846
7374.5 4.69231
7375.5 -2.23077
7376.5 -3.84615
7377.5 -4.23077
7378.5 -4.23077
7379.5 2.46154
7380.5 -0.538462
7381.5 2.53846
7382.5 -1.46154
7383.5 -2.30769
7384.5 2.76923
7385.5 -4.07692
7386.5 4.53846
7387.5 -3.23077
7388.5 -2.23077
7389.5 2.69231
7390.5 -3.23077
7391.5 -0.384615
7392.5 -5.15385
7393.5 -4.07692
7394.5 0.461538
7395.5 2.46154
7396.5 -5.15385
7397.5 3.38462
7398.5 -2.38462
7399.5 1.23077
7400.5 0.538462
7401.5 2.61538
7402.5 3.69231
7403.5 -1.30769
7404.5 5.30769
7405.5 0.538462
7406.5 4.46154
7407.5 1.53846
7408.5 1.53846
7409.5 5.38462
7410.5 8.53846
7411.5 12.6154
7412.5 -3.69231
7413.5 3.30769
7414.5 -3.07692
7415.5 -7.92308
7416.5 11.3077
7417.5 1.38462
7418.5 1
7419.5 -0.307692
7420.5 -0.0769232
7421.5 -9.23077
7422.5 -5.15385
7423.5 -3.07692
7424.5 -5
7425.5 -4.30769
7426.5 -0.307692
7427.5 1.53846
7428.5 4.23077
7429.5 6.46154
7430.5 -6.23077
7431.5 -0.307692
7432.5 4.38462
7433.5 3.38462
7434.5 3.53846
7435.5 2.61538
7436.5 -6.15385
7437.5 4.61538
7438.5 -5.92308
7439.5 0.769231
7440.5 4.30769
7441.5 1.61538
7442.5 -3.30769
7443.5 -0.230769
7444.5 -2.61538
7445.5 1.76923
7446.5 11.0769
7447.5 0.692308
7448.5 -9.53846
7449.5 0.846154
7450.5 1.61538
7451.5 2.69231
7452.5 5.69231
7453.5 -3
7454.5 8.46154
7455.5 1
7456.5 6.07692
7457.5 4.69231
7458.5 4.23077
7459.5 -5.84615
7460.5 2.38462
7461.5 0.846154
7462.5 1.53846
7463.5 8.46154
7464.5 1.46154
7465.5 -3.30769
7466.5 -6.07692
7467.5 -4
7468.5 7.61538
7469.5 0.692308
7470.5 1.84615
7471.5 -4.07692
7472.5 0.461538
7473.5 -0.384615
7474.5 0.461538
7475.5 2.23077
7476.5 0.615385
7477.5 3.38462
7478.5 -7.07692
7479.5 -1.23077
7480.5 -3.30769
7481.5 -0.461538
7482.5 -4.23077
7483.5 1.53846
7484.5 1.61538
7485.5 5.38462
7486.5 -2.23077
7487.5 -0.307692
7488.5 1.53846
7489.5 1.61538
7490.5 -2.46154
7491.5 -4.38462
7492.5 4.46154
7493.5 2.53846
7494.5 -2.46154
7495.5 -0.615385
7496.5 -1.30769
7497.5 2.38462
7498.5 0.538462
7499.5 -3.46154
7500.5 -2.46154
7501.5 1.46154
7502.5 -7.84615
7503.5 4.69231
7504.5 8.15385
7505.5 -3.53846
7506.5 -1.38462
7507.5 2.53846
7508.5 -5
7509.5 -0.461538
7510.5 -0.461538
7511.5 1
7512.5 6.61538
7513.5 -0.461538
7514.5 -1.46154
7515.5 -4.23077
7516.5 -2.38462
7517.5 3.53846
7518.5 -1.46154
7519.5 0.615385
7520.5 -2.30769
7521.5 -3.07692
7522.5 0.692308
7523.5 1.69231
7524.5 4.23077
7525.5 2.61538
7526.5 0.538462
7527.5 5.30769
7528.5 0.538462
7529.5 -2.15385
7530.5 -6.38462
7531.5 -3.23077
7532.5 -3.30769
7533.5 -6.23077
7534.5 0.692308
7535.5 4.15385
7536.5 2.38462
7537.5 -1.46154
7538.5 1.46154
7539.5 -0.538462
7540.5 -5.30769
7541.5 -1.23077
7542.5 1.76923
7543.5 8.30769
7544.5 3.30769
7545.5 -0.230769
7546.5 -1.46154
7547.5 0.384615
7548.5 6.38462
7549.5 3.38462
7550.5 -1.46154
7551.5 0.615385
7552.5 2.46154
7553.5 5.38462
7554.5 -1.76923
7555.5 -7
7556.5 -1.38462
7557.5 3.53846
7558.5 0.384615
7559.5 4.46154
7560.5 -4
7561.5 11.3846
7562.5 -0.538462
7563.5 1.61538
7564.5 -1.38462
7565.5 4.15385
7566.5 -0.538462
7567.5 -5.15385
7568.5 -4.92308
7569.5 2.92308
7570.5 -0.615385
7571.5 0.230769
7572.5 5.15385
7573.5 3.53846
7574.5 -5.07692
7575.5 6.76923
7576.5 8.38462
7577.5 -0.307692
7578.5 -1.84615
7579.5 8.38462
7580.5 4.69231
7581.5 -5.15385
7582.5 4.46154
7583.5 11.1538
7584.5 2.53846
7585.5 1.38462
7586.5 -5.53846
7587.5 -5.23077
7588.5 -0.384615
7589.5 -1.53846
7590.5 -4.46154
7591.5 2.46154
7592.5 3.30769
7593.5 -3.53846
7594.5 -1.30769
7595.5 9.23077
7596.5 -9
7597.5 0.384615
7598.5 0.615385
7599.5 1.53846
7600.5 -8.07692
7601.5 -0.615385
7602.5 2.38462
7603.5 -4.38462
7604.5 -0.307692
7605.5 -2.61538
7606.5 -1.53846
7607.5 -4.23077
7608.5 -4.46154
7609.5 2.46154
7610.5 0.384615
7611.5 -2.61538
7612.5 5.38462
7613.5 -8
7614.5 5.23077
7615.5 -1.38462
7616.5 -0.461538
7617.5 7.30769
7618.5 2.38462
7619.5 4.15385
7620.5 1.46154
7621.5 -1.38462
7622.5 1.53846
7623.5 -2.30769
7624.5 1.30769
7625.5 -0.307692
7626.5 -5.23077
7627.5 -4.92308
7628.5 -2.07692
7629.5 -0.384615
7630.5 0.461538
7631.5 5.61538
7632.5 0.692308
7633.5 4.46154
7634.5 1.46154
7635.5 -6.23077
7636.5 1.46154
7637.5 0.461538
7638.5 0.692308
7639.5 -3.30769
7640.5 3.30769
7641.5 5.23077
7642.5 -3.30769
7643.5 2.61538
7644.5 -6.15385
7645.5 0.538462
7646.5 -2.46154
7647.5 0.461538
7648.5 4.53846
7649.5 6.23077
7650.5 9.15385
7651.5 -0.615385
7652.5 1.61538
7653.5 1.69231
7654.5 -0.538462
7655.5 -4.53846
7656.5 -8.15385
7657.5 -2.38462
7658.5 -4.46154
7659.5 3.30769
7660.5 1.61538
7661.5 -0.538462
7662.5 -1.53846
7663.5 2.23077
7664.5 2.15385
7665.5 0.307692
7666.5 0.538462
7667.5 -1.69231
7668.5 -2
7669.5 4.46154
7670.5 -3.30769
7671.5 -2.46154
7672.5 -0.692308
7673.5 0.384615
7674.5 1.53846
7675.5 -7.07692
7676.5 -3.46154
7677.5 -1.38462
7678.5 5.30769
7679.5 0.230769
7680.5 7.15385
7681.5 -0.538462
7682.5 -1.30769
7683.5 -1.61538
7684.5 -0.692308
7685.5 -1.46154
7686.5 -1.46154
7687.5 3
7688.5 -0.615385
7689.5 3.23077
7690.5 5.23077
7691.5 3.23077
7692.5 -3.30769
7693.5 3.07692
7694.5 0.538462
7695.5 0.153846
7696.5 4.23077
7697.5 4.61538
7698.5 5.61538
7699.5 0.692308
7700.5 -1.30769
7701.5 6.38462
7702.5 8.23077
7703.5 4.30769
7704.5 2.38462
7705.5 0.384615
7706.5 2.61538
7707.5 -2.15385
7708.5 -2.38462
7709.5 0.461538
7710.5 4.53846
7711.5 10.2308
7712.5 6.30769
7713.5 -4.30769
7714.5 0.307692
7715.5 6.23077
7716.5 -4.30769
7717.5 2.23077
7718.5 -1.46154
7719.5 -0.307692
7720.5 -6.30769
7721.5 0.384615
7722.5 -4.07692
7723.5 -0.461538
7724.5 -6.23077
7725.5 -6.23077
7726.5 0.384615
7727.5 -0.307692
7728.5 -2.46154
7729.5 0.384615
7730.5 4.23077
7731.5 0.384615
7732.5 -0.615385
7733.5 0.307692
7734.5 -4.46154
7735.5 2.30769
7736.5 -0.538462
7737.5 1.15385
7738.5 5.23077
7739.5 7.15385
7740.5 5.15385
7741.5 0.384615
7742.5 -2.53846
7743.5 1.38462
7744.5 0.384615
7745.5 -9.23077
7746.5 7.23077
7747.5 0.384615
7748.5 3.23077
7749.5 7.23077
7750.5 -5.53846
7751.5 0.384615
7752.5 -3.69231
7753.5 -0.538462
7754.5 1.23077
7755.5 -3.23077
7756.5 -2.46154
7757.5 -2.53846
7758.5 2.46154
7759.5 0.230769
7760.5 2.23077
7761.5 1.38462
7762.5 -1.61538
7763.5 -0.307692
7764.5 -4.46154
7765.5 -5
7766.5 -1.61538
7767.5 2.46154
7768.5 -10.4615
7769.5 0.153846
7770.5 1.61538
7771.5 4.07692
7772.5 5.53846
7773.5 -6.30769
7774.5 9.46154
7775.5 -4.30769
7776.5 7.53846
7777.5 4.84615
7778.5 -1.07692
7779.5 -0.615385
7780.5 -1.46154
7781.5 6.38462
7782.5 1.38462
7783.5 5.38462
7784.5 -0.769231
7785.5 4.38462
7786.5 3.23077
7787.5 7.30769
7788.5 0.307692
7789.5 0.461538
7790.5 1.53846
7791.5 -2.23077
7792.5 3.23077
7793.5 3.23077
7794.5 1.15385
7795.5 -0.769231
7796.5 3.23077
7797.5 -2.46154
7798.5 -0.692308
7799.5 -1.53846
7800.5 0.307692
7801.5 -3.46154
7802.5 -1.61538
7803.5 -0.692308
7804.5 0.461538
7805.5 2.23077
7806.5 -4.53846
7807.5 -1.61538
7808.5 3.23077
7809.5 -2.46154
7810.5 1.30769
7811.5 0.230769
7812.5 2.23077
7813.5 -2.53846
7814.5 -0.615385
7815.5 -4.30769
7816.5 0.615385
7817.5 3.46154
7818.5 7.61538
7819.5 -4.38462
7820.5 -0.923077
7821.5 1.69231
7822.5 2.92308
7823.5 -2.61538
7824.5 9.23077
7825.5 -2.53846
7826.5 8
7827.5 -11.2308
7828.5 -14.6923
7829.5 2.69231
7830.5 -4.69231
7831.5 2.30769
7832.5 13.8462
7833.5 -2.53846
7834.5 0.461538
7835.5 0.230769
7836.5 -0.538462
7837.5 -0.615385
7838.5 -4.30769
7839.5 1.23077
7840.5 2.23077
7841.5 -3.38462
7842.5 3.23077
7843.5 2.15385
7844.5 0.307692
7845.5 3.15385
7846.5 4.07692
7847.5 3.30769
7848.5 7.07692
7849.5 0.461538
7850.5 -0.769231
7851.5 0.230769
7852.5 1.15385
7853.5 -0.615385
7854.5 -5.30769
7855.5 3.15385
7856.5 0.461538
7857.5 3.15385
7858.5 2.15385
7859.5 4.07692
7860.5 1.15385
7861.5 1.23077
7862.5 2.15385
7863.5 1.07692
7864.5 -2.61538
7865.5 -5.38462
7866.5 2.07692
7867.5 -0.846154
7868.5 -1.76923
7869.5 -1.61538
7870.5 0.230769
7871.5 -0.846154
7872.5 4
7873.5 0.384615
7874.5 5.07692
7875.5 -1.76923
7876.5 0.384615
7877.5 0.307692
7878.5 -2.53846
7879.5 1.30769
7880.5 1.15385
7881.5 -2.46154
7882.5 -1.76923
7883.5 -2.46154
7884.5 -3.53846
7885.5 -2.53846
7886.5 5.07692
7887.5 -3.69231
7888.5 -4.53846
7889.5 -4.61538
7890.5 0.0769231
7891.5 -1.76923
7892.5 4.07692
7893.5 0.230769
7894.5 0.230769
7895.5 -4.61538
7896.5 -2.69231
7897.5 2.30769
7898.5 -2.38462
7899.5 -1.76923
7900.5 -2.69231
7901.5 -1.69231
7902.5 0.153846
7903.5 1.15385
7904.5 -0.769231
7905.5 -3.61538
7906.5 0.230769
7907.5 0.307692
7908.5 -2.53846
7909.5 1.07692
7910.5 -2.53846
7911.5 6.38462
7912.5 3.15385
7913.5 0.307692
7914.5 -2.61538
7915.5 4.38462
7916.5 -3.46154
7917.5 2.38462
7918.5 1.23077
7919.5 3.38462
7920.5 -2.30769
7921.5 1.30769
7922.5 1.46154
7923.5 3.15385
7924.5 1.23077
7925.5 -0.461538
7926.5 0.153846
7927.5 1.23077
7928.5 1.38462
7929.5 0.230769
7930.5 -0.692308
7931.5 0.153846
7932.5 2.07692
7933.5 -0.769231
7934.5 -3.61538
7935.5 5
7936.5 -0.846154
7937.5 -4.61538
7938.5 3.07692
7939.5 -2.53846
7940.5 2.15385
7941.5 -0.769231
7942.5 2.15385
7943.5 -3.53846
7944.5 1.23077
7945.5 3
7946.5 2.30769
7947.5 -3.61538
7948.5 3.15385
7949.5 -0.769231
7950.5 -0.615385
7951.5 3.07692
7952.5 -1.76923
7953.5 -1.69231
7954.5 1.15385
7955.5 2.23077
7956.5 1.23077
7957.5 -1.61538
7958.5 1.07692
7959.5 -2.46154
7960.5 -3.61538
7961.5 -2.69231
7962.5 0.153846
7963.5 1.23077
7964.5 2
7965.5 -0.769231
7966.5 -1.53846
7967.5 0
7968.5 2.23077
7969.5 5.07692
7970.5 -4.53846
7971.5 -0.692308
7972.5 1.15385
7973.5 -1.76923
7974.5 -1.69231
7975.5 -0.692308
7976.5 -0.692308
7977.5 -2.69231
7978.5 -4.61538
7979.5 -3.53846
7980.5 0.153846
7981.5 0.0769231
7982.5 1.15385
7983.5 -2.53846
7984.5 -0.692308
7985.5 0.0769231
7986.5 -2.61538
7987.5 -0.615385
7988.5 -0.692308
7989.5 1.07692
7990.5 4.23077
7991.5 -1.61538
7992.5 2
7993.5 0.307692
7994.5 -2.61538
7995.5 -1.76923
7996.5 -1.76923
7997.5 1.07692
7998.5 3.07692
7999.5 -0.769231
8000.5 5.07692
8001.5 3.15385
8002.5 -3.53846
8003.5 0.230769
8004.5 -5.53846
8005.5 -2.53846
8006.5 2.07692
8007.5 1.07692
8008.5 -0.846154
8009.5 0.153846
8010.5 -1.53846
8011.5 -0.846154
8012.5 -1.76923
8013.5 2.07692
8014.5 -1.76923
8015.5 2.30769
8016.5 0.230769
8017.5 2.07692
8018.5 0.153846
8019.5 -4.53846
8020.5 1
8021.5 1.15385
8022.5 3.15385
8023.5 0.307692
8024.5 1.15385
8025.5 0.230769
8026.5 2
8027.5 1.15385
8028.5 -0.615385
8029.5 -5.30769
8030.5 -0.846154
8031.5 -0.615385
8032.5 -0.461538
8033.5 -2.61538
8034.5 -2.69231
8035.5 -0.846154
8036.5 1.15385
8037.5 2
8038.5 0.153846
8039.5 2.07692
8040.5 -0.923077
8041.5 -1.76923
8042.5 0.0769231
8043.5 1.15385
8044.5 -0.923077
8045.5 -0.692308
8046.5 -0.692308
8047.5 -2.69231
8048.5 -1.84615
8049.5 3.15385
8050.5 3.15385
8051.5 2
8052.5 5.15385
8053.5 -1.69231
8054.5 -0.846154
8055.5 1.07692
8056.5 2.07692
8057.5 1.23077
8058.5 3.15385
8059.5 1.15385
8060.5 0.0769231
8061.5 3
8062.5 0.307692
8063.5 -1.69231
8064.5 1.15385
8065.5 -0.692308
8066.5 0.307692
8067.5 0.153846
8068.5 -1.76923
8069.5 3.15385
8070.5 -3.61538
8071.5 3.15385
8072.5 1.30769
8073.5 -0.692308
8074.5 4.07692
8075.5 1.23077
8076.5 0.230769
8077.5 1.38462
8078.5 3.38462
8079.5 -0.384615
8080.5 -4.92308
8081.5 -1.84615
8082.5 -1.15385
8083.5 -8.76923
8084.5 4.69231
8085.5 4.69231
8086.5 -13.8462
8087.5 5.38462
8088.5 4.53846
8089.5 3.38462
8090.5 -4
8091.5 -3.46154
8092.5 2.38462
8093.5 4.23077
8094.5 1.23077
8095.5 0.0769231
8096.5 2.07692
8097.5 4.07692
8098.5 1.15385
8099.5 -3.69231
8100.5 -0.923077
8101.5 -0.846154
8102.5 8.07692
8103.5 1
8104.5 -3.61538
8105.5 -1.69231
8106.5 0.153846
8107.5 -1.76923
8108.5 1.07692
8109.5 0.153846
8110.5 2.15385
8111.5 0.153846
8112.5 0.307692
8113.5 0
8114.5 0
8115.5 0
8116.5 -2.76923
8117.5 -0.846154
8118.5 3
8119.5 3.07692
8120.5 -1.84615
8121.5 -1.76923
8122.5 1
8123.5 -0.846154
8124.5 1.07692
8125.5 2
8126.5 3
8127.5 1
8128.5 -1.76923
8129.5 0
8130.5 2
8131.5 0.153846
8132.5 0
8133.5 -2.76923
8134.5 1.07692
8135.5 1.07692
8136.5 -0.846154
8137.5 3.15385
8138.5 -3.69231
8139.5 5.07692
8140.5 -2.76923
8141.5 1
8142.5 2.07692
8143.5 1.23077
8144.5 2.23077
8145.5 0.0769231
8146.5 2.07692
8147.5 4.15385
8148.5 -1.76923
8149.5 3.07692
8150.5 0.0769231
8151.5 1.07692
8152.5 -2.61538
8153.5 1.23077
8154.5 -1.76923
8155.5 -0.846154
8156.5 -2.76923
8157.5 -1.69231
8158.5 -2.69231
8159.5 -0.692308
8160.5 0.230769
8161.5 -1.69231
8162.5 0.0769231
8163.5 -2.69231
8164.5 -0.769231
8165.5 -0.692308
8166.5 -0.692308
8167.5 5
8168.5 -3.46154
8169.5 2.07692
8170.5 0.153846
8171.5 -1.84615
8172.5 2
8173.5 2
8174.5 0.0769231
8175.5 1
8176.5 1.07692
8177.5 0
8178.5 -1.84615
8179.5 3
8180.5 -0.923077
8181.5 -3.61538
8182.5 1.07692
8183.5 -2.76923
8184.5 2.15385
8185.5 1.15385
8186.5 2
8187.5 -0.923077
8188.5 -0.846154
8189.5 1
8190.5 -2.69231
8191.5 0.0769231
8192.5 0.153846
8193.5 -1.76923
8194.5 -1.76923
8195.5 -1.76923
8196.5 4.07692
8197.5 1.15385
8198.5 -0.769231
8199.5 1.07692
8200.5 0.153846
8201.5 0
8202.5 0.153846
8203.5 0.230769
8204.5 -2.76923
8205.5 1.07692
8206.5 0.0769231
8207.5 0
8208.5 3
8209.5 3.15385
8210.5 0.0769231
8211.5 0.0769231
8212.5 1.15385
8213.5 1.23077
8214.5 -0.846154
8215.5 1.15385
8216.5 2.15385
8217.5 -1.84615
8218.5 -1.84615
8219.5 -0.846154
8220.5 0.0769231
8221.5 0.153846
8222.5 -2.69231
8223.5 0.153846
8224.5 1.07692
8225.5 1.15385
8226.5 1
8227.5 0.153846
8228.5 3
8229.5 2
8230.5 0.0769231
8231.5 1.15385
8232.5 2.07692
8233.5 -0.923077
8234.5 0.0769231
8235.5 -0.923077
8236.5 -0.846154
8237.5 0.0769231
8238.5 1
8239.5 -0.846154
8240.5 1
8241.5 -1.84615
8242.5 -0.846154
8243.5 -0.846154
8244.5 2.07692
8245.5 6
8246.5 -0.846154
8247.5 0.230769
8248.5 1.15385
8249.5 0.153846
8250.5 0.0769231
8251.5 -0.769231
8252.5 0.230769
8253.5 0
8254.5 -0.923077
8255.5 4
8256.5 -2.76923
8257.5 1.07692
8258.5 0.153846
8259.5 1.07692
8260.5 -2.76923
8261.5 -1.76923
8262.5 0.153846
8263.5 -1.76923
8264.5 1
8265.5 3.15385
8266.5 3.07692
8267.5 0.0769231
8268.5 -0.769231
8269.5 -1.76923
8270.5 1.07692
8271.5 1
8272.5 0.0769231
8273.5 -1.76923
8274.5 2.07692
8275.5 -0.769231
8276.5 1
8277.5 1.15385
8278.5 -0.923077
8279.5 -0.769231
8280.5 2.15385
8281.5 2.15385
8282.5 3
8283.5 1
8284.5 2
8285.5 0.0769231
8286.5 3
8287.5 2
8288.5 -1.69231
8289.5 0.307692
8290.5 1
8291.5 0
8292.5 -0.846154
8293.5 1
8294.5 -1.84615
8295.5 -0.923077
8296.5 -2.76923
8297.5 -1.84615
8298.5 0.0769231
8299.5 -1.84615
8300.5 0
8301.5 1
8302.5 -2.69231
8303.5 0.153846
8304.5 -0.923077
8305.5 0.0769231
8306.5 0.153846
8307.5 -0.923077
8308.5 3
8309.5 0.0769231
8310.5 1.07692
8311.5 2.07692
8312.5 0.0769231
8313.5 -1.76923
8314.5 0.153846
8315.5 -1.84615
8316.5 -0.846154
8317.5 0.153846
8318.5 4
8319.5 -1.76923
8320.5 2
8321.5 -1.76923
8322.5 1
8323.5 0.0769231
8324.5 0
8325.5 0
8326.5 1
8327.5 0.0769231
8328.5 1
8329.5 1
8330.5 0
8331.5 -1.84615
8332.5 0
8333.5 0
8334.5 -0.769231
8335.5 -0.692308
8336.5 -1.84615
8337.5 2.07692
8338.5 1
8339.5 -0.846154
8340.5 1
8341.5 0.0769231
8342.5 0.0769231
8343.5 1.07692
8344.5 -0.846154
8345.5 -0.769231
8346.5 -1.84615
8347.5 -1.76923
8348.5 -3.69231
8349.5 3
8350.5 -0.846154
8351.5 2
8352.5 -0.846154
8353.5 3
8354.5 0
8355.5 -0.846154
8356.5 3
8357.5 -2.76923
8358.5 -0.923077
8359.5 -2.76923
8360.5 0
8361.5 0.0769231
8362.5 -0.923077
8363.5 -2.76923
8364.5 1.07692
8365.5 0
8366.5 -0.846154
8367.5 1.15385
8368.5 2.23077
8369.5 1.15385
8370.5 -1.76923
8371.5 -0.846154
8372.5 -0.923077
8373.5 -1.84615
8374.5 3
8375.5 1.07692
8376.5 1.07692
8377.5 -3.69231
8378.5 -0.923077
8379.5 0
8380.5 0
8381.5 -2.76923
8382.5 -0.923077
8383.5 1.07692
8384.5 2
8385.5 -0.923077
8386.5 0
8387.5 -2.69231
8388.5 0
8389.5 2
8390.5 -1.84615
8391.5 0.0769231
8392.5 1.07692
8393.5 0.0769231
8394.5 3
8395.5 0
8396.5 -1.76923
8397.5 -0.923077
8398.5 0
8399.5 3
8400.5 -1.84615
8401.5 -1.69231
8402.5 1.07692
8403.5 1
8404.5 -1.76923
8405.5 0.0769231
8406.5 -0.846154
8407.5 0.0769231
8408.5 1
8409.5 -1.84615
8410.5 -0.769231
8411.5 -1.84615
8412.5 -0.923077
8413.5 -2.76923
8414.5 0
8415.5 -0.769231
8416.5 1.07692
8417.5 -0.923077
8418.5 1.15385
8419.5 -0.846154
8420.5 -0.692308
8421.5 -0.769231
8422.5 -3.61538
8423.5 -2.76923
8424.5 -1.53846
8425.5 -2.69231
8426.5 -1.76923
8427.5 0.0769231
8428.5 4.07692
8429.5 0.153846
8430.5 4.07692
8431.5 1.15385
8432.5 3.07692
8433.5 -0.923077
8434.5 -1.84615
8435.5 0.153846
8436.5 0.230769
8437.5 -0.769231
8438.5 0.0769231
8439.5 1.07692
8440.5 0.153846
8441.5 -0.692308
8442.5 0
8443.5 -0.923077
8444.5 -1.76923
8445.5 1
8446.5 0
8447.5 0.153846
8448.5 1.07692
8449.5 -1.84615
8450.5 -0.923077
8451.5 -0.923077
8452.5 0.0769231
8453.5 -0.769231
8454.5 0.153846
8455.5 -0.923077
8456.5 -1.84615
8457.5 -0.846154
8458.5 -0.923077
8459.5 -0.923077
8460.5 1
8461.5 -1.76923
8462.5 1
8463.5 0
8464.5 0.0769231
8465.5 1
8466.5 -2.76923
8467.5 -1.84615
8468.5 1
8469.5 -0.923077
8470.5 -0.923077
8471.5 2
8472.5 0
8473.5 -1.76923
8474.5 -0.769231
8475.5 0.153846
8476.5 -1.84615
8477.5 0.153846
8478.5 0
8479.5 -3.69231
8480.5 -0.923077
8481.5 0.0769231
8482.5 0
8483.5 -0.769231
8484.5 0.0769231
8485.5 1.15385
8486.5 0.0769231
8487.5 2.07692
8488.5 0.0769231
8489.5 -0.923077
8490.5 0.0769231
8491.5 2
8492.5 0.0769231
8493.5 1.07692
8494.5 0
8495.5 1
8496.5 1
8497.5 1.07692
8498.5 -0.846154
8499.5 1.07692
8500.5 0.307692
8501.5 0
8502.5 0.0769231
8503.5 0.0769231
8504.5 -1.84615
8505.5 -2.76923
8506.5 0
8507.5 -0.923077
8508.5 1
8509.5 1
8510.5 0
8511.5 0.153846
8512.5 -0.846154
8513.5 1
8514.5 0
8515.5 0
8516.5 0
8517.5 2
8518.5 1
8519.5 0
8520.5 2
8521.5 3
8522.5 -0.923077
8523.5 1.07692
8524.5 0.0769231
8525.5 0
8526.5 1.07692
8527.5 0
8528.5 0
8529.5 1
8530.5 0
8531.5 2
8532.5 0
8533.5 -1.76923
8534.5 -0.846154
8535.5 2.07692
8536.5 1.07692
8537.5 -0.923077
8538.5 0
8539.5 2
8540.5 -0.923077
8541.5 0
8542.5 0.0769231
8543.5 0.0769231
8544.5 1.07692
8545.5 -2.76923
8546.5 0
8547.5 1.07692
8548.5 1
8549.5 0
8550.5 0
8551.5 1.07692
8552.5 0
8553.5 -0.846154
8554.5 0.153846
8555.5 2.07692
8556.5 0
8557.5 0.0769231
8558.5 -0.923077
8559.5 -0.923077
8560.5 -0.923077
8561.5 3
8562.5 0
8563.5 -0.923077
8564.5 1.07692
8565.5 0
8566.5 0.0769231
8567.5 -0.923077
8568.5 0
8569.5 0.0769231
8570.5 -0.923077
8571.5 0
8572.5 0
8573.5 1
8574.5 -0.923077
8575.5 0.153846
8576.5 2
8577.5 1
8578.5 0
8579.5 1
8580.5 -0.923077
8581.5 -0.923077
8582.5 0.0769231
8583.5 0
8584.5 2
8585.5 -0.923077
8586.5 0
8587.5 -0.923077
8588.5 0
8589.5 1
8590.5 1.07692
8591.5 -0.923077
8592.5 0.0769231
8593.5 2
8594.5 -0.923077
8595.5 0
8596.5 0
8597.5 0
8598.5 1.15385
8599.5 0.230769
8600.5 1
8601.5 0
8602.5 0
8603.5 -0.923077
8604.5 0
8605.5 -0.923077
8606.5 1
8607.5 0
8608.5 1
8609.5 1
8610.5 -0.923077
8611.5 1
8612.5 -2.76923
8613.5 -0.923077
8614.5 -0.923077
8615.5 0.0769231
8616.5 2
8617.5 0.0769231
8618.5 0
8619.5 -1.84615
8620.5 1
8621.5 -2.76923
8622.5 2
8623.5 -1.76923
8624.5 -0.923077
8625.5 0
8626.5 1
8627.5 -0.923077
8628.5 0.0769231
8629.5 -1.84615
8630.5 2
8631.5 -1.84615
8632.5 0
8633.5 -0.923077
8634.5 1.07692
8635.5 0
8636.5 -0.923077
8637.5 1
8638.5 0.0769231
8639.5 -0.923077
8640.5 0
8641.5 -0.923077
8642.5 -1.84615
8643.5 -0.923077
8644.5 0
8645.5 0
8646.5 0.0769231
8647.5 0
8648.5 3
8649.5 0
8650.5 0
8651.5 3
8652.5 -0.923077
8653.5 0.153846
8654.5 1.07692
8655.5 2
8656.5 1
8657.5 -0.923077
8658.5 -0.923077
8659.5 1
8660.5 0.0769231
8661.5 3
8662.5 -0.923077
8663.5 1
8664.5 -0.923077
8665.5 0
8666.5 0.0769231
8667.5 0
8668.5 2.07692
8669.5 1
8670.5 2
8671.5 1.07692
8672.5 0
8673.5 -0.923077
8674.5 -1.84615
8675.5 1
8676.5 -0.923077
8677.5 -0.923077
8678.5 2
8679.5 3
8680.5 -0.846154
8681.5 1.07692
8682.5 0
8683.5 1
8684.5 -0.923077
8685.5 -0.846154
8686.5 0
8687.5 0.0769231
8688.5 -1.84615
8689.5 1
8690.5 -0.923077
8691.5 2
8692.5 0
8693.5 0
8694.5 0.0769231
8695.5 -0.923077
8696.5 0.0769231
8697.5 0.0769231
8698.5 0
8699.5 0
8700.5 0
8701.5 2
8702.5 0.0769231
8703.5 0
8704.5 2
8705.5 0
8706.5 -0.923077
8707.5 -1.84615
8708.5 1
8709.5 -0.923077
8710.5 0
8711.5 1
8712.5 1
8713.5 -2.76923
8714.5 -0.923077
8715.5 0
8716.5 -1.84615
8717.5 0.0769231
8718.5 -0.923077
8719.5 0
8720.5 0
8721.5 0.0769231
8722.5 0.0769231
8723.5 2
8724.5 1
8725.5 0
8726.5 0.0769231
8727.5 0.0769231
8728.5 -0.923077
8729.5 0.0769231
8730.5 -0.846154
8731.5 -0.923077
8732.5 0.0769231
8733.5 0
8734.5 0
8735.5 0.153846
8736.5 -0.923077
8737.5 0.153846
8738.5 1
8739.5 -0.923077
8740.5 1
8741.5 1
8742.5 1.07692
8743.5 -0.923077
8744.5 -0.923077
8745.5 0
8746.5 -0.923077
8747.5 -0.923077
8748.5 1
8749.5 -1.84615
8750.5 1
8751.5 -1.84615
8752.5 1
8753.5 -1.84615
8754.5 1
8755.5 -0.923077
8756.5 2
8757.5 -0.923077
8758.5 -1.84615
8759.5 1
8760.5 0
8761.5 -0.923077
8762.5 0
8763.5 0
8764.5 -0.923077
8765.5 0.0769231
8766.5 0
8767.5 0
8768.5 -0.923077
8769.5 0
8770.5 0
8771.5 -0.846154
8772.5 0.0769231
8773.5 2
8774.5 0
8775.5 -1.76923
8776.5 0
8777.5 0
8778.5 0
8779.5 0
8780.5 0.0769231
8781.5 1
8782.5 1
8783.5 1
8784.5 0.0769231
8785.5 -0.923077
8786.5 0.0769231
8787.5 -0.923077
8788.5 1
8789.5 -0.923077
8790.5 -2.76923
8791.5 0.0769231
8792.5 -0.923077
8793.5 -0.846154
8794.5 -0.923077
8795.5 0.153846
8796.5 0
8797.5 1
8798.5 0
8799.5 1
8800.5 1
8801.5 2
8802.5 0
8803.5 0
8804.5 1
8805.5 -0.923077
8806.5 1
8807.5 0.0769231
8808.5 -0.846154
8809.5 0
8810.5 0.0769231
8811.5 -0.923077
8812.5 0
8813.5 0
8814.5 0
8815.5 1
8816.5 -1.84615
8817.5 -0.923077
8818.5 3.07692
8819.5 1
8820.5 2
8821.5 -0.923077
8822.5 0
8823.5 1.07692
8824.5 0
8825.5 0
8826.5 0
8827.5 -0.923077
8828.5 -0.923077
8829.5 -0.923077
8830.5 -0.923077
8831.5 0
8832.5 0
8833.5 -1.84615
8834.5 0
8835.5 1.07692
8836.5 0
8837.5 1
8838.5 -0.923077
8839.5 -0.923077
8840.5 0.0769231
8841.5 1
8842.5 0.0769231
8843.5 2
8844.5 1.07692
8845.5 -0.769231
8846.5 1.07692
8847.5 -1.84615
8848.5 0.153846
8849.5 0.0769231
8850.5 1
8851.5 1
8852.5 0
8853.5 0
8854.5 3
8855.5 1.15385
8856.5 3
8857.5 0
8858.5 1
8859.5 3
8860.5 -0.923077
8861.5 1
8862.5 0
8863.5 0
8864.5 0
8865.5 1
8866.5 0
8867.5 -1.84615
8868.5 -0.923077
8869.5 -0.923077
8870.5 -0.923077
8871.5 2
8872.5 0.0769231
8873.5 1.07692
8874.5 -1.84615
8875.5 1
8876.5 0.0769231
8877.5 1
8878.5 1
8879.5 0
8880.5 1
8881.5 1.07692
8882.5 0
8883.5 1.07692
8884.5 1.07692
8885.5 -0.923077
8886.5 0.0769231
8887.5 2
8888.5 0
8889.5 1
8890.5 1
8891.5 0
8892.5 0
8893.5 0
8894.5 0.0769231
8895.5 1.07692
8896.5 -1.84615
8897.5 1
8898.5 1
8899.5 0.153846
8900.5 0
8901.5 -0.923077
8902.5 -0.923077
8903.5 -0.923077
8904.5 0
8905.5 0
8906.5 0
8907.5 -0.923077
8908.5 -0.923077
8909.5 0
8910.5 1.07692
8911.5 -0.923077
8912.5 1.07692
8913.5 0.0769231
8914.5 0
8915.5 1
8916.5 0
8917.5 0
8918.5 1
8919.5 0.0769231
8920.5 1
8921.5 -1.84615
8922.5 0
8923.5 1
8924.5 -0.923077
8925.5 0
8926.5 -0.923077
8927.5 0
8928.5 1
8929.5 0
8930.5 -1.84615
8931.5 -2.76923
8932.5 2
8933.5 0
8934.5 1
8935.5 -1.84615
8936.5 0
8937.5 0
8938.5 0.0769231
8939.5 0
8940.5 0
8941.5 -0.923077
8942.5 1
8943.5 -0.923077
8944.5 1
8945.5 1
8946.5 -0.923077
8947.5 -0.923077
8948.5 1
8949.5 -0.846154
8950.5 2.07692
8951.5 0
8952.5 0
8953.5 1.07692
8954.5 0
8955.5 0
8956.5 1.07692
8957.5 0
8958.5 0
8959.5 0.0769231
8960.5 -0.923077
8961.5 0
8962.5 1
8963.5 0
8964.5 0.0769231
8965.5 -0.923077
8966.5 -0.846154
8967.5 -1.76923
8968.5 0
8969.5 0.0769231
8970.5 0
8971.5 0.0769231
8972.5 -0.923077
8973.5 -0.923077
8974.5 -1.84615
8975.5 1
8976.5 0
8977.5 0
8978.5 -0.923077
8979.5 0
8980.5 0.0769231
8981.5 0
8982.5 0.0769231
8983.5 -0.923077
8984.5 0
8985.5 1
8986.5 0
8987.5 1.07692
8988.5 -1.84615
8989.5 0
8990.5 0
8991.5 1
8992.5 0
8993.5 0
8994.5 1
8995.5 1.07692
8996.5 0
8997.5 -1.84615
8998.5 0
8999.5 1
9000.5 -0.923077
9001.5 1
9002.5 -0.923077
9003.5 2
9004.5 0.0769231
9005.5 -0.923077
9006.5 0
9007.5 0
9008.5 -0.923077
9009.5 1
9010.5 0
9011.5 2
9012.5 0
9013.5 0
9014.5 0
9015.5 1
9016.5 0
9017.5 1
9018.5 0
9019.5 0
9020.5 1
9021.5 0
9022.5 1
9023.5 1
9024.5 -0.923077
9025.5 0
9026.5 0.0769231
9027.5 0
9028.5 -0.923077
9029.5 -0.923077
9030.5 0
9031.5 0
9032.5 1
9033.5 1
9034.5 -1.84615
9035.5 0
9036.5 -0.923077
9037.5 0
9038.5 0.0769231
9039.5 0
9040.5 1
9041.5 0.0769231
9042.5 0
9043.5 0
9044.5 1
9045.5 -0.923077
9046.5 -0.923077
9047.5 0
9048.5 2
9049.5 1
9050.5 0.0769231
9051.5 0
9052.5 -0.923077
9053.5 0
9054.5 0
9055.5 -0.923077
9056.5 -0.923077
9057.5 1
9058.5 1
9059.5 0.0769231
9060.5 0
9061.5 0
9062.5 -0.923077
9063.5 2
9064.5 -0.923077
9065.5 -1.84615
9066.5 -1.84615
9067.5 0
9068.5 -0.846154
9069.5 0.0769231
9070.5 0.0769231
9071.5 0
9072.5 0
9073.5 0
9074.5 3
9075.5 2.07692
9076.5 0
9077.5 -0.846154
9078.5 0
9079.5 1
9080.5 -0.923077
9081.5 0
9082.5 0
9083.5 0.0769231
9084.5 0
9085.5 -0.923077
9086.5 1
9087.5 -0.923077
9088.5 2
9089.5 1
9090.5 1
9091.5 -0.923077
9092.5 1.07692
9093.5 -1.84615
9094.5 0
9095.5 1
9096.5 0
9097.5 1.07692
9098.5 1
9099.5 -0.923077
9100.5 -0.923077
9101.5 -0.923077
9102.5 2
9103.5 0
9104.5 0
9105.5 1
9106.5 1
9107.5 0.0769231
9108.5 0
9109.5 -0.923077
9110.5 0
9111.5 0
9112.5 1.07692
9113.5 0
9114.5 1.07692
9115.5 0
9116.5 0
9117.5 -0.923077
9118.5 -0.923077
9119.5 0
9120.5 0.0769231
9121.5 0
9122.5 0.0769231
9123.5 -0.923077
9124.5 0.153846
9125.5 -1.84615
9126.5 2
9127.5 -0.923077
9128.5 0
9129.5 -2.76923
9130.5 0.0769231
9131.5 0
9132.5 -0.923077
9133.5 0
9134.5 -2.76923
9135.5 0
9136.5 0
9137.5 -0.923077
9138.5 0
9139.5 -0.846154
9140.5 -0.923077
9141.5 0
9142.5 1
9143.5 2.07692
9144.5 1
9145.5 0.153846
9146.5 0.0769231
9147.5 2
9148.5 1.07692
9149.5 0.0769231
9150.5 0
9151.5 0
9152.5 0
9153.5 -0.923077
9154.5 0
9155.5 0
9156.5 -0.923077
9157.5 0.0769231
9158.5 0
9159.5 0
9160.5 2
9161.5 0
9162.5 -0.923077
9163.5 0
9164.5 0
9165.5 0
9166.5 0
9167.5 0
9168.5 1
9169.5 3
9170.5 0
9171.5 0
9172.5 0
9173.5 -1.84615
9174.5 0
9175.5 -0.923077
9176.5 -0.923077
9177.5 -0.923077
9178.5 0.0769231
9179.5 1
9180.5 0.0769231
9181.5 1.07692
9182.5 0
9183.5 0
9184.5 0
9185.5 1
9186.5 0
9187.5 -0.923077
9188.5 0
9189.5 -0.923077
9190.5 0.0769231
9191.5 0
9192.5 0
9193.5 0
9194.5 0
9195.5 1
9196.5 1
9197.5 0
9198.5 0
9199.5 0
9200.5 2
9201.5 0
9202.5 1.07692
9203.5 1
9204.5 0
9205.5 0
9206.5 0
9207.5 2
9208.5 1
9209.5 0
9210.5 1
9211.5 0
9212.5 0
9213.5 1
9214.5 1
9215.5 -0.923077
9216.5 -0.923077
9217.5 -0.923077
9218.5 -0.923077
9219.5 0.0769231
9220.5 1
9221.5 1.07692
9222.5 1
9223.5 0
9224.5 1
9225.5 -0.923077
9226.5 0
9227.5 0
9228.5 0.0769231
9229.5 0
9230.5 -1.84615
9231.5 0.0769231
9232.5 2
9233.5 0
9234.5 0
9235.5 1
9236.5 -0.923077
9237.5 1
9238.5 -0.923077
9239.5 1
9240.5 0
9241.5 -0.923077
9242.5 -2.76923
9243.5 0
9244.5 -0.923077
9245.5 0
9246.5 1
9247.5 -0.923077
9248.5 0
9249.5 -0.923077
9250.5 1
9251.5 0
9252.5 -0.923077
9253.5 1
9254.5 0
9255.5 0
9256.5 0.0769231
9257.5 1
9258.5 0
9259.5 0.0769231
9260.5 2
9261.5 0
9262.5 -0.923077
9263.5 0
9264.5 2
9265.5 0
9266.5 0
9267.5 0
9268.5 2
9269.5 0
9270.5 1
9271.5 0
9272.5 0
9273.5 0.0769231
9274.5 0
9275.5 0.0769231
9276.5 0.0769231
9277.5 0.0769231
9278.5 1
9279.5 0
9280.5 2
9281.5 1
9282.5 1.07692
9283.5 0
9284.5 -0.923077
9285.5 -0.923077
9286.5 -0.923077
9287.5 0
9288.5 0
9289.5 -0.923077
9290.5 1
9291.5 1.07692
9292.5 1
9293.5 -0.923077
9294.5 -1.84615
9295.5 0.0769231
9296.5 0
9297.5 -0.923077
9298.5 0
9299.5 1
9300.5 -1.84615
9301.5 0
9302.5 1
9303.5 0
9304.5 0
9305.5 -0.846154
9306.5 0
9307.5 -0.923077
9308.5 0.0769231
9309.5 0
9310.5 0
9311.5 -0.923077
9312.5 1
9313.5 1
9314.5 1
9315.5 0.0769231
9316.5 0
9317.5 -0.923077
9318.5 2
9319.5 0
9320.5 0
9321.5 0
9322.5 -0.923077
9323.5 1
9324.5 -0.923077
9325.5 0
9326.5 0
9327.5 0.0769231
9328.5 0
9329.5 0
9330.5 0
9331.5 -0.923077
9332.5 1
9333.5 0
9334.5 0
9335.5 -0.923077
9336.5 0
9337.5 0
9338.5 -1.84615
9339.5 0
9340.5 0
9341.5 0
9342.5 1
9343.5 0
9344.5 -0.923077
9345.5 0.0769231
9346.5 0.0769231
9347.5 0
9348.5 -1.84615
9349.5 0.0769231
9350.5 0
9351.5 -0.923077
9352.5 -0.923077
9353.5 -0.923077
9354.5 0.0769231
9355.5 1
9356.5 0
9357.5 0
9358.5 -0.923077
9359.5 0
9360.5 0
9361.5 -0.923077
9362.5 -0.923077
9363.5 0
9364.5 0
9365.5 0
9366.5 1
9367.5 -0.923077
9368.5 0
9369.5 0
9370.5 0
9371.5 -0.923077
9372.5 0
9373.5 0
9374.5 0
9375.5 2
9376.5 0
9377.5 0
9378.5 0
9379.5 0
9380.5 0
9381.5 0
9382.5 1
9383.5 0
9384.5 1
9385.5 -0.923077
9386.5 0
9387.5 -0.923077
9388.5 0
9389.5 0
9390.5 -0.923077
9391.5 -0.923077
9392.5 0
9393.5 -0.923077
9394.5 0.0769231
9395.5 2
9396.5 1
9397.5 0
9398.5 0
9399.5 0
9400.5 0
9401.5 -0.923077
9402.5 0
9403.5 -0.923077
9404.5 -1.76923
9405.5 -0.846154
9406.5 0
9407.5 0
9408.5 1
9409.5 0
9410.5 0
9411.5 -0.923077
9412.5 0
9413.5 -0.923077
9414.5 -0.923077
9415.5 0
9416.5 0
9417.5 -0.923077
9418.5 0
9419.5 -1.76923
9420.5 1
9421.5 0
9422.5 0
9423.5 0
9424.5 1
9425.5 0
9426.5 1
9427.5 0
9428.5 0
9429.5 1
9430.5 0
9431.5 1
9432.5 0
9433.5 1
9434.5 -0.923077
9435.5 -0.923077
9436.5 -0.923077
9437.5 0
9438.5 0
9439.5 2.07692
9440.5 -0.923077
9441.5 0
9442.5 0
9443.5 -0.923077
9444.5 0
9445.5 0
9446.5 1
9447.5 0
9448.5 1
9449.5 -0.846154
9450.5 -0.923077
9451.5 0
9452.5 0
9453.5 -0.923077
9454.5 1
9455.5 -0.923077
9456.5 -0.923077
9457.5 -1.84615
9458.5 0
9459.5 0
9460.5 0
9461.5 -0.923077
9462.5 0
9463.5 0
9464.5 2
9465.5 1
9466.5 0
9467.5 0
9468.5 -0.923077
9469.5 2
9470.5 -0.923077
9471.5 0
9472.5 -0.846154
9473.5 0
9474.5 0
9475.5 0
9476.5 0
9477.5 -2.76923
9478.5 0
9479.5 0.0769231
9480.5 0
9481.5 1
9482.5 0
9483.5 -0.923077
9484.5 0
9485.5 -1.84615
9486.5 0
9487.5 -0.923077
9488.5 0
9489.5 0.0769231
9490.5 0
9491.5 1
9492.5 0
9493.5 0
9494.5 0
9495.5 0
9496.5 0
9497.5 0
9498.5 -0.923077
9499.5 0
9500.5 1.07692
9501.5 0
9502.5 1
9503.5 0
9504.5 0
9505.5 0.0769231
9506.5 0
9507.5 1
9508.5 1
9509.5 1
9510.5 0
9511.5 0
9512.5 0
9513.5 0
9514.5 3
9515.5 0
9516.5 -0.923077
9517.5 0
9518.5 0
9519.5 0
9520.5 2
9521.5 1
9522.5 0
9523.5 0
9524.5 -0.923077
9525.5 -0.923077
9526.5 0
9527.5 0
9528.5 0
9529.5 0
9530.5 0
9531.5 0
9532.5 0
9533.5 0
9534.5 0
9535.5 0
9536.5 -0.923077
9537.5 0
9538.5 0
9539.5 -0.846154
9540.5 1
9541.5 0
9542.5 0
9543.5 0
9544.5 0
9545.5 1
9546.5 1
9547.5 1
9548.5 0
9549.5 0
9550.5 0
9551.5 0
9552.5 0
9553.5 0.0769231
9554.5 0
9555.5 1
9556.5 2
9557.5 0
9558.5 -0.923077
9559.5 -0.923077
9560.5 1
9561.5 0
9562.5 1
9563.5 -0.923077
9564.5 -0.923077
9565.5 0
9566.5 -0.923077
9567.5 0
9568.5 0
9569.5 0
9570.5 -0.923077
9571.5 1
9572.5 1
9573.5 1
9574.5 0
9575.5 0
9576.5 0.0769231
9577.5 1
9578.5 1
9579.5 -0.923077
9580.5 0
9581.5 0
9582.5 -1.84615
9583.5 -0.923077
9584.5 0
9585.5 0
9586.5 1
9587.5 0
9588.5 1
9589.5 0
9590.5 1
9591.5 1
9592.5 0
9593.5 1
9594.5 0
9595.5 0
9596.5 -0.923077
9597.5 -0.923077
9598.5 0
9599.5 0
9600.5 0
9601.5 0
9602.5 0
9603.5 0
9604.5 0.0769231
9605.5 0
9606.5 1
9607.5 0
9608.5 0.0769231
9609.5 -1.84615
9610.5 0
9611.5 0
9612.5 0
9613.5 1
9614.5 0
9615.5 1
9616.5 0
9617.5 -0.923077
9618.5 1
9619.5 1
9620.5 0.153846
9621.5 0
9622.5 0
9623.5 -0.923077
9624.5 0
9625.5 -0.923077
9626.5 1
9627.5 0
9628.5 0
9629.5 0
9630.5 1
9631.5 0
9632.5 0
9633.5 0
9634.5 -0.923077
9635.5 1
9636.5 0
9637.5 0
9638.5 2
9639.5 2
9640.5 0
9641.5 -0.923077
9642.5 0
9643.5 1
9644.5 1
9645.5 2
9646.5 0
9647.5 -0.923077
9648.5 0
9649.5 -0.923077
9650.5 0
9651.5 0
9652.5 0
9653.5 0
9654.5 0
9655.5 0
9656.5 0
9657.5 0
9658.5 0
9659.5 1
9660.5 0
9661.5 0
9662.5 1
9663.5 0
9664.5 1
9665.5 1
9666.5 0
9667.5 0
9668.5 0
9669.5 0
9670.5 0
9671.5 1
9672.5 0
9673.5 0
9674.5 0.0769231
9675.5 0
9676.5 1
9677.5 2
9678.5 0
9679.5 0
9680.5 0
9681.5 -0.923077
9682.5 0
9683.5 0
9684.5 0
9685.5 0
9686.5 0
9687.5 1
9688.5 0
9689.5 0
9690.5 0
9691.5 0
9692.5 0
9693.5 0
9694.5 0
9695.5 0
9696.5 0
9697.5 0
9698.5 -0.923077
9699.5 0
9700.5 0
9701.5 1
9702.5 0
9703.5 0
9704.5 0
9705.5 0
9706.5 1
9707.5 0
9708.5 0
9709.5 -1.84615
9710.5 0
9711.5 -0.923077
9712.5 0
9713.5 0
9714.5 -0.923077
9715.5 0
9716.5 1
9717.5 1
9718.5 -0.923077
9719.5 0
9720.5 0
9721.5 0.0769231
9722.5 1
9723.5 0
9724.5 0
9725.5 -0.923077
9726.5 0
9727.5 -0.923077
9728.5 0.0769231
9729.5 0
9730.5 0
9731.5 0
9732.5 1
9733.5 0
9734.5 0
9735.5 0
9736.5 -0.923077
9737.5 1
9738.5 0
9739.5 0
9740.5 2
9741.5 0
9742.5 0
9743.5 1
9744.5 0
9745.5 0
9746.5 -1.84615
9747.5 -0.923077
9748.5 0
9749.5 0
9750.5 0
9751.5 0
9752.5 0
9753.5 1
9754.5 0
9755.5 0
9756.5 0
9757.5 -0.923077
9758.5 0
9759.5 0
9760.5 0
9761.5 1
9762.5 0
9763.5 0
9764.5 0
9765.5 0
9766.5 0
9767.5 0
9768.5 0
9769.5 -0.923077
9770.5 1
9771.5 0
9772.5 0
9773.5 0
9774.5 1
9775.5 0
9776.5 0
9777.5 0
9778.5 1
9779.5 0
9780.5 0
9781.5 0
9782.5 -0.923077
9783.5 0
9784.5 0
9785.5 0
9786.5 1
9787.5 0
9788.5 0
9789.5 0
9790.5 0
9791.5 0
9792.5 0
9793.5 0
9794.5 0
9795.5 0
9796.5 0
9797.5 -0.923077
9798.5 -0.923077
9799.5 0
9800.5 0
9801.5 0
9802.5 -0.923077
9803.5 0
9804.5 0.0769231
9805.5 0
9806.5 0
9807.5 0
9808.5 0
9809.5 0
9810.5 0
9811.5 0
9812.5 -0.923077
9813.5 -0.923077
9814.5 0
9815.5 1
9816.5 0
9817.5 0
9818.5 2
9819.5 0
9820.5 0.0769231
9821.5 -0.923077
9822.5 -0.923077
9823.5 0
9824.5 0
9825.5 0
9826.5 0
9827.5 -0.923077
9828.5 0
9829.5 0
9830.5 1
9831.5 -0.923077
9832.5 0
9833.5 0
9834.5 1
9835.5 0
9836.5 0
9837.5 0
9838.5 0
9839.5 0
9840.5 0
9841.5 0
9842.5 0
9843.5 0
9844.5 0
9845.5 0
9846.5 0
9847.5 0
9848.5 0
9849.5 0
9850.5 0
9851.5 0
9852.5 0
9853.5 0
9854.5 0.0769231
9855.5 0
9856.5 0
9857.5 0
9858.5 0
9859.5 0
9860.5 0
9861.5 0
9862.5 0
9863.5 0
9864.5 0
9865.5 0
9866.5 1
9867.5 0
9868.5 0
9869.5 0
9870.5 -1.84615
9871.5 0
9872.5 0
9873.5 0
9874.5 0
9875.5 0
9876.5 0
9877.5 0
9878.5 0
9879.5 0
9880.5 0
9881.5 0
9882.5 0
9883.5 0
9884.5 0
9885.5 0
9886.5 0
9887.5 0
9888.5 0
9889.5 0
9890.5 1
9891.5 0
9892.5 0
9893.5 0
9894.5 0
9895.5 0
9896.5 0
9897.5 0
9898.5 0
9899.5 0
9900.5 0
9901.5 0.0769231
9902.5 0
9903.5 0
9904.5 0
9905.5 -0.923077
9906.5 0
9907.5 1
9908.5 0
9909.5 0
9910.5 0
9911.5 0
9912.5 0
9913.5 0
9914.5 1
9915.5 0
9916.5 0
9917.5 0
9918.5 0
9919.5 0
9920.5 0
9921.5 0
9922.5 0
9923.5 0
9924.5 0
9925.5 0
9926.5 0
9927.5 0
9928.5 0
9929.5 0
9930.5 0
9931.5 0
9932.5 0
9933.5 0
9934.5 0
9935.5 0
9936.5 0
9937.5 0
9938.5 1
9939.5 0
9940.5 0
9941.5 0
9942.5 -0.923077
9943.5 0
9944.5 0
9945.5 -0.923077
9946.5 0
9947.5 -0.923077
9948.5 0.0769231
9949.5 0
9950.5 0
9951.5 0
9952.5 0
9953.5 1
9954.5 0
9955.5 0
9956.5 0
9957.5 0
9958.5 0
9959.5 0
9960.5 0
9961.5 0
9962.5 0
9963.5 0
9964.5 0
9965.5 -0.923077
9966.5 0
9967.5 0
9968.5 0
9969.5 1
9970.5 0
9971.5 0
9972.5 0
9973.5 0
9974.5 -0.923077
9975.5 0
9976.5 0
9977.5 1
9978.5 0
9979.5 0
9980.5 0
9981.5 0
9982.5 0
9983.5 0
9984.5 0
9985.5 0
9986.5 -0.923077
9987.5 0
9988.5 0
9989.5 0
9990.5 -0.923077
9991.5 0
9992.5 0
9993.5 0
9994.5 0
9995.5 0
9996.5 0
9997.5 0
9998.5 1
9999.5 0
10000.5 0
10001.5 0
10002.5 0
10003.5 0
10004.5 0
10005.5 0
10006.5 0
10007.5 0
10008.5 0
10009.5 0
10010.5 0
10011.5 0
10012.5 0
10013.5 0
10014.5 0
10015.5 0
10016.5 0
10017.5 -0.923077
10018.5 0
10019.5 0
10020.5 0
10021.5 0
10022.5 0
10023.5 0
10024.5 0
10025.5 0
10026.5 0
10027.5 0
10028.5 0
10029.5 0
10030.5 1
10031.5 0
10032.5 1
10033.5 0
10034.5 0
10035.5 0
10036.5 0
10037.5 0
10038.5 0
10039.5 0
10040.5 0
10041.5 0
10042.5 0
10043.5 1
10044.5 0
10045.5 0
10046.5 -0.923077
10047.5 0
10048.5 1
10049.5 0
10050.5 0
10051.5 1
10052.5 -0.923077
10053.5 0
10054.5 1
10055.5 0
10056.5 0
10057.5 0
10058.5 0
10059.5 0
10060.5 0
10061.5 0
10062.5 0
10063.5 0
10064.5 0
10065.5 0
10066.5 0
10067.5 0
10068.5 0
10069.5 0
10070.5 0
10071.5 0
10072.5 0
10073.5 0
10074.5 0
10075.5 0
10076.5 0
10077.5 0
10078.5 0
10079.5 0
10080.5 0
10081.5 0
10082.5 0
10083.5 0
10084.5 0
10085.5 0
10086.5 0
10087.5 0
10088.5 0
10089.5 0
10090.5 0
10091.5 0
10092.5 0
10093.5 0
10094.5 0
10095.5 0
10096.5 0
10097.5 1
10098.5 0
10099.5 0
10100.5 -0.923077
10101.5 0
10102.5 0
10103.5 0
10104.5 0
10105.5 0
10106.5 0
10107.5 0
10108.5 -0.923077
10109.5 -0.923077
10110.5 0
10111.5 0
10112.5 0
10113.5 0
10114.5 0
10115.5 0
10116.5 0
10117.5 0
10118.5 0
10119.5 1
10120.5 0
10121.5 0
10122.5 0
10123.5 0
10124.5 0
10125.5 0
10126.5 0
10127.5 0
10128.5 0
10129.5 0
10130.5 1
10131.5 0
10132.5 0
10133.5 0
10134.5 0
10135.5 -0.923077
10136.5 1
10137.5 -0.923077
10138.5 0
10139.5 0
10140.5 0
10141.5 0
10142.5 0
10143.5 0
10144.5 0
10145.5 1
10146.5 0
10147.5 0
10148.5 0
10149.5 0
10150.5 0
10151.5 0
10152.5 0
10153.5 0
10154.5 -0.923077
10155.5 0
10156.5 0
10157.5 0
10158.5 0
10159.5 0
10160.5 0
10161.5 0
10162.5 0
10163.5 0
10164.5 0
10165.5 0
10166.5 0
10167.5 0
10168.5 0
10169.5 0
10170.5 0
10171.5 0
10172.5 0
10173.5 0
10174.5 0
10175.5 1
10176.5 0
10177.5 0
10178.5 1
10179.5 0
10180.5 0
10181.5 0
10182.5 0
10183.5 0
10184.5 0
10185.5 0
10186.5 0
10187.5 0
10188.5 0
10189.5 0
10190.5 0
10191.5 0
10192.5 0
10193.5 -0.923077
10194.5 0
10195.5 0
10196.5 -0.923077
10197.5 0
10198.5 1
10199.5 0
10200.5 0
10201.5 0
10202.5 -0.923077
10203.5 0
10204.5 0
10205.5 0.0769231
10206.5 0
10207.5 0
10208.5 0
10209.5 0
10210.5 0
10211.5 0
10212.5 1
10213.5 0
10214.5 1
10215.5 0
10216.5 0
10217.5 1
10218.5 0
10219.5 0
10220.5 0
10221.5 0
10222.5 0
10223.5 0
10224.5 0
10225.5 0
10226.5 0
10227.5 0
10228.5 0
10229.5 0
10230.5 0
10231.5 1
10232.5 0
10233.5 0
10234.5 0
10235.5 0
10236.5 0
10237.5 0
10238.5 0
10239.5 0
10240.5 0
10241.5 0
10242.5 0
10243.5 0
10244.5 0
10245.5 1
10246.5 0
10247.5 0
10248.5 0
10249.5 0
10250.5 0
10251.5 0
10252.5 0
10253.5 0
10254.5 0
10255.5 0
10256.5 0
10257.5 0
10258.5 0
10259.5 0
10260.5 0
10261.5 0
10262.5 0
10263.5 0
10264.5 0
10265.5 0
10266.5 0
10267.5 0
10268.5 0
10269.5 0
10270.5 0
10271.5 0
10272.5 0
10273.5 0
10274.5 1
10275.5 0
10276.5 0
10277.5 0
10278.5 0
10279.5 0
10280.5 0
10281.5 0
10282.5 -0.923077
10283.5 1
10284.5 0
10285.5 1
10286.5 0
10287.5 0
10288.5 0
10289.5 0
10290.5 0
10291.5 0
10292.5 0
10293.5 0
10294.5 0
10295.5 0
10296.5 0
10297.5 0
10298.5 0
10299.5 0
10300.5 0
10301.5 0
10302.5 0
10303.5 0
10304.5 -0.923077
10305.5 -0.923077
10306.5 0
10307.5 0
10308.5 0
10309.5 0
10310.5 0
10311.5 0
10312.5 0
10313.5 0
10314.5 0
10315.5 -0.923077
10316.5 0
10317.5 1
10318.5 0
10319.5 0
10320.5 0
10321.5 0
10322.5 0
10323.5 0
10324.5 0
10325.5 0
10326.5 1
10327.5 0
10328.5 0
10329.5 0
10330.5 0
10331.5 0
10332.5 0
10333.5 -0.923077
10334.5 0
10335.5 0
10336.5 0
10337.5 0
10338.5 0
10339.5 0
10340.5 0
10341.5 0
10342.5 0
10343.5 0
10344.5 0
10345.5 0
10346.5 0
10347.5 0
10348.5 0
10349.5 0
10350.5 0
10351.5 0
10352.5 0
10353.5 0
10354.5 0
10355.5 0
10356.5 1
10357.5 0
10358.5 0
10359.5 0
10360.5 0
10361.5 0
10362.5 0
10363.5 1
10364.5 0
10365.5 0
10366.5 -0.923077
10367.5 0
10368.5 0
10369.5 1
10370.5 0
10371.5 0
10372.5 0
10373.5 0
10374.5 0
10375.5 0
10376.5 0
10377.5 0
10378.5 0
10379.5 0
10380.5 0
10381.5 0
10382.5 0
10383.5 0
10384.5 0
10385.5 0
10386.5 1
10387.5 0
10388.5 0
10389.5 0
10390.5 1
10391.5 0
10392.5 0
10393.5 -0.923077
10394.5 0
10395.5 0
10396.5 0
10397.5 0
10398.5 0
10399.5 0
10400.5 0
10401.5 0
10402.5 0
10403.5 0
10404.5 0
10405.5 1
10406.5 0
10407.5 0
10408.5 0
10409.5 0
10410.5 0
10411.5 1
10412.5 0
10413.5 0
10414.5 0
10415.5 0
10416.5 0
10417.5 0
10418.5 1
10419.5 0
10420.5 0
10421.5 0
10422.5 0
10423.5 0
10424.5 0
10425.5 0
10426.5 0
10427.5 0
10428.5 0
10429.5 0
10430.5 0
10431.5 0
10432.5 0
10433.5 0
10434.5 0
10435.5 0
10436.5 0
10437.5 0
10438.5 0
10439.5 0
10440.5 0
10441.5 0
10442.5 0
10443.5 0
10444.5 0
10445.5 0
10446.5 0
10447.5 0
10448.5 0
10449.5 0
10450.5 0
10451.5 0
10452.5 0
10453.5 0
10454.5 0
10455.5 0
10456.5 0
10457.5 0
10458.5 0
10459.5 0
10460.5 0
10461.5 0
10462.5 0
10463.5 0
10464.5 0
10465.5 0
10466.5 0
10467.5 0
10468.5 0
10469.5 0
10470.5 0
10471.5 0
10472.5 0
10473.5 0
10474.5 0
10475.5 0
10476.5 0
10477.5 0
10478.5 0
10479.5 0
10480.5 0
10481.5 0
10482.5 0
10483.5 0
10484.5 0
10485.5 0
10486.5 0
10487.5 0
10488.5 0
10489.5 0
10490.5 0
10491.5 0
10492.5 0
10493.5 0
10494.5 -0.923077
10495.5 0
10496.5 0
10497.5 0
10498.5 0
10499.5 0
10500.5 0
10501.5 0
10502.5 0
10503.5 0
10504.5 0
10505.5 0
10506.5 0
10507.5 0
10508.5 0
10509.5 0
10510.5 0
10511.5 0
10512.5 0
10513.5 0
10514.5 0
10515.5 0
10516.5 0
10517.5 0
10518.5 0
10519.5 0
10520.5 0
10521.5 0
10522.5 0
10523.5 0
10524.5 0
10525.5 0
10526.5 0
10527.5 0
10528.5 0
10529.5 0
10530.5 0
10531.5 0
10532.5 0
10533.5 0
10534.5 0
10535.5 0
10536.5 0
10537.5 0
10538.5 0
10539.5 0
10540.5 0
10541.5 0
10542.5 0
10543.5 0
10544.5 0
10545.5 0
10546.5 0
10547.5 0
10548.5 0
10549.5 0
10550.5 0
10551.5 0
10552.5 0
10553.5 -0.923077
10554.5 0
10555.5 -0.923077
10556.5 0
10557.5 0
10558.5 0
10559.5 0
10560.5 0
10561.5 0
10562.5 0
10563.5 1
10564.5 0
10565.5 0
10566.5 2
10567.5 0
10568.5 0
10569.5 0
10570.5 0
10571.5 0
10572.5 0
10573.5 0
10574.5 0
10575.5 0
10576.5 0
10577.5 0
10578.5 0
10579.5 0
10580.5 0
10581.5 0
10582.5 0
10583.5 0
10584.5 0
10585.5 0
10586.5 1
10587.5 0
10588.5 0
10589.5 0
10590.5 0
10591.5 0
10592.5 0
10593.5 0
10594.5 0
10595.5 0
10596.5 1
10597.5 0
10598.5 0
10599.5 0
10600.5 0
10601.5 0
10602.5 0
10603.5 0
10604.5 0
10605.5 0
10606.5 0
10607.5 0
10608.5 0
10609.5 0
10610.5 0
10611.5 0
10612.5 0
10613.5 0
10614.5 0
10615.5 0
10616.5 0
10617.5 0
10618.5 0
10619.5 0
10620.5 0
10621.5 0
10622.5 0
10623.5 0
10624.5 0
10625.5 0
10626.5 0
10627.5 0
10628.5 0
10629.5 0
10630.5 0
10631.5 0
10632.5 0
10633.5 0
10634.5 0
10635.5 0
10636.5 0
10637.5 0
10638.5 0
10639.5 0
10640.5 0
10641.5 0
10642.5 0
10643.5 0
10644.5 0
10645.5 0
10646.5 0
10647.5 0
10648.5 0
10649.5 1
10650.5 1
10651.5 0
10652.5 0
10653.5 0
10654.5 0
10655.5 0
10656.5 0
10657.5 1
10658.5 0
10659.5 0
10660.5 0
10661.5 2
10662.5 0
10663.5 0
10664.5 0
10665.5 0
10666.5 0
10667.5 0
10668.5 0
10669.5 0
10670.5 0
10671.5 0
10672.5 0
10673.5 0
10674.5 0
10675.5 0
10676.5 0
10677.5 0
10678.5 0
10679.5 0
10680.5 0
10681.5 0
10682.5 0
10683.5 0
10684.5 0
10685.5 0
10686.5 0
10687.5 0
10688.5 0
10689.5 0
10690.5 -0.923077
10691.5 0
10692.5 0
10693.5 0
10694.5 0
10695.5 0
10696.5 0
10697.5 0
10698.5 0
10699.5 0
10700.5 0
10701.5 0
10702.5 0
10703.5 0
10704.5 0
10705.5 1
10706.5 0
10707.5 0
10708.5 0
10709.5 0
10710.5 0
10711.5 0
10712.5 0
10713.5 0
10714.5 0
10715.5 0
10716.5 0
10717.5 0
10718.5 1
10719.5 0
10720.5 0
10721.5 0
10722.5 0
10723.5 0
10724.5 0
10725.5 0
10726.5 0
10727.5 0
10728.5 0
10729.5 -1.84615
10730.5 0
10731.5 0
10732.5 0
10733.5 0
10734.5 0
10735.5 0
10736.5 0
10737.5 0
10738.5 0
10739.5 0
10740.5 0
10741.5 0
10742.5 0
10743.5 1
10744.5 0
10745.5 0
10746.5 0
10747.5 0
10748.5 0
10749.5 0
10750.5 0
10751.5 0
10752.5 -0.923077
10753.5 0
10754.5 0
10755.5 0
10756.5 0
10757.5 0
10758.5 0
10759.5 1
10760.5 0
10761.5 0
10762.5 0
10763.5 0
10764.5 0
10765.5 0
10766.5 0
10767.5 0
10768.5 0
10769.5 0
10770.5 0
10771.5 0
10772.5 0
10773.5 0
10774.5 0
10775.5 0
10776.5 0
10777.5 0
10778.5 0
10779.5 0
10780.5 0
10781.5 0
10782.5 0
10783.5 0
10784.5 0
10785.5 0
10786.5 0
10787.5 0
10788.5 0
10789.5 0
10790.5 0
10791.5 0
10792.5 0
10793.5 0
10794.5 0
10795.5 0
10796.5 0
10797.5 0
10798.5 0
10799.5 0
10800.5 0
10801.5 0
10802.5 0
10803.5 0
10804.5 0
10805.5 0
10806.5 0
10807.5 0
10808.5 0
10809.5 0
10810.5 0
10811.5 0
10812.5 0
10813.5 0
10814.5 0
10815.5 0
10816.5 0
10817.5 0
10818.5 0
10819.5 0
10820.5 0
10821.5 0
10822.5 0
10823.5 0
10824.5 0
10825.5 0.0769231
10826.5 0
10827.5 0
10828.5 0
10829.5 0
10830.5 0
10831.5 0
10832.5 0
10833.5 0
10834.5 0
10835.5 0
10836.5 0
10837.5 0
10838.5 0
10839.5 0
10840.5 0
10841.5 0
10842.5 0
10843.5 -0.923077
10844.5 -0.923077
10845.5 0
10846.5 0
10847.5 0
10848.5 0
10849.5 0
10850.5 -0.923077
10851.5 0
10852.5 0
10853.5 -0.923077
10854.5 0
10855.5 0
10856.5 -0.923077
10857.5 0
10858.5 -0.923077
10859.5 0
10860.5 0
10861.5 0
10862.5 0
10863.5 0
10864.5 0
10865.5 0
10866.5 0
10867.5 0
10868.5 0
10869.5 0
10870.5 0
10871.5 0
10872.5 0
10873.5 0
10874.5 0
10875.5 0
10876.5 0
10877.5 0
10878.5 0
10879.5 0
10880.5 0
10881.5 0
10882.5 0
10883.5 0
10884.5 0
10885.5 0
10886.5 0
10887.5 0
10888.5 0
10889.5 0
10890.5 0
10891.5 0
10892.5 0
10893.5 0
10894.5 0
10895.5 0
10896.5 0
10897.5 0
10898.5 0
10899.5 0
10900.5 0
10901.5 0
10902.5 0
10903.5 1
10904.5 0
10905.5 0
10906.5 0
10907.5 0
10908.5 0
10909.5 0
10910.5 0
10911.5 0
10912.5 0
10913.5 0
10914.5 0
10915.5 0
10916.5 1
10917.5 0
10918.5 0
10919.5 0
10920.5 0
10921.5 0
10922.5 0
10923.5 0
10924.5 0
10925.5 0
10926.5 0
10927.5 0
10928.5 0
10929.5 0
10930.5 0
10931.5 0
10932.5 0
10933.5 0
10934.5 0
10935.5 0
10936.5 0
10937.5 0
10938.5 0
10939.5 0
10940.5 0
10941.5 0
10942.5 0
10943.5 0
10944.5 0
10945.5 0
10946.5 0
10947.5 0
10948.5 0
10949.5 0
10950.5 0
10951.5 -0.923077
10952.5 0
10953.5 0
10954.5 0
10955.5 0
10956.5 0
10957.5 0
10958.5 0
10959.5 0
10960.5 0
10961.5 0
10962.5 0
10963.5 0
10964.5 0
10965.5 0
10966.5 0
10967.5 0
10968.5 0
10969.5 0
10970.5 0
10971.5 0
10972.5 0
10973.5 0
10974.5 0
10975.5 0
10976.5 1
10977.5 0
10978.5 0
10979.5 0
10980.5 0
10981.5 0
10982.5 0
10983.5 0
10984.5 0
10985.5 0
10986.5 0
10987.5 0
10988.5 0
10989.5 0
10990.5 0
10991.5 0
10992.5 0
10993.5 0
10994.5 0
10995.5 0
10996.5 0
10997.5 0
10998.5 0
10999.5 0
11000.5 0
11001.5 0
11002.5 0
11003.5 0
11004.5 0
11005.5 0
11006.5 0
11007.5 0
11008.5 0
11009.5 0
11010.5 0
11011.5 0
11012.5 0
11013.5 0
11014.5 0
11015.5 0
11016.5 0
11017.5 0
11018.5 -0.923077
11019.5 1
11020.5 0
11021.5 0
11022.5 0
11023.5 0
11024.5 0
11025.5 0
11026.5 0
11027.5 0
11028.5 0
11029.5 0
11030.5 0
11031.5 0
11032.5 0
11033.5 0
11034.5 0
11035.5 0
11036.5 0
11037.5 0
11038.5 0
11039.5 0
11040.5 0
11041.5 0
11042.5 0
11043.5 0
11044.5 0
11045.5 0
11046.5 0
11047.5 0
11048.5 0
11049.5 0
11050.5 0
11051.5 0
11052.5 0
11053.5 0
11054.5 0
11055.5 0
11056.5 0
11057.5 0
11058.5 0
11059.5 0
11060.5 0
11061.5 0
11062.5 0
11063.5 0
11064.5 0
11065.5 0
11066.5 0
11067.5 0
11068.5 0
11069.5 0
11070.5 0
11071.5 0
11072.5 0
11073.5 0
11074.5 0
11075.5 0
11076.5 0
11077.5 0
11078.5 1
11079.5 0
11080.5 0
11081.5 0
11082.5 0
11083.5 0
11084.5 0
11085.5 0
11086.5 0
11087.5 0
11088.5 0
11089.5 0
11090.5 0
11091.5 0
11092.5 0
11093.5 0
11094.5 0
11095.5 0
11096.5 0
11097.5 0
11098.5 0
11099.5 0
11100.5 0
11101.5 0
11102.5 0
11103.5 0
11104.5 1
11105.5 0
11106.5 0
11107.5 0
11108.5 0
11109.5 0
11110.5 0
11111.5 0
11112.5 0
11113.5 0
11114.5 0
11115.5 0
11116.5 0
11117.5 0
11118.5 0
11119.5 0
11120.5 0
11121.5 0
11122.5 0
11123.5 0
11124.5 0
11125.5 0
11126.5 0
11127.5 0
11128.5 1
11129.5 0
11130.5 0
11131.5 0
11132.5 0
11133.5 0
11134.5 0
11135.5 0
11136.5 0
11137.5 0
11138.5 0
11139.5 0
11140.5 0
11141.5 0
11142.5 0
11143.5 0
11144.5 0
11145.5 0
11146.5 0
11147.5 0
11148.5 0
11149.5 0
11150.5 0
11151.5 0
11152.5 0
11153.5 0
11154.5 0
11155.5 0
11156.5 0
11157.5 0
11158.5 0
11159.5 0
11160.5 0
11161.5 0
11162.5 0
11163.5 0
11164.5 0
11165.5 0
11166.5 0
11167.5 0
11168.5 0
11169.5 0
11170.5 0
11171.5 0
11172.5 0
11173.5 0
11174.5 0
11175.5 0
11176.5 0
11177.5 0
11178.5 0
11179.5 0
11180.5 0
11181.5 0
11182.5 0
11183.5 0
11184.5 0
11185.5 0
11186.5 0
11187.5 0
11188.5 0
11189.5 0
11190.5 0
11191.5 0
11192.5 0
11193.5 0
11194.5 0
11195.5 0
11196.5 0
11197.5 0
11198.5 0
11199.5 0
11200.5 0
11201.5 0
11202.5 0
11203.5 0
11204.5 0
11205.5 0
11206.5 0
11207.5 0
11208.5 0
11209.5 1
11210.5 0
11211.5 0
11212.5 0
11213.5 0
11214.5 0
11215.5 0
11216.5 0
11217.5 0
11218.5 0
11219.5 0
11220.5 0
11221.5 0
11222.5 0
11223.5 0
11224.5 0
11225.5 0
11226.5 1
11227.5 0
11228.5 0
11229.5 0
11230.5 0
11231.5 0
11232.5 0
11233.5 0
11234.5 0
11235.5 0
11236.5 0
11237.5 0
11238.5 0
11239.5 0
11240.5 0
11241.5 0
11242.5 0
11243.5 0
11244.5 0
11245.5 0
11246.5 0
11247.5 1
11248.5 0
11249.5 0
11250.5 0
11251.5 0
11252.5 0
11253.5 0
11254.5 0
11255.5 0
11256.5 0
11257.5 0
11258.5 0
11259.5 0
11260.5 0
11261.5 0
11262.5 0
11263.5 0
11264.5 0
11265.5 0
11266.5 0
11267.5 0
11268.5 0
11269.5 0
11270.5 0
11271.5 0
11272.5 0
11273.5 0
11274.5 0
11275.5 0
11276.5 0
11277.5 0
11278.5 0
11279.5 0
11280.5 0
11281.5 0
11282.5 0
11283.5 0
11284.5 0
11285.5 0
11286.5 0
11287.5 0
11288.5 0
11289.5 0
11290.5 0
11291.5 0
11292.5 0
11293.5 0
11294.5 0
11295.5 0
11296.5 0
11297.5 0
11298.5 0
11299.5 0
11300.5 0
11301.5 0
11302.5 0
11303.5 0
11304.5 0
11305.5 0
11306.5 0
11307.5 0
11308.5 0
11309.5 0
11310.5 -0.923077
11311.5 0
11312.5 0
11313.5 0
11314.5 0
11315.5 0
11316.5 0
11317.5 0
11318.5 0
11319.5 0
11320.5 -0.923077
11321.5 0
11322.5 0
11323.5 0
11324.5 0
11325.5 0
11326.5 0
11327.5 0
11328.5 0
11329.5 0
11330.5 0
11331.5 0
11332.5 0
11333.5 0
11334.5 0
11335.5 0
11336.5 0
11337.5 0
11338.5 0
11339.5 0
11340.5 0
11341.5 0
11342.5 0
11343.5 0
11344.5 0
11345.5 0
11346.5 0
11347.5 0
11348.5 0
11349.5 0
11350.5 0
11351.5 1
11352.5 0
11353.5 0
11354.5 0
11355.5 0
11356.5 0
11357.5 0
11358.5 0
11359.5 0
11360.5 0
11361.5 0
11362.5 0
11363.5 0
11364.5 0
11365.5 0
11366.5 0
11367.5 0
11368.5 0
11369.5 0
11370.5 0
11371.5 1
11372.5 0
11373.5 0
11374.5 0
11375.5 0
11376.5 0
11377.5 0
11378.5 0
11379.5 0
11380.5 0
11381.5 0
11382.5 0
11383.5 0
11384.5 0
11385.5 0
11386.5 0
11387.5 0
11388.5 0
11389.5 -0.923077
11390.5 0
11391.5 0
11392.5 0
11393.5 0
11394.5 0
11395.5 0
11396.5 0
11397.5 -0.923077
11398.5 0
11399.5 0
11400.5 0
11401.5 0
11402.5 0
11403.5 0
11404.5 0
11405.5 0
11406.5 0
11407.5 0
11408.5 0
11409.5 0
11410.5 0
11411.5 0
11412.5 0
11413.5 -0.923077
11414.5 0
11415.5 0
11416.5 0
11417.5 0
11418.5 0
11419.5 0
11420.5 0
11421.5 0
11422.5 0
11423.5 0
11424.5 0
11425.5 0
11426.5 0
11427.5 0
11428.5 0
11429.5 0
11430.5 0
11431.5 0
11432.5 0
11433.5 0
11434.5 0
11435.5 1
11436.5 0
11437.5 0
11438.5 0
11439.5 0
11440.5 0
11441.5 0
11442.5 0
11443.5 0
11444.5 0
11445.5 0
11446.5 0
11447.5 0
11448.5 0
11449.5 0
11450.5 0
11451.5 0
11452.5 0
11453.5 0
11454.5 0
11455.5 0
11456.5 0
11457.5 0
11458.5 0
11459.5 0
11460.5 0
11461.5 0
11462.5 0
11463.5 0
11464.5 0
11465.5 0
11466.5 0
11467.5 0
11468.5 0
11469.5 0
11470.5 0
11471.5 0
11472.5 0
11473.5 0
11474.5 0
11475.5 0
11476.5 0
11477.5 0
11478.5 0
11479.5 0
11480.5 0
11481.5 0
11482.5 0
11483.5 0
11484.5 0
11485.5 0
11486.5 0
11487.5 0
11488.5 0
11489.5 0
11490.5 0
11491.5 0
11492.5 0
11493.5 0
11494.5 0
11495.5 0
11496.5 0
11497.5 0
11498.5 0
11499.5 0
11500.5 0
11501.5 0
11502.5 0
11503.5 0
11504.5 0
11505.5 0
11506.5 0
11507.5 0
11508.5 0
11509.5 0
11510.5 0
11511.5 0
11512.5 0
11513.5 0
11514.5 0
11515.5 0
11516.5 0
11517.5 0
11518.5 0
11519.5 0
11520.5 0
11521.5 0
11522.5 0
11523.5 0
11524.5 0
11525.5 0
11526.5 0
11527.5 0
11528.5 0
11529.5 0
11530.5 0
11531.5 0
11532.5 0
11533.5 0
11534.5 0
11535.5 0
11536.5 0
11537.5 0
11538.5 0
11539.5 0
11540.5 0
11541.5 0
11542.5 0
11543.5 0
11544.5 0
11545.5 0
11546.5 0
11547.5 0
11548.5 0
11549.5 0
11550.5 0
11551.5 0
11552.5 0
11553.5 0
11554.5 -0.923077
11555.5 0
11556.5 0
11557.5 0
11558.5 0
11559.5 1
11560.5 0
11561.5 0
11562.5 0
11563.5 0
11564.5 0
11565.5 0
11566.5 0
11567.5 0
11568.5 0
11569.5 0
11570.5 0
11571.5 0
11572.5 0
11573.5 0
11574.5 0
11575.5 0
11576.5 0
11577.5 0
11578.5 1
11579.5 -0.923077
11580.5 0
11581.5 0
11582.5 0
11583.5 0
11584.5 0
11585.5 0
11586.5 0
11587.5 0
11588.5 0
11589.5 0
11590.5 0
11591.5 0
11592.5 0
11593.5 0
11594.5 0
11595.5 0
11596.5 0
11597.5 0
11598.5 0
11599.5 0
11600.5 0
11601.5 0
11602.5 0
11603.5 0
11604.5 0
11605.5 0
11606.5 0
11607.5 0
11608.5 0
11609.5 0
11610.5 0
11611.5 0
11612.5 0
11613.5 0
11614.5 1
11615.5 0
11616.5 0
11617.5 0
11618.5 0
11619.5 0
11620.5 0
11621.5 0
11622.5 0
11623.5 0
11624.5 0
11625.5 0
11626.5 0
11627.5 1
11628.5 0
11629.5 0
11630.5 0
11631.5 0
11632.5 0
11633.5 0
11634.5 0
11635.5 0
11636.5 0
11637.5 0
11638.5 0
11639.5 0
11640.5 0
11641.5 0
11642.5 0
11643.5 0
11644.5 0
11645.5 0
11646.5 0
11647.5 0
11648.5 0
11649.5 0
11650.5 0
11651.5 0
11652.5 0
11653.5 0
11654.5 -0.923077
11655.5 0
11656.5 0
11657.5 0
11658.5 0
11659.5 0
11660.5 0
11661.5 0
11662.5 0
11663.5 0
11664.5 0
11665.5 0
11666.5 0
11667.5 0
11668.5 0
11669.5 0
11670.5 0
11671.5 0
11672.5 0
11673.5 0
11674.5 0
11675.5 0
11676.5 0
11677.5 0
11678.5 0
11679.5 0
11680.5 0
11681.5 0
11682.5 0
11683.5 0
11684.5 0
11685.5 0
11686.5 0
11687.5 0
11688.5 0
11689.5 0
11690.5 0
11691.5 0
11692.5 0
11693.5 0
11694.5 0
11695.5 0
11696.5 0
11697.5 0
11698.5 0
11699.5 0
11700.5 0
11701.5 0
11702.5 0
11703.5 0
11704.5 0
11705.5 0
11706.5 0
11707.5 0
11708.5 0
11709.5 0
11710.5 0
11711.5 -0.923077
11712.5 0
11713.5 0
11714.5 0
11715.5 0
11716.5 0
11717.5 0
11718.5 0
11719.5 0
11720.5 0
11721.5 0
11722.5 0
11723.5 0
11724.5 0
11725.5 0
11726.5 0
11727.5 0
11728.5 0
11729.5 0
11730.5 0
11731.5 0
11732.5 0
11733.5 0
11734.5 0
11735.5 0
11736.5 0
11737.5 0
11738.5 0
11739.5 0
11740.5 0
11741.5 0
11742.5 0
11743.5 0
11744.5 0
11745.5 0
11746.5 0
11747.5 0
11748.5 0
11749.5 0
11750.5 0
11751.5 0
11752.5 0
11753.5 0
11754.5 0
11755.5 0
11756.5 1
11757.5 0
11758.5 0
11759.5 0
11760.5 0
11761.5 0
11762.5 0
11763.5 0
11764.5 0
11765.5 0
11766.5 0
11767.5 0
11768.5 0
11769.5 0
11770.5 0
11771.5 0
11772.5 0
11773.5 0
11774.5 0
11775.5 0
11776.5 0
11777.5 0
11778.5 0
11779.5 0
11780.5 0
11781.5 0
11782.5 0
11783.5 0
11784.5 0
11785.5 0
11786.5 0
11787.5 0
11788.5 0
11789.5 0
11790.5 0
11791.5 1
11792.5 0
11793.5 0
11794.5 0
11795.5 0
11796.5 0
11797.5 0
11798.5 0
11799.5 0
11800.5 0
11801.5 0
11802.5 0
11803.5 0
11804.5 0
11805.5 0
11806.5 0
11807.5 0
11808.5 0
11809.5 0
11810.5 0
11811.5 0
11812.5 0
11813.5 0
11814.5 0
11815.5 0
11816.5 0
11817.5 0
11818.5 0
11819.5 0
11820.5 0
11821.5 0
11822.5 0
11823.5 0
11824.5 0
11825.5 0
11826.5 0
11827.5 0
11828.5 0
11829.5 0
11830.5 0
11831.5 0
11832.5 0
11833.5 0
11834.5 0
11835.5 0
11836.5 0
11837.5 0
11838.5 0
11839.5 0
11840.5 0
11841.5 0
11842.5 0
11843.5 0
11844.5 0
11845.5 0
11846.5 0
11847.5 0
11848.5 0
11849.5 0
11850.5 0
11851.5 0
11852.5 0
11853.5 0
11854.5 0
11855.5 0
11856.5 0
11857.5 0
11858.5 0
11859.5 0
11860.5 0
11861.5 0
11862.5 0
11863.5 1
11864.5 0
11865.5 1
11866.5 0
11867.5 0
11868.5 0
11869.5 0
11870.5 0
11871.5 0
11872.5 0
11873.5 0
11874.5 0
11875.5 0
11876.5 0
11877.5 0
11878.5 0
11879.5 0
11880.5 0
11881.5 0
11882.5 0
11883.5 0
11884.5 0
11885.5 0
11886.5 0
11887.5 0
11888.5 0
11889.5 0
11890.5 0
11891.5 0
11892.5 0
11893.5 0
11894.5 0
11895.5 0
11896.5 0
11897.5 0
11898.5 0
11899.5 0
11900.5 0
11901.5 0
11902.5 0
11903.5 0
11904.5 0
11905.5 0
11906.5 0
11907.5 0
11908.5 0
11909.5 0
11910.5 0
11911.5 0
11912.5 0
11913.5 0
11914.5 0
11915.5 0
11916.5 0
11917.5 0
11918.5 0
11919.5 0
11920.5 0
11921.5 0
11922.5 0
11923.5 0
11924.5 0
11925.5 0
11926.5 0
11927.5 0
11928.5 0
11929.5 0
11930.5 0
11931.5 0
11932.5 0
11933.5 0
11934.5 0
11935.5 0
11936.5 0
11937.5 0
11938.5 0
11939.5 0
11940.5 0
11941.5 0
11942.5 0
11943.5 0
11944.5 0
11945.5 0
11946.5 0
11947.5 0
11948.5 0
11949.5 1
11950.5 0
11951.5 0
11952.5 0
11953.5 0
11954.5 0
11955.5 0
11956.5 0
11957.5 0
11958.5 0
11959.5 0
11960.5 0
11961.5 0
11962.5 0
11963.5 0
11964.5 0
11965.5 0
11966.5 0
11967.5 0
11968.5 0
11969.5 0
11970.5 0
11971.5 0
11972.5 0
11973.5 0
11974.5 0
11975.5 0
11976.5 0
11977.5 0
11978.5 0
11979.5 0
11980.5 0
11981.5 0
11982.5 0
11983.5 0
11984.5 0
11985.5 1
11986.5 0
11987.5 0
11988.5 0
11989.5 0
11990.5 0
11991.5 0
11992.5 0
11993.5 0
11994.5 0
11995.5 0
11996.5 0
11997.5 0
11998.5 0
11999.5 0
