# EGG_ProjY_E2845.5(6.5)_B2835.5(1.5)_B2858.0(2.0)
# X axis : Energy (keV) [Y axis]
# Y axis : Counts/1 keV
# N Bins : 12000
# X Min : 0
# X Max : 12000
# X value at the center of the bins
0.5 0
1.5 0
2.5 0
3.5 0
4.5 0
5.5 19.8571
6.5 31.1429
7.5 43
8.5 9.85714
9.5 15
10.5 46.7143
11.5 2.85715
12.5 100.571
13.5 87.7143
14.5 85.7143
15.5 82.1429
16.5 117.857
17.5 183.714
18.5 134.571
19.5 233.857
20.5 307.286
21.5 469.571
22.5 364.429
23.5 592.286
24.5 487.857
25.5 530.429
26.5 746.429
27.5 821
28.5 965.857
29.5 1018.86
30.5 1076.57
31.5 1199.57
32.5 998.857
33.5 1091.86
34.5 1132.86
35.5 1366
36.5 1591.14
37.5 1393.29
38.5 1230.14
39.5 1350.29
40.5 1670.14
41.5 1559
42.5 1520.71
43.5 1610.71
44.5 1552.71
45.5 1668.14
46.5 1670.71
47.5 1658.29
48.5 1767.71
49.5 1771.57
50.5 1643.86
51.5 1678.14
52.5 1864.29
53.5 1758.14
54.5 1693.57
55.5 2037.57
56.5 1954
57.5 1986.43
58.5 2519.57
59.5 2802.29
60.5 2013.14
61.5 2112.29
62.5 1761.14
63.5 1915.86
64.5 1830.14
65.5 1745.14
66.5 2146.71
67.5 2117.86
68.5 2139.29
69.5 1866.71
70.5 1767.57
71.5 1942.57
72.5 1869.14
73.5 2107.14
74.5 3209.29
75.5 3600
76.5 3787.86
77.5 4454
78.5 2666
79.5 1879.71
80.5 1745.86
81.5 1908.86
82.5 1886.57
83.5 1806.57
84.5 1775.43
85.5 1873.29
86.5 2446.29
87.5 2973.43
88.5 2115.43
89.5 2238
90.5 2065.86
91.5 1859.71
92.5 1849.71
93.5 1761.71
94.5 1933.71
95.5 2192.57
96.5 1802.43
97.5 1911
98.5 2084.57
99.5 2164.71
100.5 1986
101.5 2172.29
102.5 2000.71
103.5 1825.86
104.5 2089.43
105.5 2142.71
106.5 2255.86
107.5 2141.71
108.5 1827.14
109.5 1763.43
110.5 1760.29
111.5 1587.71
112.5 1636.71
113.5 2129.14
114.5 2063.14
115.5 2022.86
116.5 2051
117.5 2116.29
118.5 1894.29
119.5 2265.29
120.5 2036.57
121.5 2107.43
122.5 1986.43
123.5 2253.43
124.5 2291.14
125.5 2214.71
126.5 2299
127.5 2530.86
128.5 2238.29
129.5 2612.14
130.5 2439.86
131.5 2483.14
132.5 2124.71
133.5 2621.14
134.5 2282.71
135.5 2258.57
136.5 2417.43
137.5 2447
138.5 2556.57
139.5 2463.86
140.5 2398.29
141.5 2610.71
142.5 2285
143.5 2505
144.5 2181.57
145.5 2103.14
146.5 1894.43
147.5 2144.71
148.5 2277.14
149.5 2633.57
150.5 2639.43
151.5 2631.14
152.5 2661.14
153.5 2578.43
154.5 2806
155.5 2903
156.5 2736.71
157.5 2738.86
158.5 2648.43
159.5 2592.43
160.5 2626.43
161.5 2713.86
162.5 2945.57
163.5 2799.29
164.5 2829
165.5 2737.86
166.5 2368.71
167.5 2515.43
168.5 2554.29
169.5 2180.43
170.5 2179.86
171.5 2542
172.5 2542.14
173.5 3006.43
174.5 3462.86
175.5 2667.29
176.5 2290.57
177.5 2446.86
178.5 1865.86
179.5 1996.43
180.5 2204.71
181.5 2526.14
182.5 2516.14
183.5 2747
184.5 2591.14
185.5 2773.29
186.5 2817.14
187.5 2803.14
188.5 3192
189.5 3038.43
190.5 2905.14
191.5 3034.14
192.5 3003.57
193.5 3108.29
194.5 2756.43
195.5 3021
196.5 2985.57
197.5 2740
198.5 2925.43
199.5 2739.29
200.5 2368.43
201.5 2428.14
202.5 2214.14
203.5 2244.43
204.5 2665.29
205.5 2836.29
206.5 2951.71
207.5 2859
208.5 3135.29
209.5 3154.43
210.5 3273
211.5 3900
212.5 3357.43
213.5 3092.43
214.5 2724.57
215.5 2882
216.5 2856.14
217.5 2986.43
218.5 3192.43
219.5 3312.57
220.5 2903.14
221.5 3050
222.5 3211.29
223.5 3029.57
224.5 3284
225.5 3123.43
226.5 2792.43
227.5 3232.14
228.5 3053.14
229.5 3028.43
230.5 3316.71
231.5 2982.43
232.5 2815.57
233.5 2904.57
234.5 3120.71
235.5 2872.14
236.5 2708.71
237.5 2696.57
238.5 2760.43
239.5 2579.29
240.5 2778
241.5 2396
242.5 2610.14
243.5 2578
244.5 2699.29
245.5 2704.14
246.5 2883.86
247.5 2659.14
248.5 2324.43
249.5 2430.43
250.5 2525.57
251.5 2560.29
252.5 2460.29
253.5 2480.86
254.5 2497.71
255.5 2403.43
256.5 2530.43
257.5 2750.14
258.5 2651
259.5 2620.57
260.5 2565.14
261.5 2786.86
262.5 2779.43
263.5 2363.71
264.5 2602.29
265.5 2686.71
266.5 2814.43
267.5 2558.71
268.5 2709.71
269.5 2638.86
270.5 2218.14
271.5 2653.14
272.5 2543.71
273.5 2637
274.5 2592.14
275.5 2296.71
276.5 2044
277.5 2127.14
278.5 2260.57
279.5 2160
280.5 2014.14
281.5 1994.29
282.5 2091.86
283.5 2238.71
284.5 2252.71
285.5 2137.29
286.5 2203
287.5 2086
288.5 2492
289.5 2287.14
290.5 2412.57
291.5 2278.14
292.5 2185.14
293.5 2225.14
294.5 2175.86
295.5 2179.29
296.5 2150.43
297.5 2154.57
298.5 2249.29
299.5 2233.71
300.5 2341.86
301.5 2073.43
302.5 2255.14
303.5 2250.43
304.5 2189.29
305.5 2097.29
306.5 2304.14
307.5 2287.71
308.5 2146.86
309.5 2331.86
310.5 2085.14
311.5 2141.43
312.5 1975
313.5 2177.43
314.5 2076.86
315.5 2030
316.5 1861.71
317.5 1687.14
318.5 2037.14
319.5 2204.43
320.5 1944.43
321.5 2206.57
322.5 2136.14
323.5 2048.43
324.5 2147.43
325.5 2187.57
326.5 2112.71
327.5 2055.86
328.5 2175.57
329.5 2114
330.5 2212.14
331.5 2267.71
332.5 2276.43
333.5 2103.14
334.5 2324.43
335.5 2181.14
336.5 1994
337.5 1977.43
338.5 1708.43
339.5 1841.43
340.5 1902.57
341.5 1756.86
342.5 1810.57
343.5 1664.57
344.5 1820.14
345.5 1849.57
346.5 1655.57
347.5 1769.14
348.5 1799.57
349.5 1959.71
350.5 1823
351.5 2175.86
352.5 2353
353.5 2055.86
354.5 2241.86
355.5 2145.71
356.5 2267.43
357.5 1830.86
358.5 1924
359.5 1753.57
360.5 1917
361.5 2060.86
362.5 1861.43
363.5 1900.14
364.5 1617.86
365.5 1640.86
366.5 1616
367.5 1798
368.5 1968.86
369.5 1721.57
370.5 1498.57
371.5 1672.43
372.5 1498.14
373.5 1774.57
374.5 1726.57
375.5 1619.57
376.5 1565.43
377.5 1624.29
378.5 1748
379.5 1671.86
380.5 1565.14
381.5 1592.86
382.5 1385.86
383.5 1512.57
384.5 1734.43
385.5 1726.86
386.5 1609.29
387.5 1714.29
388.5 1810
389.5 2010.43
390.5 1863.71
391.5 1871.14
392.5 1893.86
393.5 1953.71
394.5 1857.43
395.5 1789
396.5 2046.43
397.5 1789
398.5 1452.29
399.5 1416
400.5 1709
401.5 1498.29
402.5 1633.43
403.5 1897.14
404.5 1425.43
405.5 1553.29
406.5 1208.29
407.5 1431.29
408.5 1471.14
409.5 1649.71
410.5 1618.71
411.5 1539.43
412.5 1709.29
413.5 1606.29
414.5 1796.86
415.5 1905.71
416.5 1705.71
417.5 1712.43
418.5 1739.71
419.5 1579.29
420.5 1640.43
421.5 1796.57
422.5 1397.86
423.5 1663
424.5 1492.43
425.5 1448.86
426.5 1536.86
427.5 1519
428.5 1201
429.5 1398.14
430.5 1442.29
431.5 1331.43
432.5 1523.29
433.5 1367.43
434.5 1345.86
435.5 1480.57
436.5 1630.86
437.5 1554.14
438.5 1364.43
439.5 1425.43
440.5 1193
441.5 1314.14
442.5 1228
443.5 1368.71
444.5 1189.29
445.5 1259.14
446.5 1405.57
447.5 1399.29
448.5 1512
449.5 1627.71
450.5 1508.86
451.5 1501.57
452.5 1672.14
453.5 1546
454.5 1707.57
455.5 1716.86
456.5 1672
457.5 1713.57
458.5 1593.14
459.5 1488.43
460.5 1543.86
461.5 1399.71
462.5 1127.71
463.5 1291.71
464.5 1328.14
465.5 1324.86
466.5 1297
467.5 1383.86
468.5 1446.71
469.5 1560.86
470.5 1633.86
471.5 1654.43
472.5 1814.29
473.5 1790.43
474.5 1788.29
475.5 1691.86
476.5 1798
477.5 1608
478.5 1602.14
479.5 1588.86
480.5 1510.29
481.5 1637.57
482.5 1730.71
483.5 1621.43
484.5 1452
485.5 1317.71
486.5 1369.29
487.5 1423.14
488.5 1367
489.5 1251.43
490.5 1434.29
491.5 1328.29
492.5 1350.29
493.5 1388.43
494.5 1388.71
495.5 1219.57
496.5 1467.57
497.5 1158.86
498.5 1102.43
499.5 1361
500.5 1357.14
501.5 1347
502.5 1504.86
503.5 1532.29
504.5 1603.57
505.5 1520.57
506.5 2361.29
507.5 3349.43
508.5 5969
509.5 9692.14
510.5 12612.6
511.5 11643.1
512.5 7687.14
513.5 3890.86
514.5 2155.29
515.5 1519.57
516.5 1535.71
517.5 1622.71
518.5 1495.57
519.5 1272.57
520.5 1251.29
521.5 1361.57
522.5 1095.14
523.5 1255.86
524.5 1162.86
525.5 1331.29
526.5 1191
527.5 1207
528.5 1168.29
529.5 1004.57
530.5 1247.57
531.5 1227.43
532.5 1160.71
533.5 1131
534.5 1388.86
535.5 1315.57
536.5 1135.43
537.5 1188.86
538.5 1301.86
539.5 1264.43
540.5 1143.43
541.5 1210.71
542.5 1256
543.5 1217.57
544.5 1419.29
545.5 1199.29
546.5 1087.29
547.5 1074
548.5 1326.14
549.5 1246.71
550.5 1146.71
551.5 1310.71
552.5 1289.14
553.5 1174.86
554.5 1218.43
555.5 1255.14
556.5 1237
557.5 1110.86
558.5 1128.43
559.5 1129.14
560.5 1277.86
561.5 1207.29
562.5 1281
563.5 1159.71
564.5 1182.43
565.5 1138.57
566.5 943.714
567.5 1025.29
568.5 995.857
569.5 966.143
570.5 1006.71
571.5 979
572.5 1185.57
573.5 1394.57
574.5 1337.57
575.5 1558.43
576.5 1552.71
577.5 1468.86
578.5 1329.43
579.5 1336.14
580.5 1208.43
581.5 1431.86
582.5 1619.57
583.5 1368
584.5 1292.86
585.5 1423.86
586.5 1230.71
587.5 1253.14
588.5 1225.86
589.5 1004.86
590.5 735.286
591.5 813.857
592.5 890.143
593.5 1065.86
594.5 1256.14
595.5 1320.43
596.5 1194.43
597.5 1323.57
598.5 1300.29
599.5 1236.86
600.5 1132.57
601.5 1444.57
602.5 1396.57
603.5 1225.57
604.5 1255.29
605.5 1313.43
606.5 1089
607.5 1311.29
608.5 1222.86
609.5 1177.14
610.5 1154.14
611.5 1091.71
612.5 1046.43
613.5 977.857
614.5 1062.71
615.5 1056.57
616.5 1103.14
617.5 1199.29
618.5 1176.57
619.5 1126.57
620.5 1122.43
621.5 1203.71
622.5 1154.29
623.5 1199
624.5 1104.14
625.5 1170.57
626.5 1235
627.5 1378.71
628.5 1805.43
629.5 1642.71
630.5 1259.14
631.5 940.714
632.5 1077.57
633.5 1108.57
634.5 1135.29
635.5 1174.71
636.5 1304.71
637.5 1420.57
638.5 1360.29
639.5 1294.29
640.5 1218.14
641.5 1242.14
642.5 1329.14
643.5 1361.71
644.5 1318
645.5 1346.29
646.5 1213.29
647.5 1154.14
648.5 1289.14
649.5 1463
650.5 1844.71
651.5 1769.43
652.5 1267.29
653.5 1064
654.5 1250.29
655.5 1067
656.5 1000.86
657.5 1175.86
658.5 1124.86
659.5 1072.43
660.5 1155.14
661.5 1107.43
662.5 1248.14
663.5 1165.86
664.5 1164.57
665.5 1306.43
666.5 1219.86
667.5 1196.29
668.5 1189
669.5 1280.71
670.5 1182.71
671.5 1079
672.5 1008.86
673.5 1228.43
674.5 1073.86
675.5 1190.43
676.5 1125.86
677.5 1174.71
678.5 1084
679.5 1109.14
680.5 1248.57
681.5 1204.57
682.5 1146.14
683.5 1293.86
684.5 1175.14
685.5 1296.43
686.5 1242.43
687.5 1345
688.5 1124.29
689.5 1194.14
690.5 1312.43
691.5 1166.29
692.5 1114.14
693.5 1148.14
694.5 1293
695.5 1158
696.5 1289.14
697.5 1221.29
698.5 1130
699.5 1235.57
700.5 1253.43
701.5 1222.14
702.5 1172.86
703.5 1085.86
704.5 1150.86
705.5 1049.43
706.5 1121.14
707.5 1278.86
708.5 1084.29
709.5 1156.86
710.5 1241
711.5 1279.43
712.5 1071.29
713.5 1132.57
714.5 1105.29
715.5 1262.71
716.5 1363.29
717.5 1249.86
718.5 1183.43
719.5 1280.71
720.5 1092.86
721.5 1110
722.5 987.714
723.5 1195.43
724.5 1271.14
725.5 1021.43
726.5 1168.14
727.5 1204.14
728.5 1150
729.5 1076.71
730.5 1168.57
731.5 1101.57
732.5 1140.71
733.5 1225
734.5 1188.29
735.5 1139.43
736.5 1231
737.5 1275.86
738.5 1258.29
739.5 1281.57
740.5 1151.71
741.5 1266
742.5 1213
743.5 1244.71
744.5 1165.57
745.5 1141
746.5 1100.57
747.5 1237
748.5 1137.57
749.5 1202.43
750.5 1179.86
751.5 1283.43
752.5 1170.14
753.5 982.571
754.5 1172.14
755.5 1209.71
756.5 1250.86
757.5 1109
758.5 1306
759.5 1472.57
760.5 2280.29
761.5 2313.43
762.5 1558.14
763.5 1353.14
764.5 1081.43
765.5 1377.57
766.5 1238.29
767.5 1201.14
768.5 1279
769.5 1164.86
770.5 1082.14
771.5 1160.43
772.5 1189
773.5 1218
774.5 1110
775.5 1174.43
776.5 1217.71
777.5 1313.43
778.5 1352.57
779.5 1382
780.5 1302.43
781.5 1255.43
782.5 1286.71
783.5 1087.57
784.5 1132.14
785.5 1151.43
786.5 1220.43
787.5 1409.86
788.5 1364.43
789.5 1295.14
790.5 1286.71
791.5 1245
792.5 1258.29
793.5 1188.14
794.5 1307.57
795.5 1221.43
796.5 1372.86
797.5 1432.14
798.5 1114.29
799.5 1298.86
800.5 1252.29
801.5 1293.71
802.5 1305.14
803.5 1339.86
804.5 1299.14
805.5 1210.86
806.5 1182.43
807.5 1382.29
808.5 1305.57
809.5 1192.29
810.5 1213.86
811.5 1322
812.5 1281.29
813.5 1372.14
814.5 1148.86
815.5 1267.29
816.5 1424.57
817.5 1478.86
818.5 1275.43
819.5 1184.29
820.5 1258.43
821.5 1243.71
822.5 1370.71
823.5 1345.86
824.5 1296.14
825.5 1421.71
826.5 1170.14
827.5 1357
828.5 1352.71
829.5 1232
830.5 1371.57
831.5 1349.86
832.5 1309.86
833.5 1260.29
834.5 1371.86
835.5 1463.71
836.5 1397.86
837.5 1360.71
838.5 1432
839.5 1323.14
840.5 1416.57
841.5 1364.57
842.5 1275
843.5 1272.14
844.5 1521.14
845.5 1442.57
846.5 1370.57
847.5 1406.71
848.5 1388.29
849.5 1421.86
850.5 1578.29
851.5 1366.14
852.5 1544.29
853.5 1573.14
854.5 1452.57
855.5 1539
856.5 1513.43
857.5 1367
858.5 1433.29
859.5 1486
860.5 1551.57
861.5 1332.86
862.5 1295.43
863.5 1568
864.5 1496.14
865.5 1450
866.5 1501
867.5 1846.43
868.5 2235.43
869.5 2312.71
870.5 1934.57
871.5 1687.43
872.5 1617.14
873.5 1583.29
874.5 1595.57
875.5 1632.71
876.5 1655.14
877.5 1903.29
878.5 1843
879.5 1879.43
880.5 1464.14
881.5 1697.43
882.5 1771.29
883.5 1601
884.5 1533.29
885.5 1721.57
886.5 1623.57
887.5 1876.71
888.5 1837.86
889.5 1711.86
890.5 1674.57
891.5 1717.29
892.5 1704.86
893.5 1761.57
894.5 1895
895.5 1881.57
896.5 1844.43
897.5 1858.86
898.5 1875.14
899.5 1813.71
900.5 2097.43
901.5 1905.86
902.5 2061.43
903.5 1964.29
904.5 1903.86
905.5 1971.86
906.5 2016.14
907.5 2079.57
908.5 2100.43
909.5 2015.71
910.5 2074.57
911.5 1900.14
912.5 2296.29
913.5 2167.29
914.5 2008.71
915.5 2189.86
916.5 1971.71
917.5 1965.14
918.5 1987.14
919.5 1914.71
920.5 2008.57
921.5 1825.14
922.5 1782.43
923.5 1669.14
924.5 1769.57
925.5 1711
926.5 1773
927.5 1748.43
928.5 1755.86
929.5 1904.43
930.5 1710.14
931.5 1777.57
932.5 1896.43
933.5 1838.71
934.5 1800.57
935.5 1968.29
936.5 1848
937.5 1850.29
938.5 1878.14
939.5 1857.43
940.5 1953
941.5 1870.57
942.5 1845.71
943.5 1908.14
944.5 1784.86
945.5 1663.86
946.5 1630.43
947.5 1707.71
948.5 1535.43
949.5 1569.43
950.5 1529
951.5 1330
952.5 1346
953.5 1368.43
954.5 1454
955.5 1305.57
956.5 1412.29
957.5 1305
958.5 1329.57
959.5 1634.86
960.5 1334.71
961.5 1310.71
962.5 1359.43
963.5 1289.57
964.5 1367.71
965.5 1287.29
966.5 1237.71
967.5 1236.71
968.5 1342.86
969.5 1186.86
970.5 1235.86
971.5 1271.71
972.5 1135.71
973.5 1238.57
974.5 1171.43
975.5 1046.14
976.5 1090.29
977.5 1136.86
978.5 1200.14
979.5 1248.57
980.5 1197.14
981.5 1077.14
982.5 1126.86
983.5 1167.14
984.5 1153.29
985.5 1175.71
986.5 1037
987.5 1224.71
988.5 1093.71
989.5 1110.43
990.5 1131.14
991.5 1089
992.5 1015.86
993.5 1080
994.5 1123.86
995.5 1101.14
996.5 1032.71
997.5 1061.43
998.5 1079.14
999.5 1107.43
1000.5 1067.29
1001.5 1284.86
1002.5 1433.57
1003.5 1313.57
1004.5 1084.71
1005.5 980.714
1006.5 1028.43
1007.5 957.714
1008.5 883.286
1009.5 993
1010.5 849.714
1011.5 913.143
1012.5 917.857
1013.5 825.429
1014.5 919.857
1015.5 1052.43
1016.5 1081.71
1017.5 1069.57
1018.5 1007.86
1019.5 979.571
1020.5 759
1021.5 954.571
1022.5 840.857
1023.5 1018.86
1024.5 1212.43
1025.5 1148.43
1026.5 988.857
1027.5 885.429
1028.5 792.857
1029.5 830.286
1030.5 797.143
1031.5 857.286
1032.5 740.143
1033.5 750
1034.5 797.714
1035.5 760.286
1036.5 631
1037.5 829.857
1038.5 748
1039.5 788.857
1040.5 778.714
1041.5 727.286
1042.5 645.429
1043.5 697.143
1044.5 621.857
1045.5 727.429
1046.5 713.571
1047.5 799.714
1048.5 688
1049.5 753.143
1050.5 755.857
1051.5 797.571
1052.5 589
1053.5 683.429
1054.5 685
1055.5 706.286
1056.5 662.857
1057.5 694.714
1058.5 640.571
1059.5 616.429
1060.5 725.857
1061.5 664.286
1062.5 627.571
1063.5 604.286
1064.5 642.429
1065.5 649.286
1066.5 668.429
1067.5 631.143
1068.5 539.857
1069.5 545.286
1070.5 672.571
1071.5 627.857
1072.5 782.714
1073.5 1362.14
1074.5 1912.14
1075.5 995.714
1076.5 693
1077.5 576.286
1078.5 528
1079.5 663.857
1080.5 686.286
1081.5 629
1082.5 640
1083.5 569.857
1084.5 506
1085.5 636.857
1086.5 573.857
1087.5 644.286
1088.5 569.571
1089.5 496.429
1090.5 571.286
1091.5 526
1092.5 598.857
1093.5 574.286
1094.5 557.714
1095.5 524.714
1096.5 574.571
1097.5 589.429
1098.5 604.286
1099.5 464.571
1100.5 552.571
1101.5 667.286
1102.5 483.857
1103.5 537.857
1104.5 621.714
1105.5 598.571
1106.5 666.143
1107.5 584
1108.5 534
1109.5 664.429
1110.5 633.571
1111.5 591.143
1112.5 547.429
1113.5 565
1114.5 564.143
1115.5 605.143
1116.5 639.857
1117.5 708
1118.5 649.143
1119.5 636.857
1120.5 761.714
1121.5 927.143
1122.5 2136.14
1123.5 8219
1124.5 29157.9
1125.5 69320.9
1126.5 78670.7
1127.5 36157.6
1128.5 8113.29
1129.5 1820.71
1130.5 732.571
1131.5 502.714
1132.5 494.429
1133.5 417.571
1134.5 427.429
1135.5 407.143
1136.5 440
1137.5 326.714
1138.5 449.857
1139.5 370
1140.5 457.143
1141.5 474.571
1142.5 224.714
1143.5 373.143
1144.5 457.714
1145.5 412.857
1146.5 343.429
1147.5 477
1148.5 472.857
1149.5 396.429
1150.5 481.143
1151.5 457.714
1152.5 825.143
1153.5 2455.57
1154.5 10160.7
1155.5 34490
1156.5 77092.3
1157.5 79331.7
1158.5 33055.6
1159.5 6744.14
1160.5 1478
1161.5 407.714
1162.5 377.429
1163.5 311.143
1164.5 216.143
1165.5 240
1166.5 274.143
1167.5 180.571
1168.5 150
1169.5 231.571
1170.5 231.571
1171.5 245.571
1172.5 140.429
1173.5 93.5714
1174.5 159.714
1175.5 176.714
1176.5 172.714
1177.5 201.571
1178.5 213.571
1179.5 159.571
1180.5 275.286
1181.5 210.857
1182.5 206.286
1183.5 285.571
1184.5 243.714
1185.5 430.714
1186.5 297.429
1187.5 283.429
1188.5 184.286
1189.5 173.714
1190.5 197.286
1191.5 161.714
1192.5 175.714
1193.5 187.714
1194.5 132.571
1195.5 167
1196.5 187.143
1197.5 185
1198.5 142.143
1199.5 84.4286
1200.5 158.143
1201.5 204
1202.5 197.857
1203.5 166.429
1204.5 105.857
1205.5 170.857
1206.5 180.571
1207.5 188.286
1208.5 160.143
1209.5 127.429
1210.5 118.143
1211.5 150.714
1212.5 101.571
1213.5 176.857
1214.5 214.714
1215.5 240.429
1216.5 170
1217.5 171.143
1218.5 208.571
1219.5 208.571
1220.5 157.286
1221.5 77
1222.5 171.429
1223.5 172.286
1224.5 183.143
1225.5 157
1226.5 225.714
1227.5 192.143
1228.5 166.571
1229.5 169.429
1230.5 180.857
1231.5 98.8572
1232.5 135.286
1233.5 101.286
1234.5 164
1235.5 181.857
1236.5 173.429
1237.5 172.286
1238.5 108.857
1239.5 147.429
1240.5 226.143
1241.5 155.286
1242.5 113.571
1243.5 165
1244.5 213
1245.5 144.714
1246.5 194.714
1247.5 114
1248.5 170.429
1249.5 187.571
1250.5 172.857
1251.5 139.714
1252.5 254.857
1253.5 211.429
1254.5 169.429
1255.5 213.143
1256.5 150.571
1257.5 149.571
1258.5 174.143
1259.5 182.857
1260.5 240.286
1261.5 192.571
1262.5 167
1263.5 155.571
1264.5 157.429
1265.5 234.571
1266.5 233.857
1267.5 120.857
1268.5 216
1269.5 199
1270.5 120.429
1271.5 188.143
1272.5 217
1273.5 118
1274.5 151.286
1275.5 167.143
1276.5 205
1277.5 204.857
1278.5 151.714
1279.5 124.571
1280.5 222.857
1281.5 238
1282.5 172.429
1283.5 264.857
1284.5 226.714
1285.5 153.143
1286.5 202.714
1287.5 219.571
1288.5 218.143
1289.5 162.857
1290.5 119.714
1291.5 165.143
1292.5 149
1293.5 173.143
1294.5 112.714
1295.5 183
1296.5 115.714
1297.5 174.714
1298.5 245.143
1299.5 139.857
1300.5 174.857
1301.5 112.857
1302.5 254.571
1303.5 208.143
1304.5 212.143
1305.5 146.286
1306.5 140.286
1307.5 149.143
1308.5 149.143
1309.5 118.429
1310.5 143
1311.5 183.857
1312.5 218.286
1313.5 195
1314.5 187.857
1315.5 259.429
1316.5 181.857
1317.5 137
1318.5 103.714
1319.5 244.857
1320.5 155
1321.5 182.286
1322.5 146.714
1323.5 163.857
1324.5 155.429
1325.5 188.143
1326.5 161.571
1327.5 216.143
1328.5 239
1329.5 170.143
1330.5 158.143
1331.5 227.714
1332.5 196.571
1333.5 171.571
1334.5 144.571
1335.5 185.571
1336.5 158.714
1337.5 91.8572
1338.5 149.143
1339.5 135.857
1340.5 155.429
1341.5 160.286
1342.5 139.429
1343.5 188.429
1344.5 199.571
1345.5 161.857
1346.5 226.429
1347.5 220.429
1348.5 78.1429
1349.5 31.1429
1350.5 177.429
1351.5 167.714
1352.5 178.429
1353.5 74.2857
1354.5 178.571
1355.5 123.429
1356.5 94.2857
1357.5 246.571
1358.5 182.857
1359.5 152.571
1360.5 128.857
1361.5 107.857
1362.5 138.143
1363.5 162.429
1364.5 156.429
1365.5 177
1366.5 178.714
1367.5 149.143
1368.5 111.143
1369.5 192.429
1370.5 262.143
1371.5 153.143
1372.5 186.429
1373.5 191.857
1374.5 205.429
1375.5 173.143
1376.5 157
1377.5 153.286
1378.5 186.429
1379.5 124.429
1380.5 190.286
1381.5 166.857
1382.5 255.857
1383.5 225.714
1384.5 154.429
1385.5 160.857
1386.5 124.857
1387.5 163
1388.5 128.857
1389.5 169.571
1390.5 175.714
1391.5 148
1392.5 181.143
1393.5 173.714
1394.5 205.714
1395.5 146.286
1396.5 181
1397.5 137.143
1398.5 94.4286
1399.5 160.571
1400.5 163
1401.5 248.571
1402.5 237
1403.5 160.571
1404.5 141.714
1405.5 200.286
1406.5 182.429
1407.5 129.143
1408.5 159
1409.5 174.286
1410.5 169.857
1411.5 134.286
1412.5 152.857
1413.5 161.286
1414.5 147.857
1415.5 167.286
1416.5 96.5714
1417.5 159.286
1418.5 166.143
1419.5 262.857
1420.5 264.857
1421.5 170.714
1422.5 137
1423.5 147.429
1424.5 107.143
1425.5 132.857
1426.5 224.429
1427.5 224.286
1428.5 191
1429.5 192.429
1430.5 219
1431.5 137.571
1432.5 202.714
1433.5 180.714
1434.5 146.571
1435.5 140.286
1436.5 154.286
1437.5 134.714
1438.5 150.857
1439.5 192.714
1440.5 208
1441.5 103.143
1442.5 169.143
1443.5 151.857
1444.5 155.571
1445.5 85.5714
1446.5 225.429
1447.5 211.286
1448.5 246.857
1449.5 164.429
1450.5 193
1451.5 163.857
1452.5 176.286
1453.5 156
1454.5 135.286
1455.5 107.286
1456.5 106.429
1457.5 179
1458.5 166.714
1459.5 197.714
1460.5 122
1461.5 104.571
1462.5 130.429
1463.5 118
1464.5 172.286
1465.5 116.714
1466.5 184
1467.5 226.714
1468.5 223.571
1469.5 183
1470.5 192.857
1471.5 173.286
1472.5 168.857
1473.5 180.857
1474.5 143.571
1475.5 156.429
1476.5 162.857
1477.5 104.714
1478.5 126.571
1479.5 137.857
1480.5 160.857
1481.5 120.143
1482.5 126.857
1483.5 173.857
1484.5 105.286
1485.5 112.857
1486.5 82.4286
1487.5 156.286
1488.5 110.714
1489.5 121.714
1490.5 134.429
1491.5 181.429
1492.5 181.143
1493.5 172.857
1494.5 128.286
1495.5 124.714
1496.5 207.714
1497.5 621.714
1498.5 854.429
1499.5 1148
1500.5 1051.14
1501.5 350.429
1502.5 211.143
1503.5 111.571
1504.5 125.286
1505.5 134.143
1506.5 120.857
1507.5 208.143
1508.5 99.7143
1509.5 151.143
1510.5 140
1511.5 96.1429
1512.5 155.857
1513.5 143.429
1514.5 97.2857
1515.5 58.8572
1516.5 60.4286
1517.5 167.286
1518.5 104.286
1519.5 114
1520.5 112
1521.5 169.714
1522.5 153.429
1523.5 136.143
1524.5 132.429
1525.5 172.286
1526.5 160.143
1527.5 158.429
1528.5 249.857
1529.5 184.143
1530.5 145
1531.5 151.429
1532.5 105.286
1533.5 138.714
1534.5 114.714
1535.5 161.429
1536.5 196.857
1537.5 133.714
1538.5 249.143
1539.5 256.714
1540.5 380.143
1541.5 837.714
1542.5 1254.29
1543.5 1298.86
1544.5 716.857
1545.5 208
1546.5 181
1547.5 140.714
1548.5 133.857
1549.5 158
1550.5 45.2857
1551.5 182
1552.5 117.286
1553.5 109.286
1554.5 105.857
1555.5 47.2857
1556.5 93.7143
1557.5 119.429
1558.5 132
1559.5 93.2857
1560.5 115.714
1561.5 132
1562.5 65.7143
1563.5 145.571
1564.5 183.143
1565.5 98.1429
1566.5 71.4286
1567.5 136.714
1568.5 143.429
1569.5 108.857
1570.5 142.857
1571.5 146.143
1572.5 88.8572
1573.5 184.857
1574.5 95.8572
1575.5 130.143
1576.5 149.143
1577.5 176.286
1578.5 55.4286
1579.5 126.143
1580.5 19.4286
1581.5 100.571
1582.5 114.714
1583.5 111.143
1584.5 132.857
1585.5 109.857
1586.5 87.7143
1587.5 142.714
1588.5 129.571
1589.5 168.857
1590.5 159.857
1591.5 195.571
1592.5 110.286
1593.5 146
1594.5 120
1595.5 93.8572
1596.5 149.857
1597.5 91
1598.5 58.1429
1599.5 129.857
1600.5 119.143
1601.5 100.571
1602.5 115.857
1603.5 153.143
1604.5 57.2857
1605.5 100.571
1606.5 145.857
1607.5 141.143
1608.5 150.143
1609.5 180
1610.5 162.571
1611.5 181.286
1612.5 75.5714
1613.5 112.571
1614.5 126.571
1615.5 169.714
1616.5 188.143
1617.5 165.286
1618.5 178.429
1619.5 131.714
1620.5 230.143
1621.5 235.286
1622.5 239.714
1623.5 266
1624.5 163.286
1625.5 127
1626.5 124
1627.5 84.5714
1628.5 147
1629.5 143.857
1630.5 170.571
1631.5 137.286
1632.5 208.857
1633.5 175
1634.5 220.571
1635.5 136
1636.5 145
1637.5 100.429
1638.5 186.143
1639.5 168.429
1640.5 148.429
1641.5 197.143
1642.5 149
1643.5 146.429
1644.5 210.429
1645.5 93.2857
1646.5 121.286
1647.5 131.714
1648.5 124.857
1649.5 246.857
1650.5 160.286
1651.5 102.571
1652.5 88
1653.5 88.5714
1654.5 132.143
1655.5 163.571
1656.5 216.571
1657.5 227.143
1658.5 217
1659.5 247.857
1660.5 177.143
1661.5 66.4286
1662.5 130.286
1663.5 176.571
1664.5 128
1665.5 117.857
1666.5 167.857
1667.5 133
1668.5 170.857
1669.5 127.857
1670.5 104.714
1671.5 154.857
1672.5 130.143
1673.5 96.7143
1674.5 175.714
1675.5 135
1676.5 81
1677.5 114.857
1678.5 130.714
1679.5 172
1680.5 228.143
1681.5 129.714
1682.5 61
1683.5 131.857
1684.5 133.857
1685.5 161.571
1686.5 142.286
1687.5 155.143
1688.5 150
1689.5 48
1690.5 93.4286
1691.5 55.4286
1692.5 64
1693.5 135.429
1694.5 102.857
1695.5 82.2857
1696.5 35.8572
1697.5 95.7143
1698.5 165.143
1699.5 107.143
1700.5 82.5714
1701.5 86.2857
1702.5 180.857
1703.5 182.429
1704.5 107.714
1705.5 96.1429
1706.5 140.857
1707.5 120.143
1708.5 88.7143
1709.5 127.143
1710.5 149.857
1711.5 126.857
1712.5 129.714
1713.5 102
1714.5 108.857
1715.5 129.857
1716.5 121.143
1717.5 128.429
1718.5 169.571
1719.5 154.857
1720.5 133.571
1721.5 163.571
1722.5 105.571
1723.5 82.2857
1724.5 160
1725.5 141.857
1726.5 207.857
1727.5 167.714
1728.5 91.1429
1729.5 211.286
1730.5 95.2857
1731.5 143
1732.5 83.7143
1733.5 91.7143
1734.5 223.286
1735.5 168.571
1736.5 120.714
1737.5 26.2857
1738.5 92.8572
1739.5 152.429
1740.5 238
1741.5 186.714
1742.5 321.143
1743.5 153
1744.5 145.571
1745.5 107.714
1746.5 119.429
1747.5 86.1429
1748.5 109.714
1749.5 81
1750.5 199.143
1751.5 107.286
1752.5 159.857
1753.5 107
1754.5 150.857
1755.5 185.286
1756.5 114.571
1757.5 109.714
1758.5 67
1759.5 135.429
1760.5 51.2857
1761.5 126.857
1762.5 117.857
1763.5 135.286
1764.5 153.143
1765.5 142.857
1766.5 122.714
1767.5 103.571
1768.5 131.571
1769.5 138.143
1770.5 129.143
1771.5 158.429
1772.5 190
1773.5 153.429
1774.5 133.571
1775.5 194.857
1776.5 153
1777.5 166
1778.5 183.143
1779.5 123.857
1780.5 124.857
1781.5 62.7143
1782.5 117.857
1783.5 70.5714
1784.5 150.571
1785.5 139
1786.5 154.714
1787.5 83
1788.5 99
1789.5 143
1790.5 192.714
1791.5 280.714
1792.5 154.429
1793.5 143.714
1794.5 105.429
1795.5 142.143
1796.5 129.429
1797.5 163
1798.5 114
1799.5 100.286
1800.5 80
1801.5 100.857
1802.5 115.714
1803.5 137.429
1804.5 105.571
1805.5 107.714
1806.5 108
1807.5 165.714
1808.5 76.5714
1809.5 170.429
1810.5 112.714
1811.5 126.571
1812.5 76.2857
1813.5 129.714
1814.5 127.286
1815.5 62
1816.5 68.1429
1817.5 95.4286
1818.5 145.714
1819.5 126.286
1820.5 137.857
1821.5 135.429
1822.5 106
1823.5 53.4286
1824.5 129.286
1825.5 80.2857
1826.5 92.8572
1827.5 99.5714
1828.5 142
1829.5 127.143
1830.5 71.1429
1831.5 135.429
1832.5 211.429
1833.5 108.286
1834.5 113.714
1835.5 142
1836.5 200.143
1837.5 114.286
1838.5 111
1839.5 100.143
1840.5 87.2857
1841.5 142.143
1842.5 143.571
1843.5 155.571
1844.5 77.5714
1845.5 98
1846.5 108
1847.5 91
1848.5 81.5714
1849.5 76.8572
1850.5 132.286
1851.5 81.7143
1852.5 115.143
1853.5 100.429
1854.5 117.571
1855.5 83.5714
1856.5 44
1857.5 117.429
1858.5 65.4286
1859.5 137.571
1860.5 112.857
1861.5 149.714
1862.5 101.571
1863.5 85.8572
1864.5 95.2857
1865.5 162.857
1866.5 157.143
1867.5 122.571
1868.5 91.1429
1869.5 77.8572
1870.5 103.429
1871.5 240.714
1872.5 139.143
1873.5 129.429
1874.5 169
1875.5 75
1876.5 165.857
1877.5 164.429
1878.5 59.4286
1879.5 99.5714
1880.5 46.1429
1881.5 62.2857
1882.5 99.7143
1883.5 184.571
1884.5 197.286
1885.5 459.286
1886.5 692.143
1887.5 703.857
1888.5 422.714
1889.5 174
1890.5 140.143
1891.5 94.2857
1892.5 161
1893.5 144.714
1894.5 126.286
1895.5 97.1429
1896.5 155.857
1897.5 98
1898.5 94.1429
1899.5 151.429
1900.5 83.5714
1901.5 128
1902.5 120.571
1903.5 167
1904.5 89
1905.5 103.286
1906.5 101.143
1907.5 85.5714
1908.5 84.2857
1909.5 156.286
1910.5 123
1911.5 105
1912.5 150.714
1913.5 94.4286
1914.5 108.286
1915.5 113.429
1916.5 94
1917.5 134
1918.5 99.7143
1919.5 105.286
1920.5 136.286
1921.5 150.286
1922.5 116.571
1923.5 155.571
1924.5 99.8572
1925.5 135.714
1926.5 60.1429
1927.5 114.714
1928.5 141.286
1929.5 109.714
1930.5 154.429
1931.5 129.571
1932.5 139.429
1933.5 156.857
1934.5 128.857
1935.5 90.5714
1936.5 115.143
1937.5 88.5714
1938.5 100.714
1939.5 102.143
1940.5 76.5714
1941.5 39.1429
1942.5 -87
1943.5 111.571
1944.5 70.5714
1945.5 151.429
1946.5 117
1947.5 146.571
1948.5 187.571
1949.5 175.857
1950.5 127.714
1951.5 129.857
1952.5 156
1953.5 115.286
1954.5 103.286
1955.5 89
1956.5 149
1957.5 239
1958.5 361.571
1959.5 330.857
1960.5 150.429
1961.5 179.286
1962.5 150
1963.5 163
1964.5 133
1965.5 185.143
1966.5 163
1967.5 158
1968.5 129.714
1969.5 134.286
1970.5 95.5714
1971.5 38
1972.5 52.8572
1973.5 79.5714
1974.5 153.857
1975.5 93.7143
1976.5 173.857
1977.5 152.429
1978.5 112.571
1979.5 170.143
1980.5 113.571
1981.5 68
1982.5 90
1983.5 54.5714
1984.5 123.857
1985.5 149.714
1986.5 104.857
1987.5 121.714
1988.5 59.5714
1989.5 111.429
1990.5 71.7143
1991.5 38.7143
1992.5 -28.1428
1993.5 -165.429
1994.5 -55.2857
1995.5 106.571
1996.5 38.2857
1997.5 118.143
1998.5 114.143
1999.5 104.571
2000.5 72.1429
2001.5 161
2002.5 83.5714
2003.5 80.4286
2004.5 103.857
2005.5 144.714
2006.5 141.429
2007.5 119.143
2008.5 200.143
2009.5 82.5714
2010.5 138.571
2011.5 135
2012.5 115
2013.5 74.2857
2014.5 88.4286
2015.5 57.8572
2016.5 73.1429
2017.5 87.1429
2018.5 86.4286
2019.5 127.143
2020.5 101.143
2021.5 102.714
2022.5 109.571
2023.5 82.5714
2024.5 114.143
2025.5 85.2857
2026.5 71.5714
2027.5 36.7143
2028.5 154.286
2029.5 157.714
2030.5 148.857
2031.5 80
2032.5 120.286
2033.5 93.8572
2034.5 175
2035.5 89.2857
2036.5 91.8572
2037.5 93.5714
2038.5 91.2857
2039.5 124
2040.5 167.857
2041.5 143.857
2042.5 140.857
2043.5 100.143
2044.5 184.571
2045.5 132.857
2046.5 82.1429
2047.5 96.5714
2048.5 93.7143
2049.5 130.714
2050.5 127.857
2051.5 158.429
2052.5 111.143
2053.5 143
2054.5 109.286
2055.5 115.571
2056.5 86.7143
2057.5 82.1429
2058.5 140.571
2059.5 94.8571
2060.5 82
2061.5 86.1429
2062.5 155.571
2063.5 128.571
2064.5 146
2065.5 42.1429
2066.5 114.286
2067.5 139.714
2068.5 189.286
2069.5 126.429
2070.5 102.714
2071.5 80.7143
2072.5 92.1429
2073.5 177.143
2074.5 132.143
2075.5 66.1429
2076.5 70
2077.5 139.429
2078.5 143.571
2079.5 45.5714
2080.5 97.5714
2081.5 114.143
2082.5 125.714
2083.5 39.1429
2084.5 87.4286
2085.5 152
2086.5 84.8572
2087.5 140.857
2088.5 98.7143
2089.5 100.429
2090.5 92.5714
2091.5 138.286
2092.5 176.429
2093.5 99.4286
2094.5 122.143
2095.5 196.714
2096.5 286.857
2097.5 262.714
2098.5 157.714
2099.5 158.714
2100.5 28.2857
2101.5 65.8572
2102.5 115.714
2103.5 102.429
2104.5 61.8572
2105.5 76.8572
2106.5 108.714
2107.5 124.714
2108.5 136.857
2109.5 149.714
2110.5 95
2111.5 166.857
2112.5 115.714
2113.5 109.143
2114.5 153.714
2115.5 98.5714
2116.5 133.571
2117.5 72
2118.5 72
2119.5 91.1429
2120.5 156.143
2121.5 152.714
2122.5 252.714
2123.5 313.857
2124.5 409.143
2125.5 399.143
2126.5 240.857
2127.5 142.714
2128.5 65.4286
2129.5 151.857
2130.5 106.429
2131.5 179.571
2132.5 45.7143
2133.5 23.4286
2134.5 95.1429
2135.5 67.1429
2136.5 75.5714
2137.5 156.143
2138.5 158.429
2139.5 203.286
2140.5 128.143
2141.5 169.143
2142.5 138.714
2143.5 49.4286
2144.5 88.4286
2145.5 129.143
2146.5 63.1429
2147.5 224.286
2148.5 332.143
2149.5 541
2150.5 526.143
2151.5 450.714
2152.5 302.714
2153.5 61.7143
2154.5 132.571
2155.5 105.857
2156.5 160
2157.5 139.857
2158.5 110.857
2159.5 112.571
2160.5 113.714
2161.5 92.4286
2162.5 95.4286
2163.5 42.4286
2164.5 155.571
2165.5 141
2166.5 64.7143
2167.5 104.143
2168.5 100.143
2169.5 101.429
2170.5 130.857
2171.5 59.5714
2172.5 70.1429
2173.5 101
2174.5 99.7143
2175.5 58.7143
2176.5 68.8572
2177.5 153.286
2178.5 106.429
2179.5 82
2180.5 151.857
2181.5 61.5714
2182.5 67.1429
2183.5 52.1429
2184.5 123
2185.5 89
2186.5 106.857
2187.5 146.286
2188.5 112.571
2189.5 131
2190.5 178.857
2191.5 237.857
2192.5 214.857
2193.5 162.143
2194.5 139.714
2195.5 65.5714
2196.5 123.286
2197.5 95.1429
2198.5 76.5714
2199.5 137.143
2200.5 180.571
2201.5 164.143
2202.5 169.571
2203.5 71.8572
2204.5 92.7143
2205.5 166
2206.5 176
2207.5 87.2857
2208.5 64.2857
2209.5 113.714
2210.5 79.2857
2211.5 45.4286
2212.5 108.286
2213.5 112.857
2214.5 105.143
2215.5 131
2216.5 111
2217.5 126.143
2218.5 127.429
2219.5 57
2220.5 84.5714
2221.5 167.143
2222.5 305.571
2223.5 310.143
2224.5 281.857
2225.5 142.714
2226.5 116.714
2227.5 118.286
2228.5 171
2229.5 129.286
2230.5 103
2231.5 114.571
2232.5 49.2857
2233.5 99.7143
2234.5 133.429
2235.5 96.7143
2236.5 87
2237.5 68.8572
2238.5 116.714
2239.5 72.7143
2240.5 84.7143
2241.5 81.2857
2242.5 118
2243.5 148
2244.5 114.857
2245.5 160.143
2246.5 79.2857
2247.5 25.5714
2248.5 40.5714
2249.5 65
2250.5 117.714
2251.5 72.2857
2252.5 96.7143
2253.5 70
2254.5 144.429
2255.5 137.143
2256.5 91.7143
2257.5 46.5714
2258.5 54.8572
2259.5 75.5714
2260.5 111
2261.5 85.5714
2262.5 84.7143
2263.5 91.7143
2264.5 149.429
2265.5 113.571
2266.5 88.7143
2267.5 132.571
2268.5 33.5714
2269.5 71
2270.5 70.7143
2271.5 83.7143
2272.5 127.429
2273.5 53.7143
2274.5 94.4286
2275.5 122.143
2276.5 105.143
2277.5 46.8572
2278.5 66.2857
2279.5 171.286
2280.5 266
2281.5 286.429
2282.5 312.857
2283.5 178.857
2284.5 108.429
2285.5 142.857
2286.5 64.2857
2287.5 141.429
2288.5 83.4286
2289.5 98.2857
2290.5 105.714
2291.5 110.714
2292.5 87
2293.5 79.1429
2294.5 84.4286
2295.5 100.286
2296.5 104.714
2297.5 126.714
2298.5 112.429
2299.5 121.143
2300.5 160.714
2301.5 136.143
2302.5 85.8572
2303.5 148
2304.5 87.4286
2305.5 52.1429
2306.5 37.2857
2307.5 68.1429
2308.5 154.286
2309.5 103.143
2310.5 35
2311.5 84.4286
2312.5 91.2857
2313.5 164
2314.5 152.571
2315.5 67.2857
2316.5 152.571
2317.5 117.286
2318.5 72.4286
2319.5 105.857
2320.5 65.5714
2321.5 94.4286
2322.5 40.5714
2323.5 119.286
2324.5 101.857
2325.5 64.1429
2326.5 140.857
2327.5 92
2328.5 50.1429
2329.5 70.2857
2330.5 96.1429
2331.5 74.4286
2332.5 77.8572
2333.5 48.7143
2334.5 111.429
2335.5 99
2336.5 102.286
2337.5 83.1429
2338.5 75.4286
2339.5 148.143
2340.5 59.4286
2341.5 58.7143
2342.5 28.1429
2343.5 58.2857
2344.5 91.7143
2345.5 127.143
2346.5 108.143
2347.5 61
2348.5 57.4286
2349.5 112.429
2350.5 91.7143
2351.5 51.5714
2352.5 136.857
2353.5 58.4286
2354.5 67.8571
2355.5 49.7143
2356.5 77
2357.5 101.286
2358.5 148.286
2359.5 107.571
2360.5 105
2361.5 131.143
2362.5 71.4286
2363.5 96.5714
2364.5 26.2857
2365.5 109.429
2366.5 81.5714
2367.5 29.4286
2368.5 91.5714
2369.5 61
2370.5 69.8571
2371.5 115.571
2372.5 70.1429
2373.5 123.714
2374.5 111
2375.5 146.571
2376.5 140.286
2377.5 116
2378.5 116.714
2379.5 112
2380.5 140.286
2381.5 97.1429
2382.5 161.286
2383.5 43.8571
2384.5 45.7143
2385.5 21.2857
2386.5 84.4286
2387.5 86.8571
2388.5 34.4286
2389.5 84.7143
2390.5 51.8572
2391.5 105.714
2392.5 126.143
2393.5 77.7143
2394.5 113.857
2395.5 117.286
2396.5 102
2397.5 115.857
2398.5 108.571
2399.5 11.4286
2400.5 74.7143
2401.5 112.857
2402.5 81.4286
2403.5 133.143
2404.5 78
2405.5 53.5714
2406.5 90.1429
2407.5 99
2408.5 54.5714
2409.5 74.7143
2410.5 89.2857
2411.5 92.5714
2412.5 129.429
2413.5 99.8571
2414.5 83.8572
2415.5 100.286
2416.5 116.714
2417.5 116.143
2418.5 65.5714
2419.5 108.286
2420.5 85.2857
2421.5 66.2857
2422.5 53.2857
2423.5 89
2424.5 93.2857
2425.5 105.143
2426.5 144
2427.5 61.7143
2428.5 117
2429.5 102.714
2430.5 133.857
2431.5 129.143
2432.5 111.429
2433.5 88
2434.5 86
2435.5 154.143
2436.5 110.857
2437.5 66.2857
2438.5 114.857
2439.5 63.7143
2440.5 126.857
2441.5 63
2442.5 109.429
2443.5 99.1429
2444.5 124.857
2445.5 51
2446.5 30.5714
2447.5 32.4286
2448.5 83.4286
2449.5 91
2450.5 42.1429
2451.5 66.8571
2452.5 94.7143
2453.5 128.429
2454.5 59.8571
2455.5 110.143
2456.5 37
2457.5 108.571
2458.5 67.1429
2459.5 83.2857
2460.5 93
2461.5 101.429
2462.5 60.1429
2463.5 91.7143
2464.5 72.2857
2465.5 110.429
2466.5 137
2467.5 178.429
2468.5 141.429
2469.5 102
2470.5 62.8572
2471.5 98.2857
2472.5 80.7143
2473.5 109.714
2474.5 128.714
2475.5 100.571
2476.5 84.4286
2477.5 85.4286
2478.5 84.5714
2479.5 41
2480.5 57.4286
2481.5 45.1429
2482.5 64.1429
2483.5 123.857
2484.5 80.4286
2485.5 85.1429
2486.5 98.7143
2487.5 109
2488.5 45.2857
2489.5 119.857
2490.5 100.429
2491.5 81.1429
2492.5 121.143
2493.5 57.8571
2494.5 110.714
2495.5 78
2496.5 121
2497.5 110.429
2498.5 116.571
2499.5 58.5714
2500.5 97.8571
2501.5 96.5714
2502.5 91.5714
2503.5 44.8571
2504.5 69.4286
2505.5 115.286
2506.5 50.8571
2507.5 88.4286
2508.5 34.5714
2509.5 102.143
2510.5 101.143
2511.5 69.4286
2512.5 144.286
2513.5 87.8571
2514.5 116.286
2515.5 76
2516.5 157.571
2517.5 244.429
2518.5 334
2519.5 247.286
2520.5 208.143
2521.5 172
2522.5 97.7143
2523.5 128.429
2524.5 109.429
2525.5 51.4286
2526.5 91.1429
2527.5 133
2528.5 62.5714
2529.5 65.1429
2530.5 123
2531.5 96.7143
2532.5 57.7143
2533.5 49.8572
2534.5 74.2857
2535.5 80
2536.5 120
2537.5 107
2538.5 83.5714
2539.5 152.429
2540.5 51.8571
2541.5 61.5714
2542.5 101.143
2543.5 91
2544.5 114.571
2545.5 126.143
2546.5 143.429
2547.5 129
2548.5 134
2549.5 163.429
2550.5 146.286
2551.5 59
2552.5 93.7143
2553.5 97.4286
2554.5 82.7143
2555.5 103
2556.5 56.5714
2557.5 71.1429
2558.5 69.1429
2559.5 90.8571
2560.5 96
2561.5 54.1429
2562.5 89.7143
2563.5 90.1429
2564.5 63.1429
2565.5 114.429
2566.5 19.7143
2567.5 28.4286
2568.5 26.8571
2569.5 90.4286
2570.5 47.1429
2571.5 136.857
2572.5 120.429
2573.5 133.429
2574.5 90
2575.5 126.571
2576.5 75.7143
2577.5 128.429
2578.5 125
2579.5 84
2580.5 92.2857
2581.5 58.4286
2582.5 51.4286
2583.5 83.5714
2584.5 64.2857
2585.5 115.714
2586.5 86.7143
2587.5 120.143
2588.5 52.1429
2589.5 65
2590.5 96.2857
2591.5 97.7143
2592.5 77.8571
2593.5 84.1429
2594.5 30.4286
2595.5 62.1429
2596.5 61.7143
2597.5 85.4286
2598.5 44
2599.5 20.1429
2600.5 62
2601.5 95.7143
2602.5 53.2857
2603.5 103.571
2604.5 68.2857
2605.5 105
2606.5 87.8571
2607.5 98.7143
2608.5 134.571
2609.5 81.7143
2610.5 82.7143
2611.5 105.143
2612.5 38
2613.5 115.571
2614.5 93.5714
2615.5 107.571
2616.5 165
2617.5 116.714
2618.5 220
2619.5 162.857
2620.5 200.429
2621.5 130.571
2622.5 75.4286
2623.5 58.2857
2624.5 73.2857
2625.5 124.429
2626.5 118.857
2627.5 89
2628.5 58.8571
2629.5 24.1429
2630.5 63.4286
2631.5 68.7143
2632.5 112
2633.5 112.143
2634.5 117.571
2635.5 69
2636.5 104.714
2637.5 102
2638.5 19.5714
2639.5 97.7143
2640.5 68.7143
2641.5 100.571
2642.5 81.7143
2643.5 76.4286
2644.5 111.571
2645.5 99.4286
2646.5 119.571
2647.5 83.8571
2648.5 91.1429
2649.5 129
2650.5 41.2857
2651.5 68.7143
2652.5 68.7143
2653.5 108
2654.5 132.286
2655.5 173.429
2656.5 143
2657.5 166.857
2658.5 179
2659.5 56.8572
2660.5 56.4286
2661.5 75.8571
2662.5 49.4286
2663.5 68.1429
2664.5 139.714
2665.5 99
2666.5 77.7143
2667.5 151.429
2668.5 119.143
2669.5 81.7143
2670.5 129
2671.5 95.7143
2672.5 118.286
2673.5 94.5714
2674.5 110.571
2675.5 80.4286
2676.5 91
2677.5 107
2678.5 109.857
2679.5 83.5714
2680.5 68.1429
2681.5 101.286
2682.5 40.4286
2683.5 105.286
2684.5 112.143
2685.5 29
2686.5 87.1429
2687.5 80.8571
2688.5 101.714
2689.5 86.1429
2690.5 75.1429
2691.5 88.1429
2692.5 121.143
2693.5 101.286
2694.5 76.1429
2695.5 112.714
2696.5 95.2857
2697.5 130.571
2698.5 68.7143
2699.5 70.7143
2700.5 74.7143
2701.5 39.4286
2702.5 42.1429
2703.5 54.1429
2704.5 57.5714
2705.5 85.2857
2706.5 102.143
2707.5 107
2708.5 117
2709.5 109.714
2710.5 75.4286
2711.5 123.714
2712.5 74.4286
2713.5 114.571
2714.5 117
2715.5 104.143
2716.5 51.5714
2717.5 73
2718.5 85
2719.5 114.429
2720.5 134.857
2721.5 66.5714
2722.5 72.1429
2723.5 110.714
2724.5 161.286
2725.5 47.2857
2726.5 129.857
2727.5 91
2728.5 24.5714
2729.5 90.8571
2730.5 61.8571
2731.5 106.714
2732.5 63.7143
2733.5 79.1429
2734.5 142.857
2735.5 104.429
2736.5 84
2737.5 120.143
2738.5 99.2857
2739.5 100.429
2740.5 131.714
2741.5 147.714
2742.5 102.714
2743.5 77.1429
2744.5 78.4286
2745.5 89.5714
2746.5 94.5714
2747.5 69.2857
2748.5 98.5714
2749.5 139.714
2750.5 130
2751.5 76.1429
2752.5 129.286
2753.5 124
2754.5 73.1429
2755.5 59.4286
2756.5 52.8571
2757.5 69.5714
2758.5 37.2857
2759.5 47.1429
2760.5 110.714
2761.5 78.1429
2762.5 63
2763.5 61.5714
2764.5 82.2857
2765.5 118.857
2766.5 53.7143
2767.5 34.1429
2768.5 91.7143
2769.5 99.1429
2770.5 70.5714
2771.5 42.7143
2772.5 6.28572
2773.5 55
2774.5 125
2775.5 54.4286
2776.5 81.2857
2777.5 80.1429
2778.5 48.8571
2779.5 85.1429
2780.5 66.4286
2781.5 47.4286
2782.5 124.571
2783.5 140.857
2784.5 39.2857
2785.5 59.8571
2786.5 77.2857
2787.5 122.714
2788.5 137
2789.5 113.286
2790.5 55.7143
2791.5 130.857
2792.5 56.2857
2793.5 55.8571
2794.5 115
2795.5 111.714
2796.5 79.8571
2797.5 71.7143
2798.5 134.143
2799.5 101.429
2800.5 77.8571
2801.5 69.2857
2802.5 81.7143
2803.5 86.8571
2804.5 72.1429
2805.5 32.2857
2806.5 91.4286
2807.5 51.5714
2808.5 64.1429
2809.5 75
2810.5 109.143
2811.5 63.7143
2812.5 36.8572
2813.5 -12
2814.5 30.4286
2815.5 -34.7143
2816.5 37.7143
2817.5 27.4286
2818.5 42.5714
2819.5 27.8571
2820.5 32.4286
2821.5 128.429
2822.5 56.1429
2823.5 98.4286
2824.5 107.286
2825.5 83.5714
2826.5 97.1429
2827.5 109.857
2828.5 55.7143
2829.5 150.714
2830.5 107.143
2831.5 91.2857
2832.5 42
2833.5 104.857
2834.5 53
2835.5 72.2857
2836.5 85.4286
2837.5 52.5714
2838.5 52
2839.5 66.8571
2840.5 112.286
2841.5 67.4286
2842.5 77.8571
2843.5 109.429
2844.5 90.8572
2845.5 61
2846.5 101.143
2847.5 100.857
2848.5 79
2849.5 126.429
2850.5 99.7143
2851.5 87
2852.5 77.1429
2853.5 73.4286
2854.5 67.2857
2855.5 58.8571
2856.5 -0.428564
2857.5 50.8571
2858.5 -3.42856
2859.5 10.4286
2860.5 75.7143
2861.5 66.8571
2862.5 73.7143
2863.5 77.7143
2864.5 130.286
2865.5 107.714
2866.5 96.4286
2867.5 79
2868.5 99.5714
2869.5 145.857
2870.5 129.143
2871.5 67.8571
2872.5 61.5714
2873.5 92
2874.5 54.4286
2875.5 56
2876.5 118.571
2877.5 64.8571
2878.5 60.1429
2879.5 43.7143
2880.5 113.714
2881.5 128.429
2882.5 57.7143
2883.5 84.5714
2884.5 56
2885.5 77.8571
2886.5 117.571
2887.5 119.857
2888.5 103
2889.5 119.286
2890.5 117
2891.5 100.143
2892.5 140.714
2893.5 88.8571
2894.5 97.8571
2895.5 112.429
2896.5 102.286
2897.5 81.5714
2898.5 82.8571
2899.5 48.4286
2900.5 97.7143
2901.5 89.4286
2902.5 121.714
2903.5 54.5714
2904.5 108.857
2905.5 90.7143
2906.5 75.8571
2907.5 85.4286
2908.5 8.00001
2909.5 25.5714
2910.5 44.4286
2911.5 101.429
2912.5 59.5714
2913.5 107
2914.5 88.4286
2915.5 37.4286
2916.5 99
2917.5 70.7143
2918.5 69.1429
2919.5 59.8571
2920.5 66.8571
2921.5 90.1429
2922.5 76.7143
2923.5 102.714
2924.5 48.5714
2925.5 102
2926.5 60.1429
2927.5 79
2928.5 70.4286
2929.5 90.1429
2930.5 83.1429
2931.5 48
2932.5 60.5714
2933.5 47.5714
2934.5 65.1429
2935.5 106.571
2936.5 37
2937.5 65
2938.5 127.429
2939.5 129.857
2940.5 111.143
2941.5 45.7143
2942.5 55.1429
2943.5 102.571
2944.5 104.714
2945.5 80.1429
2946.5 157.286
2947.5 174.286
2948.5 93.8572
2949.5 122
2950.5 95.5714
2951.5 118.429
2952.5 157.571
2953.5 257.714
2954.5 282.429
2955.5 219.429
2956.5 159.143
2957.5 158.714
2958.5 97
2959.5 69.1429
2960.5 38.7143
2961.5 32.4286
2962.5 56.1429
2963.5 74.5714
2964.5 60.8571
2965.5 80.1429
2966.5 88.8571
2967.5 113.286
2968.5 66.4286
2969.5 53
2970.5 84.7143
2971.5 64.8571
2972.5 84.1429
2973.5 66.8571
2974.5 54.4286
2975.5 72
2976.5 63.7143
2977.5 67.4286
2978.5 90.1429
2979.5 45.4286
2980.5 64
2981.5 56.8571
2982.5 19.1429
2983.5 58.5714
2984.5 42.4286
2985.5 49.1429
2986.5 24.5714
2987.5 70
2988.5 44.4286
2989.5 76
2990.5 82
2991.5 43.1429
2992.5 93.2857
2993.5 110.857
2994.5 60
2995.5 109.571
2996.5 65.5714
2997.5 63.5714
2998.5 71.7143
2999.5 73.8571
3000.5 129
3001.5 87
3002.5 89.7143
3003.5 115.143
3004.5 145
3005.5 173
3006.5 96.1429
3007.5 93
3008.5 68.1429
3009.5 1.28572
3010.5 58.7143
3011.5 100.429
3012.5 33
3013.5 62
3014.5 56.8571
3015.5 51.2857
3016.5 62.1429
3017.5 70.4286
3018.5 39.5714
3019.5 75.2857
3020.5 82.2857
3021.5 63.5714
3022.5 74.1429
3023.5 97.2857
3024.5 67.4286
3025.5 65.4286
3026.5 74.8571
3027.5 40
3028.5 87.4286
3029.5 86.5714
3030.5 84.1429
3031.5 129.857
3032.5 115.286
3033.5 45.8571
3034.5 73.1429
3035.5 103.429
3036.5 131.857
3037.5 204
3038.5 224.429
3039.5 278.857
3040.5 131
3041.5 128.857
3042.5 57.5714
3043.5 92.7143
3044.5 120.857
3045.5 84
3046.5 80.8571
3047.5 89
3048.5 73.4286
3049.5 137
3050.5 189.143
3051.5 189.429
3052.5 135.571
3053.5 172
3054.5 106
3055.5 75.4286
3056.5 76.5714
3057.5 72
3058.5 60.4286
3059.5 97.8571
3060.5 85
3061.5 93.8571
3062.5 103.714
3063.5 88.1429
3064.5 69.7143
3065.5 40.5714
3066.5 55.8571
3067.5 90.5714
3068.5 86.5714
3069.5 61.7143
3070.5 27.4286
3071.5 97.1429
3072.5 38
3073.5 59.4286
3074.5 63.1429
3075.5 47.5714
3076.5 81.2857
3077.5 110.857
3078.5 44.2857
3079.5 94.2857
3080.5 45.7143
3081.5 40.4286
3082.5 55.4286
3083.5 62.4286
3084.5 27.8571
3085.5 68.1429
3086.5 23.7143
3087.5 58
3088.5 42
3089.5 62.4286
3090.5 34.8571
3091.5 101.143
3092.5 69.8571
3093.5 40.7143
3094.5 83.2857
3095.5 71.7143
3096.5 73.8571
3097.5 44.5714
3098.5 24.2857
3099.5 58
3100.5 57.4286
3101.5 36.4286
3102.5 88
3103.5 79.2857
3104.5 84.5714
3105.5 87.7143
3106.5 73.7143
3107.5 66
3108.5 15.5714
3109.5 44
3110.5 -10.7143
3111.5 2.71429
3112.5 19.8572
3113.5 50.5714
3114.5 101.857
3115.5 93.7143
3116.5 83.2857
3117.5 79.2857
3118.5 79.1429
3119.5 27.5714
3120.5 41.7143
3121.5 36.4286
3122.5 44.5714
3123.5 84.5714
3124.5 50.7143
3125.5 36.1429
3126.5 66.1429
3127.5 135.714
3128.5 71.8571
3129.5 72.1429
3130.5 114.429
3131.5 41.2857
3132.5 12.4286
3133.5 42.5714
3134.5 105
3135.5 35.2857
3136.5 61
3137.5 78.7143
3138.5 49.5714
3139.5 46.7143
3140.5 21.7143
3141.5 83.8571
3142.5 49
3143.5 55.8571
3144.5 97.4286
3145.5 43
3146.5 64.8571
3147.5 63.8571
3148.5 125.286
3149.5 140
3150.5 116.571
3151.5 126.286
3152.5 87.5714
3153.5 43.7143
3154.5 46.5714
3155.5 60.1429
3156.5 43.5714
3157.5 130.143
3158.5 135.857
3159.5 71.8571
3160.5 90.7143
3161.5 79.7143
3162.5 54.7143
3163.5 50.2857
3164.5 60.8571
3165.5 74.2857
3166.5 48.7143
3167.5 51.5714
3168.5 71.7143
3169.5 37.4286
3170.5 91.8571
3171.5 83
3172.5 56.7143
3173.5 68.2857
3174.5 32.4286
3175.5 25.4286
3176.5 86.4286
3177.5 47.7143
3178.5 85.4286
3179.5 6.14286
3180.5 44.8571
3181.5 87
3182.5 84
3183.5 102.714
3184.5 110.286
3185.5 130.143
3186.5 109.571
3187.5 78.7143
3188.5 91.5714
3189.5 94.1429
3190.5 80.4286
3191.5 112.143
3192.5 56
3193.5 66.8571
3194.5 87.5714
3195.5 70.4286
3196.5 83
3197.5 30.2857
3198.5 35.4286
3199.5 25.8571
3200.5 39.4286
3201.5 59.2857
3202.5 93.1429
3203.5 29
3204.5 77.5714
3205.5 88.4286
3206.5 59
3207.5 71.2857
3208.5 61.2857
3209.5 64.1429
3210.5 82.5714
3211.5 14.7143
3212.5 104.571
3213.5 40.7143
3214.5 78
3215.5 80.4286
3216.5 97.2857
3217.5 39.5714
3218.5 71.2857
3219.5 79.5714
3220.5 103.857
3221.5 78.7143
3222.5 67.8571
3223.5 78.2857
3224.5 102.429
3225.5 86.7143
3226.5 38.2857
3227.5 37
3228.5 40.2857
3229.5 44.4286
3230.5 74
3231.5 73.5714
3232.5 61.4286
3233.5 54.2857
3234.5 76.8571
3235.5 59.8571
3236.5 38
3237.5 48.7143
3238.5 64.4286
3239.5 101.143
3240.5 95.8571
3241.5 93.4286
3242.5 92.4286
3243.5 65.8571
3244.5 56.8571
3245.5 44.7143
3246.5 74
3247.5 86.8571
3248.5 53.2857
3249.5 114.857
3250.5 69.8571
3251.5 74.1429
3252.5 49.1429
3253.5 49.7143
3254.5 88.1429
3255.5 56.8571
3256.5 62.4286
3257.5 113.714
3258.5 72.1429
3259.5 166.857
3260.5 187.143
3261.5 175.429
3262.5 178.857
3263.5 82.2857
3264.5 147.857
3265.5 134.143
3266.5 105.429
3267.5 92.1429
3268.5 59
3269.5 70.4286
3270.5 83.4286
3271.5 43.7143
3272.5 98.7143
3273.5 83
3274.5 41.5714
3275.5 55.2857
3276.5 96.1429
3277.5 109.857
3278.5 66.1429
3279.5 66.4286
3280.5 76.5714
3281.5 67.7143
3282.5 44
3283.5 15
3284.5 81.5714
3285.5 -1.57142
3286.5 84.7143
3287.5 75.5714
3288.5 -22.5714
3289.5 7.71429
3290.5 17.5714
3291.5 -1.85714
3292.5 41
3293.5 65.1429
3294.5 68.8571
3295.5 25.4286
3296.5 114.571
3297.5 72.2857
3298.5 45.2857
3299.5 73.4286
3300.5 71.2857
3301.5 148.571
3302.5 125.857
3303.5 94.2857
3304.5 89
3305.5 50.1429
3306.5 62
3307.5 55.4286
3308.5 68
3309.5 75.4286
3310.5 70.5714
3311.5 48.2857
3312.5 75.4286
3313.5 66.2857
3314.5 62
3315.5 59.7143
3316.5 51.5714
3317.5 20.8571
3318.5 58.8571
3319.5 68.7143
3320.5 72.4286
3321.5 64.5714
3322.5 11.7143
3323.5 70.5714
3324.5 60
3325.5 54.8571
3326.5 47.5714
3327.5 96.1429
3328.5 88.7143
3329.5 88.2857
3330.5 82.7143
3331.5 45.8571
3332.5 134.714
3333.5 39.1429
3334.5 59.8571
3335.5 102.571
3336.5 87.4286
3337.5 73.1429
3338.5 52.4286
3339.5 74.4286
3340.5 89
3341.5 64
3342.5 30.1429
3343.5 34.2857
3344.5 68.8571
3345.5 85
3346.5 68.4286
3347.5 104.857
3348.5 72
3349.5 97
3350.5 69
3351.5 101.143
3352.5 52.2857
3353.5 97.5714
3354.5 82.8571
3355.5 124.857
3356.5 67.7143
3357.5 95.1429
3358.5 92.1429
3359.5 79
3360.5 59.1429
3361.5 64.8571
3362.5 44.5714
3363.5 54.8571
3364.5 101.571
3365.5 39.5714
3366.5 14.2857
3367.5 -22
3368.5 17.5714
3369.5 16.1429
3370.5 8.00001
3371.5 63.8571
3372.5 55.2857
3373.5 85.7143
3374.5 69.5714
3375.5 62.5714
3376.5 5.71429
3377.5 36.7143
3378.5 58.2857
3379.5 67.1429
3380.5 92.7143
3381.5 85.8571
3382.5 106
3383.5 112.429
3384.5 48.1429
3385.5 92.2857
3386.5 91
3387.5 112.714
3388.5 86.7143
3389.5 81.1429
3390.5 59
3391.5 56
3392.5 68.5714
3393.5 105.286
3394.5 74.1429
3395.5 69.2857
3396.5 70.8571
3397.5 80.1429
3398.5 59.4286
3399.5 91.4286
3400.5 69.4286
3401.5 49.8571
3402.5 81.4286
3403.5 88.5714
3404.5 18.4286
3405.5 90.4286
3406.5 60.5714
3407.5 58
3408.5 74.5714
3409.5 55.2857
3410.5 47.7143
3411.5 38.4286
3412.5 84
3413.5 57.7143
3414.5 90.8571
3415.5 18.7143
3416.5 85
3417.5 74.7143
3418.5 49.8571
3419.5 84.4286
3420.5 64.1429
3421.5 61
3422.5 63.5714
3423.5 89.7143
3424.5 111.857
3425.5 88
3426.5 72.1429
3427.5 99.8572
3428.5 81
3429.5 91.7143
3430.5 51
3431.5 95.1429
3432.5 56.5714
3433.5 70.2857
3434.5 93.8571
3435.5 55.5714
3436.5 114.571
3437.5 75.2857
3438.5 62.5714
3439.5 39.8571
3440.5 69.1429
3441.5 56.5714
3442.5 99
3443.5 66.4286
3444.5 63.5714
3445.5 73.4286
3446.5 78.5714
3447.5 70.2857
3448.5 67
3449.5 83.1429
3450.5 101.286
3451.5 74.8571
3452.5 66.4286
3453.5 80.2857
3454.5 61.4286
3455.5 63
3456.5 27.8571
3457.5 71.2857
3458.5 60.5714
3459.5 95.8571
3460.5 42.7143
3461.5 91.8571
3462.5 55.7143
3463.5 96.5714
3464.5 33.1429
3465.5 58.1429
3466.5 28.2857
3467.5 70.5714
3468.5 43.7143
3469.5 47.4286
3470.5 82.8571
3471.5 59.1429
3472.5 82.8571
3473.5 79.5714
3474.5 65.8571
3475.5 22
3476.5 81.1429
3477.5 62.5714
3478.5 56.8571
3479.5 107.714
3480.5 70.4286
3481.5 72.2857
3482.5 71.7143
3483.5 91.2857
3484.5 68.8571
3485.5 126.429
3486.5 77.7143
3487.5 119.571
3488.5 88.7143
3489.5 40.1429
3490.5 88.7143
3491.5 20.2857
3492.5 92.1429
3493.5 60.7143
3494.5 36.4286
3495.5 24.2857
3496.5 54.5714
3497.5 30.8571
3498.5 74.4286
3499.5 58.2857
3500.5 39
3501.5 77.8571
3502.5 81
3503.5 71.5714
3504.5 45.2857
3505.5 59.2857
3506.5 39
3507.5 115.286
3508.5 51.8571
3509.5 70.2857
3510.5 74.5714
3511.5 61.8571
3512.5 79.1429
3513.5 80.5714
3514.5 56
3515.5 69.1429
3516.5 82.1429
3517.5 41.5714
3518.5 74
3519.5 76.8571
3520.5 47
3521.5 10.1429
3522.5 110.857
3523.5 70.1429
3524.5 86.1429
3525.5 125.286
3526.5 92
3527.5 73.5714
3528.5 64.7143
3529.5 50.1429
3530.5 99.8571
3531.5 127.714
3532.5 107.286
3533.5 76.2857
3534.5 47.2857
3535.5 78
3536.5 34.8571
3537.5 34.2857
3538.5 41.2857
3539.5 31.2857
3540.5 54.8571
3541.5 59
3542.5 59.1429
3543.5 62.5714
3544.5 139
3545.5 74.5714
3546.5 74.2857
3547.5 62.1429
3548.5 87.4286
3549.5 66.2857
3550.5 85
3551.5 85.1429
3552.5 54.8571
3553.5 57.7143
3554.5 42.2857
3555.5 76.7143
3556.5 56.7143
3557.5 39
3558.5 51.2857
3559.5 55.8571
3560.5 69.4286
3561.5 75.1429
3562.5 76.4286
3563.5 77.8571
3564.5 50.1429
3565.5 88.5714
3566.5 82.8571
3567.5 24.5714
3568.5 46.5714
3569.5 46.8571
3570.5 61
3571.5 55.1429
3572.5 69.7143
3573.5 73.1429
3574.5 81.8571
3575.5 66
3576.5 105
3577.5 86
3578.5 104.571
3579.5 77.1429
3580.5 88.5714
3581.5 87.5714
3582.5 95.8571
3583.5 44
3584.5 85.1429
3585.5 29.8571
3586.5 68
3587.5 91.4286
3588.5 63.2857
3589.5 73.4286
3590.5 77.1429
3591.5 40.1429
3592.5 52.8571
3593.5 89.5714
3594.5 80.1429
3595.5 72.7143
3596.5 65.4286
3597.5 14.7143
3598.5 42.8571
3599.5 67.2857
3600.5 47.1429
3601.5 88.7143
3602.5 69.8571
3603.5 89.5714
3604.5 86.1429
3605.5 95.7143
3606.5 59
3607.5 72.5714
3608.5 65.2857
3609.5 82.1429
3610.5 52.5714
3611.5 53.7143
3612.5 90.5714
3613.5 91.8571
3614.5 47.8571
3615.5 58
3616.5 20.8571
3617.5 19.1429
3618.5 -68.1428
3619.5 -150.571
3620.5 -204
3621.5 -357.429
3622.5 -321.143
3623.5 -189.286
3624.5 -21.4286
3625.5 -4.57142
3626.5 63.1429
3627.5 35
3628.5 35.8571
3629.5 33
3630.5 60.8571
3631.5 60
3632.5 105.857
3633.5 93.4286
3634.5 93.2857
3635.5 100.429
3636.5 121.714
3637.5 72.7143
3638.5 113.286
3639.5 85.8571
3640.5 75.1429
3641.5 71.2857
3642.5 57.1429
3643.5 67.2857
3644.5 111.286
3645.5 65.7143
3646.5 57.4286
3647.5 77.2857
3648.5 55
3649.5 61.7143
3650.5 47.1429
3651.5 72.8571
3652.5 52.7143
3653.5 79.4286
3654.5 70.5714
3655.5 57.1429
3656.5 93.7143
3657.5 95.2857
3658.5 72.1429
3659.5 75
3660.5 78.7143
3661.5 101.429
3662.5 91.2857
3663.5 57.2857
3664.5 36.1429
3665.5 86.7143
3666.5 62
3667.5 25.8571
3668.5 16.2857
3669.5 116.143
3670.5 79.5714
3671.5 80.2857
3672.5 119.286
3673.5 99.8571
3674.5 122.714
3675.5 45.2857
3676.5 47.7143
3677.5 53.2857
3678.5 81.2857
3679.5 69
3680.5 56
3681.5 64.2857
3682.5 66.4286
3683.5 67.5714
3684.5 78.7143
3685.5 53.5714
3686.5 86.2857
3687.5 79.2857
3688.5 106
3689.5 32.2857
3690.5 61.8571
3691.5 65.7143
3692.5 67.1429
3693.5 34.2857
3694.5 61.4286
3695.5 99.4286
3696.5 56.1429
3697.5 54.4286
3698.5 86.7143
3699.5 62.8571
3700.5 32.4286
3701.5 81.2857
3702.5 82.5714
3703.5 83.5714
3704.5 69.4286
3705.5 81.2857
3706.5 81.4286
3707.5 51.7143
3708.5 52.1429
3709.5 61.8571
3710.5 65.7143
3711.5 46.7143
3712.5 54.7143
3713.5 31.4286
3714.5 65.5714
3715.5 67.5714
3716.5 77.1429
3717.5 94
3718.5 55.5714
3719.5 68.7143
3720.5 91
3721.5 109.857
3722.5 135.714
3723.5 151.857
3724.5 100.429
3725.5 103.857
3726.5 60.7143
3727.5 92.1429
3728.5 89.5714
3729.5 73.1429
3730.5 75.1429
3731.5 91.7143
3732.5 71.8571
3733.5 90.4286
3734.5 99
3735.5 93.4286
3736.5 51.2857
3737.5 45.7143
3738.5 62.2857
3739.5 35.1429
3740.5 57.5714
3741.5 60.5714
3742.5 76.2857
3743.5 59.4286
3744.5 42.8571
3745.5 4.42858
3746.5 38.7143
3747.5 35.2857
3748.5 -14
3749.5 10.2857
3750.5 53.2857
3751.5 49.5714
3752.5 44.4286
3753.5 37.4286
3754.5 45.7143
3755.5 65
3756.5 33.8571
3757.5 76.2857
3758.5 76.7143
3759.5 67.7143
3760.5 61.2857
3761.5 88.4286
3762.5 47.4286
3763.5 83.8571
3764.5 51.4286
3765.5 51.8571
3766.5 79.5714
3767.5 51
3768.5 70.1429
3769.5 89.2857
3770.5 75.8571
3771.5 126.714
3772.5 92.8571
3773.5 129
3774.5 162.429
3775.5 167
3776.5 113.714
3777.5 89.8571
3778.5 66
3779.5 89.2857
3780.5 84
3781.5 51.4286
3782.5 69.5714
3783.5 63.7143
3784.5 62.8571
3785.5 51.4286
3786.5 57.4286
3787.5 66
3788.5 38.8571
3789.5 72
3790.5 39.4286
3791.5 62
3792.5 72.5714
3793.5 47.4286
3794.5 53.2857
3795.5 59.8571
3796.5 55.8571
3797.5 47.5714
3798.5 53.7143
3799.5 75
3800.5 44.2857
3801.5 54.8571
3802.5 56.1429
3803.5 50.2857
3804.5 57.8571
3805.5 106.429
3806.5 94.1429
3807.5 137.571
3808.5 106.429
3809.5 115.571
3810.5 45.8571
3811.5 86.8571
3812.5 64
3813.5 56.2857
3814.5 64.5714
3815.5 59.5714
3816.5 39.2857
3817.5 73.7143
3818.5 42
3819.5 69.1429
3820.5 49.7143
3821.5 76.4286
3822.5 48
3823.5 82
3824.5 76.7143
3825.5 49.8571
3826.5 85.4286
3827.5 54.8571
3828.5 3.42858
3829.5 65.8571
3830.5 59
3831.5 88.5714
3832.5 66.4286
3833.5 81
3834.5 73.1429
3835.5 81.2857
3836.5 62.5714
3837.5 65.2857
3838.5 36.5714
3839.5 56.2857
3840.5 48.2857
3841.5 37.5714
3842.5 55
3843.5 55
3844.5 38.4286
3845.5 3.57143
3846.5 32.8571
3847.5 97.2857
3848.5 65.7143
3849.5 76.8571
3850.5 65.4286
3851.5 89.4286
3852.5 54.8571
3853.5 46.7143
3854.5 58
3855.5 45.8571
3856.5 71
3857.5 63.2857
3858.5 69.5714
3859.5 123.429
3860.5 87.8571
3861.5 142
3862.5 125.429
3863.5 103.143
3864.5 93.2857
3865.5 108
3866.5 53.7143
3867.5 77.1429
3868.5 86.5714
3869.5 135.571
3870.5 122.429
3871.5 89.8571
3872.5 96.4286
3873.5 114.857
3874.5 139.857
3875.5 142
3876.5 170
3877.5 86
3878.5 68.7143
3879.5 79.8571
3880.5 25.4286
3881.5 46.1429
3882.5 80.2857
3883.5 36.2857
3884.5 59.8571
3885.5 66.4286
3886.5 66.5714
3887.5 91.2857
3888.5 75.4286
3889.5 92.4286
3890.5 33.5714
3891.5 72.1429
3892.5 20.2857
3893.5 8.42858
3894.5 56.4286
3895.5 39.7143
3896.5 35.8571
3897.5 56.1429
3898.5 66
3899.5 89.8571
3900.5 119.286
3901.5 159.571
3902.5 173.857
3903.5 125.143
3904.5 71
3905.5 86.7143
3906.5 87.8571
3907.5 42.2857
3908.5 73.8571
3909.5 46.2857
3910.5 80
3911.5 109.143
3912.5 15.1429
3913.5 44
3914.5 59.5714
3915.5 41.8571
3916.5 48.8571
3917.5 45.4286
3918.5 59.7143
3919.5 45.4286
3920.5 69.8571
3921.5 86.2857
3922.5 26.8571
3923.5 60.4286
3924.5 37.8571
3925.5 64
3926.5 75.2857
3927.5 65.1429
3928.5 43
3929.5 67.5714
3930.5 60.5714
3931.5 77.5714
3932.5 25.1429
3933.5 40.1429
3934.5 43.1429
3935.5 31.4286
3936.5 9.57143
3937.5 63.8571
3938.5 54
3939.5 44
3940.5 82
3941.5 64.2857
3942.5 44.8571
3943.5 69.1429
3944.5 105.286
3945.5 125.714
3946.5 114.857
3947.5 133.857
3948.5 75.7143
3949.5 72.7143
3950.5 83.4286
3951.5 14.2857
3952.5 74.2857
3953.5 103
3954.5 105.714
3955.5 99.4286
3956.5 134.429
3957.5 83.8571
3958.5 99.5714
3959.5 50.8571
3960.5 43
3961.5 59.5714
3962.5 64
3963.5 27.8571
3964.5 52.2857
3965.5 51.4286
3966.5 81.2857
3967.5 76.7143
3968.5 137.714
3969.5 76.8571
3970.5 134.571
3971.5 140.143
3972.5 100.714
3973.5 140.429
3974.5 111.714
3975.5 88.5714
3976.5 69.4286
3977.5 96.7143
3978.5 60.5714
3979.5 25
3980.5 47.5714
3981.5 56.5714
3982.5 74.7143
3983.5 32.7143
3984.5 49.7143
3985.5 62.4286
3986.5 42.1429
3987.5 62.1429
3988.5 63.7143
3989.5 72.2857
3990.5 37.5714
3991.5 57.8571
3992.5 62.8571
3993.5 90.8571
3994.5 103.857
3995.5 86
3996.5 107.571
3997.5 103.571
3998.5 68.8571
3999.5 48.4286
4000.5 90.2857
4001.5 57.2857
4002.5 61.8571
4003.5 42.7143
4004.5 60
4005.5 68.5714
4006.5 55.8571
4007.5 42
4008.5 74.4286
4009.5 35.8571
4010.5 4.14286
4011.5 61.4286
4012.5 32
4013.5 51.8571
4014.5 30.1429
4015.5 78.4286
4016.5 55.7143
4017.5 32.5714
4018.5 96.8571
4019.5 59.4286
4020.5 47
4021.5 71.8571
4022.5 64.4286
4023.5 60.1429
4024.5 47
4025.5 74.7143
4026.5 61.4286
4027.5 65.4286
4028.5 48.4286
4029.5 77.7143
4030.5 72
4031.5 95.7143
4032.5 80.1429
4033.5 58
4034.5 48.5714
4035.5 98.2857
4036.5 37.1429
4037.5 54.2857
4038.5 73.7143
4039.5 58.2857
4040.5 63.5714
4041.5 68.8571
4042.5 54.5714
4043.5 73.8571
4044.5 87.7143
4045.5 83
4046.5 63.7143
4047.5 51.7143
4048.5 50.5714
4049.5 19.2857
4050.5 22.1429
4051.5 28.5714
4052.5 5.85715
4053.5 24.5714
4054.5 71.4286
4055.5 63.7143
4056.5 68.2857
4057.5 65.4286
4058.5 98.2857
4059.5 107.571
4060.5 77.2857
4061.5 93.8571
4062.5 119.714
4063.5 89.2857
4064.5 62
4065.5 60.1429
4066.5 69.4286
4067.5 76.2857
4068.5 63.1429
4069.5 87.4286
4070.5 36.1429
4071.5 52.5714
4072.5 43.5714
4073.5 60.8571
4074.5 54.8571
4075.5 110.571
4076.5 72.2857
4077.5 36.2857
4078.5 53.7143
4079.5 76
4080.5 43.7143
4081.5 74.2857
4082.5 32.2857
4083.5 36.4286
4084.5 86.8571
4085.5 50.8571
4086.5 44.8571
4087.5 103.857
4088.5 112.571
4089.5 198.286
4090.5 154.857
4091.5 137.286
4092.5 107.714
4093.5 107.714
4094.5 115.143
4095.5 105.429
4096.5 90.5714
4097.5 85.7143
4098.5 54
4099.5 81.4286
4100.5 40.8571
4101.5 72.8571
4102.5 75.5714
4103.5 67.5714
4104.5 34.7143
4105.5 53.8571
4106.5 23.1429
4107.5 49.2857
4108.5 65.4286
4109.5 39.2857
4110.5 68.8571
4111.5 58.8571
4112.5 57.4286
4113.5 77.5714
4114.5 77.1429
4115.5 69.7143
4116.5 50.5714
4117.5 46.1429
4118.5 40.7143
4119.5 56.2857
4120.5 40
4121.5 71.8571
4122.5 92.8571
4123.5 58.8571
4124.5 80.4286
4125.5 58.7143
4126.5 55.4286
4127.5 32
4128.5 35.2857
4129.5 58.7143
4130.5 68.8571
4131.5 101.143
4132.5 83.7143
4133.5 36.5714
4134.5 32.7143
4135.5 40.5714
4136.5 70
4137.5 34.2857
4138.5 17.5714
4139.5 29.8571
4140.5 16
4141.5 86
4142.5 60
4143.5 34.1429
4144.5 71.1429
4145.5 58.5714
4146.5 77.4286
4147.5 53.5714
4148.5 71.7143
4149.5 69
4150.5 106.571
4151.5 42.2857
4152.5 70.4286
4153.5 59
4154.5 59.1429
4155.5 71.8571
4156.5 42.8571
4157.5 44.1429
4158.5 96
4159.5 64.5714
4160.5 51.2857
4161.5 55.7143
4162.5 94.8571
4163.5 73.7143
4164.5 59
4165.5 74.8571
4166.5 61.5714
4167.5 49.5714
4168.5 79.4286
4169.5 70.8571
4170.5 90
4171.5 56
4172.5 59.5714
4173.5 82.1429
4174.5 66.5714
4175.5 80.5714
4176.5 41.7143
4177.5 86.4286
4178.5 55.2857
4179.5 47.2857
4180.5 55.2857
4181.5 69.7143
4182.5 59.5714
4183.5 54
4184.5 49.5714
4185.5 28.5714
4186.5 51.8571
4187.5 56.2857
4188.5 50.4286
4189.5 37
4190.5 45.1429
4191.5 73.5714
4192.5 59.4286
4193.5 70.4286
4194.5 61.2857
4195.5 58.2857
4196.5 63.2857
4197.5 53.7143
4198.5 40.4286
4199.5 76.7143
4200.5 57.7143
4201.5 68.5714
4202.5 67.2857
4203.5 40.2857
4204.5 71.2857
4205.5 42.5714
4206.5 71
4207.5 87.7143
4208.5 68.5714
4209.5 22.1429
4210.5 25.8571
4211.5 17.5714
4212.5 48.2857
4213.5 43.5714
4214.5 68.1429
4215.5 94
4216.5 42.7143
4217.5 90
4218.5 47.7143
4219.5 95.1429
4220.5 64.1429
4221.5 80.4286
4222.5 28.1429
4223.5 61.4286
4224.5 86
4225.5 35.4286
4226.5 86.8571
4227.5 80.8571
4228.5 60.5714
4229.5 82.4286
4230.5 78.4286
4231.5 77.7143
4232.5 50.7143
4233.5 51.8571
4234.5 79.8571
4235.5 50.1429
4236.5 61.4286
4237.5 67.1429
4238.5 58.1429
4239.5 52.4286
4240.5 45.4286
4241.5 104.143
4242.5 52.4286
4243.5 77.4286
4244.5 55.1429
4245.5 52
4246.5 53.1429
4247.5 40.5714
4248.5 42.1429
4249.5 64.1429
4250.5 34.2857
4251.5 53.4286
4252.5 71.4286
4253.5 69.2857
4254.5 48.8571
4255.5 83.2857
4256.5 99.1429
4257.5 100.714
4258.5 69.1429
4259.5 91
4260.5 90.1429
4261.5 52.7143
4262.5 91.8571
4263.5 97.1429
4264.5 72.7143
4265.5 67.2857
4266.5 66.2857
4267.5 65.4286
4268.5 72.2857
4269.5 64.2857
4270.5 62.7143
4271.5 77.2857
4272.5 66
4273.5 97.7143
4274.5 117.429
4275.5 120.857
4276.5 75.7143
4277.5 56.4286
4278.5 80.4286
4279.5 68.8571
4280.5 96.4286
4281.5 66.7143
4282.5 74.5714
4283.5 83.1429
4284.5 54.1429
4285.5 53.2857
4286.5 76.8571
4287.5 55
4288.5 58.2857
4289.5 41.5714
4290.5 70.1429
4291.5 80.1429
4292.5 43.5714
4293.5 50.2857
4294.5 49.7143
4295.5 66.1429
4296.5 40
4297.5 52.7143
4298.5 8.28572
4299.5 75.4286
4300.5 34.2857
4301.5 58.4286
4302.5 50.4286
4303.5 42.2857
4304.5 24.8571
4305.5 63
4306.5 28.5714
4307.5 64.7143
4308.5 72.1429
4309.5 80.4286
4310.5 48.4286
4311.5 73.1429
4312.5 91.5714
4313.5 45.8571
4314.5 61.8571
4315.5 60.8571
4316.5 92.2857
4317.5 82.1429
4318.5 44.4286
4319.5 52.2857
4320.5 71.8571
4321.5 53
4322.5 97.5714
4323.5 43.8571
4324.5 43.2857
4325.5 47.1429
4326.5 59.2857
4327.5 67.5714
4328.5 55.4286
4329.5 62.4286
4330.5 56.5714
4331.5 73
4332.5 49.5714
4333.5 17
4334.5 76.5714
4335.5 52.2857
4336.5 55.1429
4337.5 24.8571
4338.5 44.5714
4339.5 78.5714
4340.5 60.1429
4341.5 51.2857
4342.5 58.8571
4343.5 74.7143
4344.5 69.1429
4345.5 68.7143
4346.5 41.7143
4347.5 70.1429
4348.5 71.7143
4349.5 40.4286
4350.5 47.8571
4351.5 52.7143
4352.5 48.4286
4353.5 64.5714
4354.5 62.8571
4355.5 41
4356.5 61
4357.5 85
4358.5 67.1429
4359.5 89
4360.5 101.571
4361.5 83.1429
4362.5 62.1429
4363.5 51.7143
4364.5 95.1429
4365.5 79.5714
4366.5 90.2857
4367.5 56.2857
4368.5 67
4369.5 55.7143
4370.5 59.1429
4371.5 44
4372.5 106.143
4373.5 64
4374.5 85.1429
4375.5 44
4376.5 44
4377.5 40.2857
4378.5 33.1429
4379.5 57.4286
4380.5 70.1429
4381.5 50
4382.5 82
4383.5 92.7143
4384.5 31
4385.5 44.2857
4386.5 61.5714
4387.5 67.7143
4388.5 77.1429
4389.5 79.5714
4390.5 80.5714
4391.5 75.1429
4392.5 63
4393.5 46.2857
4394.5 65
4395.5 50.4286
4396.5 48.2857
4397.5 47
4398.5 37
4399.5 81.5714
4400.5 72
4401.5 64
4402.5 85.1429
4403.5 55.1429
4404.5 38.1429
4405.5 70.7143
4406.5 65.4286
4407.5 41.2857
4408.5 47
4409.5 58.5714
4410.5 43.8571
4411.5 64.7143
4412.5 64.7143
4413.5 75.8571
4414.5 67.2857
4415.5 112
4416.5 72.4286
4417.5 70.8571
4418.5 80.5714
4419.5 61.4286
4420.5 73
4421.5 74.2857
4422.5 65
4423.5 29.1429
4424.5 39.8571
4425.5 56.5714
4426.5 70.8571
4427.5 37.2857
4428.5 60
4429.5 52.2857
4430.5 77
4431.5 69.5714
4432.5 79.1429
4433.5 75.4286
4434.5 72.8571
4435.5 80.2857
4436.5 76
4437.5 50.4286
4438.5 47.8571
4439.5 62.1429
4440.5 28.2857
4441.5 54.1429
4442.5 68.5714
4443.5 79.1429
4444.5 37.2857
4445.5 38.5714
4446.5 53
4447.5 77.1429
4448.5 56.4286
4449.5 52.2857
4450.5 66.4286
4451.5 50.1429
4452.5 72.4286
4453.5 50
4454.5 132.286
4455.5 157.286
4456.5 285
4457.5 294.429
4458.5 318.571
4459.5 173.429
4460.5 147.286
4461.5 93.7143
4462.5 42.2857
4463.5 69.5714
4464.5 84.8571
4465.5 99.5714
4466.5 110.857
4467.5 157.714
4468.5 168.143
4469.5 108.143
4470.5 99.2857
4471.5 55.1429
4472.5 22.4286
4473.5 22.7143
4474.5 47.5714
4475.5 44.7143
4476.5 50.4286
4477.5 56.2857
4478.5 52.1429
4479.5 56
4480.5 54.2857
4481.5 68.2857
4482.5 37
4483.5 66.7143
4484.5 84.2857
4485.5 67.1429
4486.5 72
4487.5 70.7143
4488.5 76.7143
4489.5 87.4286
4490.5 78.7143
4491.5 42
4492.5 70.2857
4493.5 69.8571
4494.5 42.4286
4495.5 34.2857
4496.5 42.8571
4497.5 84.8571
4498.5 50
4499.5 42.5714
4500.5 51.7143
4501.5 62.8571
4502.5 59.1429
4503.5 64.1429
4504.5 104.857
4505.5 63.2857
4506.5 65.8571
4507.5 93.7143
4508.5 74.1429
4509.5 42.4286
4510.5 55.7143
4511.5 45
4512.5 67.2857
4513.5 54.1429
4514.5 52.4286
4515.5 49
4516.5 47.1429
4517.5 97.2857
4518.5 67.4286
4519.5 51.4286
4520.5 73.5714
4521.5 56.5714
4522.5 38.2857
4523.5 66
4524.5 68
4525.5 52.7143
4526.5 54.2857
4527.5 48
4528.5 50.4286
4529.5 87.1429
4530.5 88.2857
4531.5 57.5714
4532.5 59.1429
4533.5 77.7143
4534.5 31.7143
4535.5 52.1429
4536.5 77.5714
4537.5 67.8571
4538.5 58.5714
4539.5 48.8571
4540.5 50.4286
4541.5 45
4542.5 58.2857
4543.5 68.7143
4544.5 69.8571
4545.5 26.1429
4546.5 56.4286
4547.5 78.5714
4548.5 39
4549.5 59.8571
4550.5 107.857
4551.5 78.8571
4552.5 78.2857
4553.5 75.5714
4554.5 40.5714
4555.5 48.5714
4556.5 21.7143
4557.5 25.7143
4558.5 44.2857
4559.5 71.2857
4560.5 57.2857
4561.5 2.14286
4562.5 112
4563.5 67.4286
4564.5 86.1429
4565.5 78.7143
4566.5 89.7143
4567.5 110.429
4568.5 108
4569.5 97.4286
4570.5 159.286
4571.5 177.714
4572.5 229
4573.5 198
4574.5 166.286
4575.5 98
4576.5 82
4577.5 67.1429
4578.5 99
4579.5 38.4286
4580.5 75.8571
4581.5 91.7143
4582.5 66.7143
4583.5 47.2857
4584.5 58.5714
4585.5 53.8571
4586.5 59.1429
4587.5 53.4286
4588.5 60.1429
4589.5 67.7143
4590.5 67
4591.5 52.8571
4592.5 15
4593.5 73.4286
4594.5 26.7143
4595.5 32.4286
4596.5 75
4597.5 48.5714
4598.5 87.8571
4599.5 100.429
4600.5 49.7143
4601.5 66.1429
4602.5 92.1429
4603.5 114
4604.5 122.857
4605.5 164.286
4606.5 122.714
4607.5 123.714
4608.5 78.7143
4609.5 90.1429
4610.5 61.7143
4611.5 66.1429
4612.5 60.8571
4613.5 33.5714
4614.5 93.4286
4615.5 72.1429
4616.5 88.2857
4617.5 78
4618.5 60.7143
4619.5 70.8571
4620.5 75.2857
4621.5 60.4286
4622.5 72.8571
4623.5 27.7143
4624.5 46.5714
4625.5 80.5714
4626.5 48.2857
4627.5 48.4286
4628.5 42.4286
4629.5 49.2857
4630.5 62.5714
4631.5 30.4286
4632.5 74
4633.5 46.8571
4634.5 36.1429
4635.5 39.7143
4636.5 58.8571
4637.5 57.2857
4638.5 49
4639.5 46.8571
4640.5 55.5714
4641.5 73
4642.5 63.5714
4643.5 40.8571
4644.5 49.5714
4645.5 30.4286
4646.5 42
4647.5 0.428576
4648.5 4.71429
4649.5 -72.8571
4650.5 -82
4651.5 -71.1429
4652.5 -50.5714
4653.5 25.5714
4654.5 46.4286
4655.5 54
4656.5 53.1429
4657.5 66.2857
4658.5 54.2857
4659.5 69.1429
4660.5 69.7143
4661.5 36.5714
4662.5 47.2857
4663.5 57.1429
4664.5 55.7143
4665.5 78.1429
4666.5 67.2857
4667.5 83.4286
4668.5 38.1429
4669.5 51.2857
4670.5 79.4286
4671.5 59.4286
4672.5 68
4673.5 23
4674.5 53.5714
4675.5 69.4286
4676.5 72.4286
4677.5 73.5714
4678.5 39.5714
4679.5 64
4680.5 40.5714
4681.5 66
4682.5 50.4286
4683.5 36.4286
4684.5 76.1429
4685.5 25.8571
4686.5 50.4286
4687.5 79.4286
4688.5 59
4689.5 51.1429
4690.5 20.5714
4691.5 56.4286
4692.5 58.5714
4693.5 51.4286
4694.5 87
4695.5 54.2857
4696.5 65.8571
4697.5 80.8571
4698.5 65
4699.5 47
4700.5 43.5714
4701.5 35.2857
4702.5 50
4703.5 59.2857
4704.5 41.7143
4705.5 58
4706.5 59.8571
4707.5 71
4708.5 73.7143
4709.5 57.1429
4710.5 56.8571
4711.5 91.2857
4712.5 62.2857
4713.5 43.5714
4714.5 67.1429
4715.5 63.5714
4716.5 34.2857
4717.5 52.7143
4718.5 74.1429
4719.5 77.4286
4720.5 60.5714
4721.5 46.5714
4722.5 61.8571
4723.5 80.7143
4724.5 80.2857
4725.5 94.7143
4726.5 76
4727.5 105.286
4728.5 122.714
4729.5 119.286
4730.5 76.2857
4731.5 82.8571
4732.5 72.8571
4733.5 75.5714
4734.5 93.2857
4735.5 61.5714
4736.5 62.5714
4737.5 61.4286
4738.5 75.5714
4739.5 72.4286
4740.5 20.5714
4741.5 78
4742.5 61.1429
4743.5 49
4744.5 69.8571
4745.5 89.7143
4746.5 45
4747.5 95.1429
4748.5 80.1429
4749.5 72.4286
4750.5 99.2857
4751.5 63.5714
4752.5 58.7143
4753.5 33.5714
4754.5 73
4755.5 71.4286
4756.5 43.7143
4757.5 83.8571
4758.5 61.4286
4759.5 76.2857
4760.5 73.2857
4761.5 74.2857
4762.5 80.4286
4763.5 39
4764.5 38.5714
4765.5 69
4766.5 77
4767.5 93.1429
4768.5 25.5714
4769.5 61.1429
4770.5 51.1429
4771.5 50.2857
4772.5 42.5714
4773.5 50.2857
4774.5 58.4286
4775.5 78.5714
4776.5 70.5714
4777.5 57.2857
4778.5 65.2857
4779.5 72.1429
4780.5 65.1429
4781.5 55.7143
4782.5 80.5714
4783.5 48
4784.5 45.5714
4785.5 45
4786.5 55.1429
4787.5 49.8571
4788.5 79.7143
4789.5 60.5714
4790.5 102.429
4791.5 59.4286
4792.5 99.8571
4793.5 58.8571
4794.5 69.8571
4795.5 65
4796.5 76.2857
4797.5 72.4286
4798.5 59.7143
4799.5 80.8571
4800.5 56.7143
4801.5 32.7143
4802.5 43.8571
4803.5 78.5714
4804.5 47.1429
4805.5 83.8571
4806.5 70.4286
4807.5 66.2857
4808.5 67.1429
4809.5 72
4810.5 72.7143
4811.5 65
4812.5 85.4286
4813.5 91.2857
4814.5 87.7143
4815.5 92.4286
4816.5 78.7143
4817.5 55.7143
4818.5 66.4286
4819.5 40
4820.5 52.1429
4821.5 58.1429
4822.5 74.5714
4823.5 74.4286
4824.5 53.1429
4825.5 59.2857
4826.5 32
4827.5 75.8571
4828.5 49.1429
4829.5 66.2857
4830.5 70.7143
4831.5 58.4286
4832.5 49.8571
4833.5 91.7143
4834.5 83.4286
4835.5 94.8571
4836.5 79.7143
4837.5 55.2857
4838.5 57.4286
4839.5 62.4286
4840.5 75.2857
4841.5 91.7143
4842.5 57.4286
4843.5 26.2857
4844.5 35.2857
4845.5 78.2857
4846.5 78.8571
4847.5 75.8571
4848.5 71.8571
4849.5 68.5714
4850.5 74.1429
4851.5 44.8571
4852.5 50.4286
4853.5 69.1429
4854.5 64.5714
4855.5 70.4286
4856.5 47.1429
4857.5 46
4858.5 69.1429
4859.5 60.8571
4860.5 50.5714
4861.5 73.4286
4862.5 48.1429
4863.5 65.2857
4864.5 58.5714
4865.5 60.1429
4866.5 59.1429
4867.5 43.2857
4868.5 71.8571
4869.5 76
4870.5 62.4286
4871.5 57
4872.5 74.2857
4873.5 59.1429
4874.5 39.1429
4875.5 97.5714
4876.5 48
4877.5 65.8571
4878.5 81.7143
4879.5 69.8571
4880.5 105.857
4881.5 69
4882.5 76.4286
4883.5 84.8571
4884.5 85.8571
4885.5 57.4286
4886.5 76.1429
4887.5 69.4286
4888.5 74
4889.5 47.1429
4890.5 54.8571
4891.5 66.5714
4892.5 68.1429
4893.5 83.5714
4894.5 74.2857
4895.5 70.2857
4896.5 91.1429
4897.5 70.4286
4898.5 65.8571
4899.5 53.5714
4900.5 88.1429
4901.5 67.5714
4902.5 76.1429
4903.5 79.5714
4904.5 90
4905.5 65
4906.5 58.8571
4907.5 59.7143
4908.5 31.4286
4909.5 64.7143
4910.5 64.5714
4911.5 71
4912.5 77.4286
4913.5 58.2857
4914.5 59
4915.5 83.5714
4916.5 55.8571
4917.5 52.7143
4918.5 93.1429
4919.5 73.5714
4920.5 76.7143
4921.5 103.429
4922.5 79.1429
4923.5 75.2857
4924.5 141.857
4925.5 125.429
4926.5 140.571
4927.5 121.857
4928.5 94
4929.5 80.7143
4930.5 67.1429
4931.5 107.429
4932.5 62.7143
4933.5 65.5714
4934.5 66.5714
4935.5 81.4286
4936.5 59
4937.5 71
4938.5 66.7143
4939.5 63.4286
4940.5 68.2857
4941.5 40.5714
4942.5 90.7143
4943.5 75.5714
4944.5 96.7143
4945.5 73.8571
4946.5 83.1429
4947.5 89
4948.5 91.4286
4949.5 52.5714
4950.5 47
4951.5 77.1429
4952.5 60.1429
4953.5 67.8571
4954.5 70.4286
4955.5 66.5714
4956.5 89.5714
4957.5 84.2857
4958.5 72.5714
4959.5 71.4286
4960.5 67
4961.5 43.7143
4962.5 75.1429
4963.5 76.1429
4964.5 76.4286
4965.5 75.5714
4966.5 76.5714
4967.5 71.4286
4968.5 71.4286
4969.5 66.5714
4970.5 132.714
4971.5 124.857
4972.5 172.429
4973.5 237.857
4974.5 312.429
4975.5 488.857
4976.5 693.286
4977.5 953.429
4978.5 1122.57
4979.5 943
4980.5 524.286
4981.5 258.286
4982.5 148
4983.5 51
4984.5 45.1429
4985.5 90.4286
4986.5 107.429
4987.5 99.8571
4988.5 112.714
4989.5 88
4990.5 109.857
4991.5 86.4286
4992.5 120.429
4993.5 79.1429
4994.5 149.286
4995.5 140.714
4996.5 129.571
4997.5 165.143
4998.5 146.286
4999.5 124.143
5000.5 160.143
5001.5 123.714
5002.5 173.857
5003.5 128
5004.5 141.714
5005.5 122.429
5006.5 88.7143
5007.5 102
5008.5 110.571
5009.5 76.2857
5010.5 72.1429
5011.5 68.2857
5012.5 93.4286
5013.5 103.143
5014.5 79.2857
5015.5 94.5714
5016.5 104.286
5017.5 75.5714
5018.5 88.8571
5019.5 103.714
5020.5 100
5021.5 87.2857
5022.5 90
5023.5 123.143
5024.5 119.143
5025.5 119.571
5026.5 130.429
5027.5 94
5028.5 85
5029.5 96.1429
5030.5 88
5031.5 108.429
5032.5 120.286
5033.5 88.7143
5034.5 74.8571
5035.5 129.714
5036.5 90.8571
5037.5 119.714
5038.5 140.571
5039.5 103.857
5040.5 117.857
5041.5 64.8571
5042.5 94.8571
5043.5 80.1429
5044.5 94.7143
5045.5 76.1429
5046.5 99.8571
5047.5 84.7143
5048.5 121.571
5049.5 107.143
5050.5 110.714
5051.5 121.571
5052.5 98.5714
5053.5 115.857
5054.5 109
5055.5 91.7143
5056.5 68.8571
5057.5 105.714
5058.5 117.286
5059.5 98.5714
5060.5 122.714
5061.5 100.714
5062.5 91.7143
5063.5 75.4286
5064.5 101.857
5065.5 101.857
5066.5 75.1429
5067.5 91.8571
5068.5 115.857
5069.5 110.714
5070.5 105.429
5071.5 84
5072.5 112.429
5073.5 110.714
5074.5 95.5714
5075.5 97.7143
5076.5 107.571
5077.5 104
5078.5 106
5079.5 122
5080.5 108.714
5081.5 117.857
5082.5 85.2857
5083.5 123.143
5084.5 102
5085.5 103.143
5086.5 117.571
5087.5 123.571
5088.5 100
5089.5 92.4286
5090.5 121
5091.5 100.571
5092.5 124.429
5093.5 92.8571
5094.5 93.2857
5095.5 105.714
5096.5 119.286
5097.5 116
5098.5 122
5099.5 113.571
5100.5 113.571
5101.5 111.571
5102.5 97.7143
5103.5 92.8571
5104.5 91.2857
5105.5 85.5714
5106.5 104
5107.5 90.2857
5108.5 85.8571
5109.5 88.1429
5110.5 98.8571
5111.5 107
5112.5 96.5714
5113.5 130.857
5114.5 151.714
5115.5 131.143
5116.5 177.143
5117.5 153.714
5118.5 133.143
5119.5 99.1429
5120.5 121.857
5121.5 111.143
5122.5 149.857
5123.5 101.571
5124.5 116.143
5125.5 107.143
5126.5 132.571
5127.5 103
5128.5 110.143
5129.5 114.571
5130.5 103
5131.5 100.143
5132.5 87.2857
5133.5 121.429
5134.5 84
5135.5 112.286
5136.5 93.7143
5137.5 119.571
5138.5 101
5139.5 103.143
5140.5 139.571
5141.5 114.857
5142.5 100.429
5143.5 126.429
5144.5 104
5145.5 97.7143
5146.5 124.286
5147.5 115.286
5148.5 117.429
5149.5 138
5150.5 115
5151.5 143.857
5152.5 121.429
5153.5 113.857
5154.5 100.714
5155.5 111.286
5156.5 118.857
5157.5 116
5158.5 116.286
5159.5 112.857
5160.5 108
5161.5 158.857
5162.5 133.571
5163.5 98.8571
5164.5 126.286
5165.5 92.1429
5166.5 123.857
5167.5 120.286
5168.5 127
5169.5 150.714
5170.5 129.571
5171.5 114.286
5172.5 109.714
5173.5 144.286
5174.5 128.857
5175.5 134.857
5176.5 128.571
5177.5 96.1429
5178.5 116.857
5179.5 122.429
5180.5 111.429
5181.5 108.857
5182.5 92.2857
5183.5 122.857
5184.5 132.143
5185.5 121.714
5186.5 123.571
5187.5 111
5188.5 130
5189.5 142.143
5190.5 127
5191.5 132
5192.5 101.714
5193.5 112.714
5194.5 123.714
5195.5 119
5196.5 91.8571
5197.5 134
5198.5 129.143
5199.5 122.714
5200.5 120.714
5201.5 99.8571
5202.5 93.7143
5203.5 91.5714
5204.5 98.7143
5205.5 92.7143
5206.5 128.286
5207.5 129.571
5208.5 99
5209.5 102.429
5210.5 99.5714
5211.5 121
5212.5 112
5213.5 149.286
5214.5 129.429
5215.5 140.714
5216.5 129.857
5217.5 128.714
5218.5 131
5219.5 152.286
5220.5 122.857
5221.5 125.429
5222.5 117.857
5223.5 144.429
5224.5 111.714
5225.5 136.286
5226.5 114.286
5227.5 115.286
5228.5 115.286
5229.5 113
5230.5 120.286
5231.5 147
5232.5 102.857
5233.5 128
5234.5 151.857
5235.5 188.286
5236.5 191.429
5237.5 231.714
5238.5 216
5239.5 240.286
5240.5 224.714
5241.5 218.857
5242.5 198.429
5243.5 181
5244.5 200
5245.5 175.857
5246.5 107.571
5247.5 155.429
5248.5 146.143
5249.5 143.571
5250.5 141
5251.5 144.571
5252.5 127.429
5253.5 99.5714
5254.5 114.429
5255.5 117.714
5256.5 136.429
5257.5 154.571
5258.5 120.714
5259.5 133.286
5260.5 132.286
5261.5 147
5262.5 99.2857
5263.5 137.857
5264.5 170.714
5265.5 147.857
5266.5 150.429
5267.5 127.714
5268.5 137.429
5269.5 174.286
5270.5 102.714
5271.5 121.429
5272.5 136.857
5273.5 142
5274.5 133.429
5275.5 146.143
5276.5 128.286
5277.5 166.143
5278.5 135.143
5279.5 137.714
5280.5 150.714
5281.5 148.286
5282.5 139.571
5283.5 155.571
5284.5 114.143
5285.5 161.714
5286.5 138.143
5287.5 130.143
5288.5 176
5289.5 157.143
5290.5 142.857
5291.5 138.714
5292.5 138.143
5293.5 133.286
5294.5 149
5295.5 147.857
5296.5 148.143
5297.5 183.143
5298.5 168.429
5299.5 139.714
5300.5 133.571
5301.5 162.286
5302.5 180.429
5303.5 154.143
5304.5 150.714
5305.5 153
5306.5 162
5307.5 142.286
5308.5 124.714
5309.5 149.571
5310.5 152.571
5311.5 130
5312.5 145.143
5313.5 172.571
5314.5 136.714
5315.5 123.571
5316.5 127.429
5317.5 117.143
5318.5 114.286
5319.5 153.286
5320.5 160
5321.5 139.857
5322.5 92.5714
5323.5 116.571
5324.5 116.286
5325.5 144.286
5326.5 125
5327.5 151.857
5328.5 110.571
5329.5 140.429
5330.5 122
5331.5 135.714
5332.5 126.714
5333.5 155.714
5334.5 141
5335.5 130.571
5336.5 156
5337.5 145.571
5338.5 120.571
5339.5 155
5340.5 91.7143
5341.5 124
5342.5 132.857
5343.5 123.143
5344.5 126.571
5345.5 120.143
5346.5 117.857
5347.5 149.429
5348.5 156.571
5349.5 139
5350.5 118.571
5351.5 134.857
5352.5 126.571
5353.5 138
5354.5 163.429
5355.5 96
5356.5 103.143
5357.5 148.143
5358.5 86.8571
5359.5 86.4286
5360.5 113
5361.5 155.143
5362.5 132.857
5363.5 105.143
5364.5 111.286
5365.5 99.7143
5366.5 119.143
5367.5 139.429
5368.5 114.143
5369.5 122.714
5370.5 118.571
5371.5 100
5372.5 160.143
5373.5 117.714
5374.5 110
5375.5 120.286
5376.5 106.429
5377.5 97.4286
5378.5 121.714
5379.5 102
5380.5 129.286
5381.5 110.286
5382.5 104.429
5383.5 128.714
5384.5 97.7143
5385.5 129.429
5386.5 113
5387.5 106.429
5388.5 110.571
5389.5 112
5390.5 167.571
5391.5 116.429
5392.5 147.571
5393.5 128
5394.5 172
5395.5 151
5396.5 86.2857
5397.5 105.429
5398.5 136.286
5399.5 125.143
5400.5 132.857
5401.5 117.143
5402.5 121.714
5403.5 102.571
5404.5 131
5405.5 104
5406.5 140.571
5407.5 95.5714
5408.5 136.714
5409.5 117.857
5410.5 99.1429
5411.5 120.714
5412.5 112
5413.5 116.714
5414.5 100.857
5415.5 113.571
5416.5 108.714
5417.5 120.143
5418.5 121.143
5419.5 120.143
5420.5 100.857
5421.5 110.143
5422.5 105.714
5423.5 119.571
5424.5 98.4286
5425.5 115.143
5426.5 109
5427.5 76.4286
5428.5 121.286
5429.5 104.429
5430.5 105.714
5431.5 116
5432.5 135.571
5433.5 109.429
5434.5 130.286
5435.5 100
5436.5 93.5714
5437.5 128
5438.5 104.143
5439.5 116.286
5440.5 125
5441.5 124
5442.5 98.7143
5443.5 113.429
5444.5 105.286
5445.5 112.286
5446.5 96.4286
5447.5 119.571
5448.5 90
5449.5 125.714
5450.5 121.429
5451.5 79.2857
5452.5 113.286
5453.5 121.571
5454.5 132.857
5455.5 86.2857
5456.5 100.143
5457.5 121.571
5458.5 86.7143
5459.5 117.143
5460.5 112.286
5461.5 101.429
5462.5 115
5463.5 99.5714
5464.5 125
5465.5 140.714
5466.5 113.714
5467.5 119.286
5468.5 95
5469.5 110.714
5470.5 94.1429
5471.5 112.571
5472.5 112.286
5473.5 105.714
5474.5 106.857
5475.5 142.571
5476.5 130.714
5477.5 110.571
5478.5 118.429
5479.5 170.429
5480.5 179.143
5481.5 217.857
5482.5 303.143
5483.5 535.857
5484.5 735.571
5485.5 1136.43
5486.5 1492.43
5487.5 2081.86
5488.5 2561.86
5489.5 2886.29
5490.5 2667.57
5491.5 1986.43
5492.5 1347.29
5493.5 718
5494.5 405.571
5495.5 291.143
5496.5 200.143
5497.5 201.429
5498.5 171
5499.5 172
5500.5 118.143
5501.5 144.714
5502.5 139
5503.5 133.857
5504.5 123.571
5505.5 148
5506.5 117.143
5507.5 148.857
5508.5 114.286
5509.5 122.286
5510.5 121.857
5511.5 137.857
5512.5 119.429
5513.5 154
5514.5 129.857
5515.5 125.143
5516.5 161.857
5517.5 106.571
5518.5 112.857
5519.5 132.714
5520.5 136.286
5521.5 142.429
5522.5 145
5523.5 146.571
5524.5 147
5525.5 165.429
5526.5 122.429
5527.5 131.571
5528.5 121.571
5529.5 130
5530.5 135.571
5531.5 130.286
5532.5 141.714
5533.5 142.286
5534.5 138
5535.5 140.286
5536.5 128.143
5537.5 156.143
5538.5 148.714
5539.5 118.429
5540.5 127.429
5541.5 143.714
5542.5 134.714
5543.5 116.429
5544.5 128.429
5545.5 119.286
5546.5 138.714
5547.5 120.714
5548.5 119.286
5549.5 125.857
5550.5 135.429
5551.5 150.143
5552.5 128.857
5553.5 142.714
5554.5 120
5555.5 117.857
5556.5 130.571
5557.5 154.714
5558.5 122.571
5559.5 140.714
5560.5 147.714
5561.5 141.286
5562.5 123.714
5563.5 138.714
5564.5 131.714
5565.5 137.143
5566.5 151.714
5567.5 124.857
5568.5 137.286
5569.5 137.429
5570.5 130.714
5571.5 132
5572.5 135.714
5573.5 99.8571
5574.5 106.143
5575.5 122.143
5576.5 137.714
5577.5 132.571
5578.5 150.571
5579.5 128.571
5580.5 132.571
5581.5 109.714
5582.5 134.714
5583.5 141.143
5584.5 161.571
5585.5 138.286
5586.5 136.857
5587.5 114.143
5588.5 138.857
5589.5 135.714
5590.5 143.286
5591.5 171.143
5592.5 147.714
5593.5 124.571
5594.5 165.714
5595.5 170.286
5596.5 145.857
5597.5 103.857
5598.5 100.429
5599.5 113.143
5600.5 131.571
5601.5 143.857
5602.5 130.286
5603.5 140.429
5604.5 140.714
5605.5 131.286
5606.5 109.429
5607.5 139.857
5608.5 139.143
5609.5 130.143
5610.5 107.429
5611.5 141.571
5612.5 122.571
5613.5 151
5614.5 142.714
5615.5 147.714
5616.5 116.571
5617.5 127.571
5618.5 134
5619.5 133.143
5620.5 127.286
5621.5 146.571
5622.5 164.857
5623.5 159.714
5624.5 147.714
5625.5 172.571
5626.5 129.143
5627.5 199.429
5628.5 234.857
5629.5 223.286
5630.5 209.286
5631.5 185.286
5632.5 181.571
5633.5 189
5634.5 157.429
5635.5 179.714
5636.5 129.286
5637.5 118.429
5638.5 163.429
5639.5 126.429
5640.5 129.286
5641.5 145.714
5642.5 145
5643.5 136.429
5644.5 148.429
5645.5 132.714
5646.5 103.857
5647.5 142.143
5648.5 123.571
5649.5 136.143
5650.5 154.429
5651.5 112.857
5652.5 140.286
5653.5 144.857
5654.5 129
5655.5 135.143
5656.5 167.857
5657.5 154.857
5658.5 153
5659.5 163.714
5660.5 132.429
5661.5 179.143
5662.5 159.429
5663.5 155
5664.5 156.714
5665.5 162.571
5666.5 114.571
5667.5 142.429
5668.5 155.714
5669.5 163.714
5670.5 181.286
5671.5 130
5672.5 155.429
5673.5 161.571
5674.5 108.571
5675.5 147.429
5676.5 149.714
5677.5 164.143
5678.5 162.714
5679.5 149
5680.5 162.143
5681.5 132.571
5682.5 150.143
5683.5 129.286
5684.5 158.714
5685.5 134.857
5686.5 156.714
5687.5 150.286
5688.5 131.714
5689.5 140.286
5690.5 130
5691.5 150.286
5692.5 140.857
5693.5 151
5694.5 142.429
5695.5 165.143
5696.5 133.857
5697.5 148.857
5698.5 111.571
5699.5 162
5700.5 119.571
5701.5 138
5702.5 151.571
5703.5 163.429
5704.5 140.571
5705.5 157.143
5706.5 159.286
5707.5 162.143
5708.5 146.429
5709.5 165.286
5710.5 153
5711.5 159.857
5712.5 153.571
5713.5 154
5714.5 124.286
5715.5 124.286
5716.5 127.429
5717.5 128
5718.5 144
5719.5 136.571
5720.5 145
5721.5 172.857
5722.5 167.857
5723.5 166.857
5724.5 168.857
5725.5 182.286
5726.5 169.571
5727.5 169
5728.5 172
5729.5 184
5730.5 204.143
5731.5 182.857
5732.5 249.714
5733.5 239
5734.5 243.286
5735.5 260.857
5736.5 220.286
5737.5 226.857
5738.5 185.286
5739.5 185.429
5740.5 160.714
5741.5 186.714
5742.5 164.143
5743.5 182.286
5744.5 179.571
5745.5 176.857
5746.5 175.286
5747.5 179.571
5748.5 159.286
5749.5 185.286
5750.5 153.429
5751.5 177
5752.5 182.286
5753.5 168.143
5754.5 184
5755.5 162.571
5756.5 154.143
5757.5 169.571
5758.5 159.429
5759.5 143.143
5760.5 160.429
5761.5 142.857
5762.5 132.143
5763.5 114.857
5764.5 160.714
5765.5 149.143
5766.5 121.286
5767.5 117
5768.5 182.143
5769.5 131.714
5770.5 133.857
5771.5 106.143
5772.5 149.143
5773.5 138.286
5774.5 143.714
5775.5 153.143
5776.5 145.286
5777.5 143
5778.5 120.571
5779.5 116.286
5780.5 125.571
5781.5 130.286
5782.5 151.714
5783.5 142.143
5784.5 125.857
5785.5 131
5786.5 161.714
5787.5 142.714
5788.5 144.714
5789.5 150.571
5790.5 159.714
5791.5 147.857
5792.5 136.429
5793.5 141.143
5794.5 119.143
5795.5 121.429
5796.5 127.286
5797.5 139
5798.5 126.429
5799.5 138.286
5800.5 117.143
5801.5 112.429
5802.5 128.286
5803.5 145
5804.5 134.857
5805.5 171
5806.5 171.143
5807.5 144.286
5808.5 143.286
5809.5 141.714
5810.5 129
5811.5 114.571
5812.5 136
5813.5 141.429
5814.5 146.429
5815.5 146.429
5816.5 161.429
5817.5 137.714
5818.5 104.143
5819.5 126.714
5820.5 133.286
5821.5 129.286
5822.5 112.571
5823.5 131.857
5824.5 119.429
5825.5 148.429
5826.5 130.857
5827.5 134.857
5828.5 123.143
5829.5 98.5714
5830.5 131.714
5831.5 120.857
5832.5 127.571
5833.5 118.857
5834.5 154.429
5835.5 92.1429
5836.5 125
5837.5 148.143
5838.5 131.571
5839.5 133.286
5840.5 91.4286
5841.5 94.1429
5842.5 135.714
5843.5 74.2857
5844.5 122.286
5845.5 120.571
5846.5 121.857
5847.5 112.857
5848.5 122.857
5849.5 137
5850.5 91.5714
5851.5 107.714
5852.5 111.143
5853.5 101.571
5854.5 132.857
5855.5 115.714
5856.5 122.286
5857.5 113.714
5858.5 107.571
5859.5 121.286
5860.5 107
5861.5 98.7143
5862.5 88.7143
5863.5 116.286
5864.5 105.286
5865.5 111.286
5866.5 79.1429
5867.5 90.7143
5868.5 83.8571
5869.5 109.714
5870.5 100.429
5871.5 78.8571
5872.5 111.714
5873.5 118.143
5874.5 89.5714
5875.5 75.1429
5876.5 72.4286
5877.5 96.8571
5878.5 82.4286
5879.5 102.429
5880.5 98.7143
5881.5 82.5714
5882.5 89.7143
5883.5 104.571
5884.5 67.5714
5885.5 76.2857
5886.5 89.2857
5887.5 83.5714
5888.5 74.8571
5889.5 80.8571
5890.5 108.286
5891.5 60.4286
5892.5 78
5893.5 99.2857
5894.5 63
5895.5 64.8571
5896.5 18.7143
5897.5 34.8571
5898.5 62.2857
5899.5 62.1429
5900.5 64.2857
5901.5 76.7143
5902.5 100
5903.5 79.5714
5904.5 87.4286
5905.5 75
5906.5 65.8571
5907.5 80.4286
5908.5 58.7143
5909.5 39.2857
5910.5 49.5714
5911.5 49.5714
5912.5 70.2857
5913.5 71.7143
5914.5 32
5915.5 46.7143
5916.5 33.8571
5917.5 54.1429
5918.5 42.4286
5919.5 63.7143
5920.5 69.5714
5921.5 49.5714
5922.5 66.2857
5923.5 60.7143
5924.5 45.5714
5925.5 62
5926.5 53.7143
5927.5 49
5928.5 52.8571
5929.5 45
5930.5 41.5714
5931.5 54.8571
5932.5 40.2857
5933.5 50.4286
5934.5 56.5714
5935.5 56
5936.5 58.1429
5937.5 67.5714
5938.5 39.7143
5939.5 47.8571
5940.5 46.2857
5941.5 44.8571
5942.5 60.4286
5943.5 34.7143
5944.5 45.2857
5945.5 57.8571
5946.5 54.4286
5947.5 47.8571
5948.5 56
5949.5 49.5714
5950.5 51
5951.5 39
5952.5 42.5714
5953.5 25.4286
5954.5 56.8571
5955.5 61.1429
5956.5 57.4286
5957.5 54.2857
5958.5 46
5959.5 55.5714
5960.5 68.8571
5961.5 58.1429
5962.5 54.7143
5963.5 47.4286
5964.5 51.2857
5965.5 41.8571
5966.5 41.1429
5967.5 62.4286
5968.5 80.8571
5969.5 45.4286
5970.5 34.2857
5971.5 55
5972.5 48.7143
5973.5 51
5974.5 69.7143
5975.5 50.7143
5976.5 40.1429
5977.5 47.4286
5978.5 39
5979.5 56
5980.5 64.1429
5981.5 51.4286
5982.5 47.1429
5983.5 61.8571
5984.5 41.8571
5985.5 54.8571
5986.5 76.5714
5987.5 71
5988.5 69.8571
5989.5 123.714
5990.5 105.286
5991.5 146.286
5992.5 241.571
5993.5 519.143
5994.5 805.143
5995.5 1325.29
5996.5 2208.29
5997.5 3253.57
5998.5 4569.14
5999.5 6133.29
6000.5 6988.71
6001.5 6497.14
6002.5 4971.57
6003.5 2886.43
6004.5 1434.86
6005.5 647.143
6006.5 370.143
6007.5 250
6008.5 216.429
6009.5 127.571
6010.5 78.4286
6011.5 65.1429
6012.5 57
6013.5 20.7143
6014.5 14.7143
6015.5 27.4286
6016.5 8.57143
6017.5 2.42857
6018.5 5.71429
6019.5 6.57143
6020.5 5.28571
6021.5 8
6022.5 9.85714
6023.5 12.7143
6024.5 11.7143
6025.5 -0.714285
6026.5 2
6027.5 2.28571
6028.5 -1.28571
6029.5 3
6030.5 9.14286
6031.5 15.2857
6032.5 8.71429
6033.5 1.57143
6034.5 33.1429
6035.5 -3
6036.5 4.14286
6037.5 16.8571
6038.5 6.42857
6039.5 10.8571
6040.5 10.4286
6041.5 -7
6042.5 16
6043.5 0.714286
6044.5 -1
6045.5 -3.28571
6046.5 7.14286
6047.5 4.85714
6048.5 11.7143
6049.5 -6.57143
6050.5 6.85714
6051.5 14.7143
6052.5 7.14286
6053.5 -0.428571
6054.5 2.42857
6055.5 3.42857
6056.5 5.14286
6057.5 3.28571
6058.5 2
6059.5 3
6060.5 0.285715
6061.5 -0.428571
6062.5 4.42857
6063.5 -0.999999
6064.5 6
6065.5 15.7143
6066.5 4.42857
6067.5 0.857144
6068.5 1.71429
6069.5 6.28571
6070.5 -2.57143
6071.5 13
6072.5 13.4286
6073.5 4.85714
6074.5 6.14286
6075.5 4.28571
6076.5 -5.14286
6077.5 -1.57143
6078.5 1.71429
6079.5 -5.28571
6080.5 -0.714285
6081.5 2.71429
6082.5 8.42857
6083.5 17.5714
6084.5 11
6085.5 9.57143
6086.5 -0.428571
6087.5 -11.8571
6088.5 3.42857
6089.5 1.42857
6090.5 1.14286
6091.5 12.4286
6092.5 -7
6093.5 2.42857
6094.5 9.14286
6095.5 -0.285714
6096.5 -2.28571
6097.5 16.1429
6098.5 27.8571
6099.5 37.1429
6100.5 15.5714
6101.5 50
6102.5 59.7143
6103.5 102.286
6104.5 81.4286
6105.5 72.7143
6106.5 32.4286
6107.5 43.5714
6108.5 21.8571
6109.5 14
6110.5 12.4286
6111.5 7.71429
6112.5 14.5714
6113.5 10.4286
6114.5 -15.4286
6115.5 14
6116.5 -4.71428
6117.5 -5
6118.5 0.571429
6119.5 26.7143
6120.5 8.42857
6121.5 6.57143
6122.5 5.85714
6123.5 9.42857
6124.5 8
6125.5 2.14286
6126.5 29.4286
6127.5 1.14286
6128.5 1.85714
6129.5 -1.71429
6130.5 15.7143
6131.5 -0.571428
6132.5 6.28571
6133.5 6
6134.5 5
6135.5 21.8571
6136.5 23.4286
6137.5 -10.4286
6138.5 -4.71428
6139.5 17.8571
6140.5 -14.5714
6141.5 12.1429
6142.5 8.71429
6143.5 -8
6144.5 16.5714
6145.5 9.14286
6146.5 1.57143
6147.5 7.57143
6148.5 14.7143
6149.5 -0.857142
6150.5 19.7143
6151.5 1
6152.5 12.1429
6153.5 10.8571
6154.5 -5.28571
6155.5 6.85714
6156.5 1.14286
6157.5 5.42857
6158.5 0.142858
6159.5 17.4286
6160.5 -4.71429
6161.5 1.42857
6162.5 3.28571
6163.5 -1.42857
6164.5 11.8571
6165.5 -4
6166.5 11.7143
6167.5 8.85714
6168.5 8.85714
6169.5 6.14286
6170.5 14.5714
6171.5 3
6172.5 5.28571
6173.5 4.14286
6174.5 9.71429
6175.5 -2.85714
6176.5 -6.42857
6177.5 5
6178.5 11.4286
6179.5 9.57143
6180.5 0.428572
6181.5 6.14286
6182.5 10.1429
6183.5 -1.28571
6184.5 21.2857
6185.5 3.14286
6186.5 -2.71429
6187.5 11.7143
6188.5 -2.57143
6189.5 4.28571
6190.5 2.14286
6191.5 4.28571
6192.5 5.14286
6193.5 5.14286
6194.5 22.2857
6195.5 2.85714
6196.5 0.571429
6197.5 -9.28571
6198.5 8.28571
6199.5 10.8571
6200.5 5.85714
6201.5 1.57143
6202.5 10.2857
6203.5 11.8571
6204.5 4.28571
6205.5 -5.28571
6206.5 2.71429
6207.5 9
6208.5 9.71429
6209.5 -9.42857
6210.5 0.571429
6211.5 10
6212.5 10.8571
6213.5 5.14286
6214.5 4.14286
6215.5 9.71429
6216.5 15
6217.5 -6.42857
6218.5 6.85714
6219.5 12.1429
6220.5 5.71429
6221.5 3.57143
6222.5 17.5714
6223.5 12.4286
6224.5 12.1429
6225.5 1.42857
6226.5 -8.28571
6227.5 22.4286
6228.5 1.71429
6229.5 2.85714
6230.5 10.4286
6231.5 15.7143
6232.5 7
6233.5 -1.42857
6234.5 10.1429
6235.5 22.2857
6236.5 15.4286
6237.5 8.14286
6238.5 3.57628e-07
6239.5 5.14286
6240.5 10.8571
6241.5 2.85714
6242.5 7.57143
6243.5 0.142858
6244.5 -0.714285
6245.5 2.71429
6246.5 11.7143
6247.5 7.71429
6248.5 -5.28571
6249.5 10
6250.5 8.28571
6251.5 0.428572
6252.5 8.14286
6253.5 15.7143
6254.5 8.71429
6255.5 4.28571
6256.5 0.285715
6257.5 -10.7143
6258.5 5.71429
6259.5 0.142858
6260.5 -1.14286
6261.5 1.85714
6262.5 6
6263.5 1.85714
6264.5 -2.57143
6265.5 -7.28571
6266.5 6.85714
6267.5 -1.71429
6268.5 -4.85714
6269.5 2.57143
6270.5 -0.857142
6271.5 -2.42857
6272.5 11.5714
6273.5 9.85714
6274.5 10.7143
6275.5 7
6276.5 7
6277.5 -4.85714
6278.5 5.85714
6279.5 -1.14286
6280.5 16.8571
6281.5 15.5714
6282.5 11.4286
6283.5 -9.28571
6284.5 -4.42857
6285.5 9.57143
6286.5 10.7143
6287.5 9.57143
6288.5 -4.28571
6289.5 -6.28571
6290.5 5.42857
6291.5 6
6292.5 -2.71429
6293.5 1
6294.5 11.5714
6295.5 2.85714
6296.5 6.85714
6297.5 0.142858
6298.5 -0.571428
6299.5 10.7143
6300.5 7.57143
6301.5 8.71429
6302.5 -1.85714
6303.5 -2.71429
6304.5 10.8571
6305.5 -6.57143
6306.5 10.7143
6307.5 1.14286
6308.5 6.57143
6309.5 7.85714
6310.5 -1
6311.5 1.71429
6312.5 10.8571
6313.5 12.7143
6314.5 7.85714
6315.5 1.85714
6316.5 -0.142857
6317.5 5.57143
6318.5 -5.42857
6319.5 4.85714
6320.5 10
6321.5 4.28571
6322.5 0.428572
6323.5 5.71429
6324.5 -7.57143
6325.5 0.285715
6326.5 -26.1429
6327.5 14.8571
6328.5 23.1429
6329.5 -7.42857
6330.5 3.42857
6331.5 -3.14286
6332.5 14.2857
6333.5 7.28571
6334.5 -4.28571
6335.5 12.5714
6336.5 -2.57143
6337.5 9
6338.5 6.28571
6339.5 3.57143
6340.5 7.71429
6341.5 11.4286
6342.5 -4.28571
6343.5 2.71429
6344.5 -0.571428
6345.5 6.14286
6346.5 4.28571
6347.5 6.42857
6348.5 6.85714
6349.5 9.85714
6350.5 -7
6351.5 -0.714285
6352.5 9
6353.5 -2.71428
6354.5 -6.42857
6355.5 -12.7143
6356.5 9.57143
6357.5 -3
6358.5 -1.85714
6359.5 -2
6360.5 7.57143
6361.5 5.85714
6362.5 -7.14286
6363.5 20.5714
6364.5 10.4286
6365.5 -4.28571
6366.5 7.71429
6367.5 3.85714
6368.5 4.57143
6369.5 -1
6370.5 6.85714
6371.5 9.42857
6372.5 -8.42857
6373.5 10.2857
6374.5 9.28571
6375.5 -3.14286
6376.5 -2
6377.5 14.2857
6378.5 -6.57143
6379.5 1.85714
6380.5 3.57628e-07
6381.5 8.71429
6382.5 -0.142857
6383.5 4.42857
6384.5 12.8571
6385.5 1.28571
6386.5 5.85714
6387.5 14.2857
6388.5 7.71429
6389.5 3.14286
6390.5 3.14286
6391.5 2.28571
6392.5 -7.71429
6393.5 6.57143
6394.5 0.714286
6395.5 -4.85714
6396.5 0.714286
6397.5 10.1429
6398.5 2
6399.5 7.57143
6400.5 -1
6401.5 0.142858
6402.5 -3.57143
6403.5 16.5714
6404.5 8.71429
6405.5 5.42857
6406.5 3.42857
6407.5 3.85714
6408.5 13.1429
6409.5 3.71429
6410.5 6.57143
6411.5 2
6412.5 2.71429
6413.5 10.4286
6414.5 1.71429
6415.5 11.2857
6416.5 10.7143
6417.5 4
6418.5 2.85714
6419.5 16.8571
6420.5 10.1429
6421.5 -15.5714
6422.5 5.14286
6423.5 9.71429
6424.5 -4.85714
6425.5 6
6426.5 11.7143
6427.5 10.8571
6428.5 0.142858
6429.5 -7.28571
6430.5 11.2857
6431.5 -8.57143
6432.5 9.71429
6433.5 5
6434.5 0.428572
6435.5 -9.28571
6436.5 -6.14286
6437.5 -3.57143
6438.5 12.5714
6439.5 27.5714
6440.5 4.57143
6441.5 13.5714
6442.5 -7.85714
6443.5 5.57143
6444.5 10.7143
6445.5 12.1429
6446.5 10.4286
6447.5 5
6448.5 15.4286
6449.5 11.1429
6450.5 6.28571
6451.5 -1
6452.5 14.2857
6453.5 -1.14286
6454.5 6.42857
6455.5 -0.285714
6456.5 5.71429
6457.5 -1
6458.5 3.85714
6459.5 -2
6460.5 4.57143
6461.5 10.1429
6462.5 9.71429
6463.5 3.71429
6464.5 6.42857
6465.5 14.7143
6466.5 5.57143
6467.5 -4.85714
6468.5 -1.28571
6469.5 8.42857
6470.5 13.5714
6471.5 0.857143
6472.5 3.14286
6473.5 13.7143
6474.5 5.42857
6475.5 3
6476.5 8.85714
6477.5 -8.28571
6478.5 21.1429
6479.5 8.85714
6480.5 -25.2857
6481.5 -8.57143
6482.5 10.8571
6483.5 -16.1429
6484.5 10.8571
6485.5 -10.4286
6486.5 10.2857
6487.5 -2
6488.5 13.1429
6489.5 0.714286
6490.5 6.28571
6491.5 0.714286
6492.5 4.57143
6493.5 2
6494.5 6.42857
6495.5 -0.571428
6496.5 -4
6497.5 -8.57143
6498.5 2.71429
6499.5 5.57143
6500.5 -0.428571
6501.5 -1.14286
6502.5 -7.71429
6503.5 9.57143
6504.5 3.42857
6505.5 4.42857
6506.5 -2.85714
6507.5 0.857143
6508.5 0.571429
6509.5 3.57143
6510.5 13.4286
6511.5 2.28571
6512.5 5.42857
6513.5 8.57143
6514.5 1.57143
6515.5 3.42857
6516.5 4.71429
6517.5 1.85714
6518.5 -5.85714
6519.5 -4.85714
6520.5 8.42857
6521.5 6.28571
6522.5 -11.4286
6523.5 -6.42857
6524.5 2.71429
6525.5 1.71429
6526.5 3.57143
6527.5 15
6528.5 1.71429
6529.5 10.1429
6530.5 5.28571
6531.5 6.42857
6532.5 5.42857
6533.5 6.28571
6534.5 -0.142857
6535.5 3.42857
6536.5 5.42857
6537.5 3.85714
6538.5 9.42857
6539.5 19.8571
6540.5 -2.71428
6541.5 4.85714
6542.5 9
6543.5 6.14286
6544.5 -1.57143
6545.5 -12.5714
6546.5 18.2857
6547.5 -34.7143
6548.5 22.7143
6549.5 5.57143
6550.5 -1.28571
6551.5 -12
6552.5 -10.5714
6553.5 5.85714
6554.5 5.57143
6555.5 -4.42857
6556.5 0.571429
6557.5 -2.14286
6558.5 10.2857
6559.5 -2.85714
6560.5 10.2857
6561.5 0.285714
6562.5 -2.42857
6563.5 11.1429
6564.5 2.28571
6565.5 12.4286
6566.5 4.28571
6567.5 14.2857
6568.5 3.14286
6569.5 2.85714
6570.5 6.28571
6571.5 6.42857
6572.5 0.428572
6573.5 5.42857
6574.5 2.57143
6575.5 -2.42857
6576.5 -6.14286
6577.5 1.85714
6578.5 -4.14286
6579.5 -3.14286
6580.5 6
6581.5 -0.285714
6582.5 8.14286
6583.5 0.428572
6584.5 0.571429
6585.5 1.42857
6586.5 5
6587.5 -7.85714
6588.5 6.71429
6589.5 6
6590.5 3.71429
6591.5 0.857143
6592.5 10.2857
6593.5 16.2857
6594.5 -1.85714
6595.5 2.85714
6596.5 -9
6597.5 9.28571
6598.5 2.85714
6599.5 -7.57143
6600.5 -4.14286
6601.5 4.71429
6602.5 -19
6603.5 -10.4286
6604.5 -9.28571
6605.5 -22.4286
6606.5 -0.428571
6607.5 -1.71429
6608.5 5.42857
6609.5 1.71429
6610.5 13.2857
6611.5 5
6612.5 14.4286
6613.5 14.1429
6614.5 32.7143
6615.5 15.8571
6616.5 22.4286
6617.5 22.5714
6618.5 16.7143
6619.5 17.1429
6620.5 22
6621.5 8.57143
6622.5 5
6623.5 13.4286
6624.5 4.57143
6625.5 8.28571
6626.5 4.71429
6627.5 5.28571
6628.5 16.1429
6629.5 3.28571
6630.5 9.28571
6631.5 -3.85714
6632.5 4.28571
6633.5 -0.428571
6634.5 1.28571
6635.5 6.28571
6636.5 -3.28571
6637.5 4.57143
6638.5 5.28571
6639.5 5.28571
6640.5 -0.428571
6641.5 1.57143
6642.5 13.2857
6643.5 9.85714
6644.5 4.85714
6645.5 8.57143
6646.5 14
6647.5 1.42857
6648.5 10.7143
6649.5 26.1429
6650.5 -8.28571
6651.5 -5.28571
6652.5 11.7143
6653.5 2.28571
6654.5 0.857143
6655.5 9.28571
6656.5 -3.14286
6657.5 3.42857
6658.5 -3.14286
6659.5 9.42857
6660.5 1.42857
6661.5 0.714286
6662.5 -6.85714
6663.5 -3.28571
6664.5 -1.14286
6665.5 2.42857
6666.5 7.42857
6667.5 4
6668.5 -3.42857
6669.5 0.428572
6670.5 1.14286
6671.5 -5.14286
6672.5 0.428572
6673.5 3.42857
6674.5 10.1429
6675.5 8.14286
6676.5 -0.428571
6677.5 5
6678.5 3.14286
6679.5 9.28571
6680.5 10
6681.5 1.28571
6682.5 7.28571
6683.5 0.428572
6684.5 3.28571
6685.5 3.57143
6686.5 2.57143
6687.5 4.14286
6688.5 -3.14286
6689.5 1.42857
6690.5 3.42857
6691.5 4.14286
6692.5 4.28571
6693.5 -0.428571
6694.5 2.28571
6695.5 10.4286
6696.5 0.714286
6697.5 -0.428571
6698.5 8.28571
6699.5 -1.57143
6700.5 2.57143
6701.5 4
6702.5 -1.42857
6703.5 -2.57143
6704.5 0.285714
6705.5 -0.428571
6706.5 -2.57143
6707.5 5.28571
6708.5 9.28571
6709.5 1.42857
6710.5 -1.42857
6711.5 11.4286
6712.5 0.714286
6713.5 -0.142857
6714.5 9.28571
6715.5 -1.28571
6716.5 3.42857
6717.5 -1.28571
6718.5 3.42857
6719.5 3.42857
6720.5 -1.42857
6721.5 -0.285714
6722.5 1.57143
6723.5 -2.57143
6724.5 1.42857
6725.5 -0.428571
6726.5 -5.57143
6727.5 1.28571
6728.5 12.4286
6729.5 -6
6730.5 -4.71429
6731.5 -1
6732.5 2.57143
6733.5 5.85714
6734.5 10.1429
6735.5 5.42857
6736.5 -0.285714
6737.5 2.57143
6738.5 6
6739.5 4.57143
6740.5 -0.428571
6741.5 -3.42857
6742.5 4.14286
6743.5 1.42857
6744.5 -0.571428
6745.5 6.28571
6746.5 -7.28571
6747.5 4.57143
6748.5 -1.42857
6749.5 -0.142857
6750.5 5.85714
6751.5 5.28571
6752.5 3.42857
6753.5 -2.42857
6754.5 -1.57143
6755.5 3.28571
6756.5 0.285714
6757.5 3.42857
6758.5 7.42857
6759.5 0.571429
6760.5 3.42857
6761.5 3.28571
6762.5 6.14286
6763.5 -0.571428
6764.5 9.42857
6765.5 1.57143
6766.5 9.71429
6767.5 -9.57143
6768.5 -4.85714
6769.5 11.8571
6770.5 12.2857
6771.5 3.28572
6772.5 15.4286
6773.5 -0.571428
6774.5 -6.85714
6775.5 -4
6776.5 -7.85714
6777.5 4.42857
6778.5 -0.285714
6779.5 6.28571
6780.5 1.42857
6781.5 -3.42857
6782.5 3.57143
6783.5 1.42857
6784.5 -4.14286
6785.5 -4.28571
6786.5 1.42857
6787.5 3.71429
6788.5 0.571429
6789.5 -9.85714
6790.5 5.28571
6791.5 7.14286
6792.5 1.42857
6793.5 -3.57143
6794.5 -1.85714
6795.5 -3.14286
6796.5 -2.28571
6797.5 3
6798.5 3.14286
6799.5 0.571429
6800.5 8.14286
6801.5 -2.42857
6802.5 -0.571428
6803.5 4.28571
6804.5 -0.428571
6805.5 3.42857
6806.5 7.14286
6807.5 3.57143
6808.5 -4.85714
6809.5 -3.14286
6810.5 6.28571
6811.5 6.28571
6812.5 1.71429
6813.5 3.71429
6814.5 12.2857
6815.5 0.857143
6816.5 -0.571428
6817.5 -2.42857
6818.5 -4.14286
6819.5 0.285714
6820.5 0.571429
6821.5 5
6822.5 2
6823.5 1.57143
6824.5 1.57143
6825.5 0.285714
6826.5 5.14286
6827.5 6.14286
6828.5 0.285714
6829.5 3.14286
6830.5 2.28571
6831.5 2.14286
6832.5 -1.57143
6833.5 4.28571
6834.5 9.14286
6835.5 3.14286
6836.5 2.14286
6837.5 4.14286
6838.5 9
6839.5 0.285714
6840.5 4.28571
6841.5 -3.42857
6842.5 6.28571
6843.5 1.42857
6844.5 2.14286
6845.5 1.28571
6846.5 3.42857
6847.5 -1.57143
6848.5 3.14286
6849.5 10
6850.5 7.14286
6851.5 3.28571
6852.5 0.285714
6853.5 2.14286
6854.5 9.28571
6855.5 2.14286
6856.5 -3.28571
6857.5 7
6858.5 1.42857
6859.5 5.28571
6860.5 2.42857
6861.5 3.14286
6862.5 2.28571
6863.5 5.14286
6864.5 14
6865.5 -3.14286
6866.5 12.2857
6867.5 7.57143
6868.5 -3.14286
6869.5 2.85714
6870.5 9
6871.5 -4.14286
6872.5 -8.71429
6873.5 2.28571
6874.5 -2.85714
6875.5 4.42857
6876.5 0.428572
6877.5 7.42857
6878.5 0.285714
6879.5 3.28571
6880.5 2.28571
6881.5 5.14286
6882.5 7.14286
6883.5 5.14286
6884.5 2
6885.5 2
6886.5 2.14286
6887.5 1.28571
6888.5 2.28571
6889.5 -5.28571
6890.5 0.428572
6891.5 0.285714
6892.5 5
6893.5 0.428572
6894.5 -0.857143
6895.5 0.142857
6896.5 6
6897.5 8.14286
6898.5 8
6899.5 -1.57143
6900.5 7.14286
6901.5 7
6902.5 0.428572
6903.5 2.28571
6904.5 -0.571428
6905.5 -1.57143
6906.5 5.14286
6907.5 -9
6908.5 5.28571
6909.5 0.428572
6910.5 7.28571
6911.5 0.428572
6912.5 -1.71429
6913.5 7.14286
6914.5 10.1429
6915.5 -1.71429
6916.5 0.142857
6917.5 -10
6918.5 4.14286
6919.5 5.14286
6920.5 4
6921.5 0.142857
6922.5 -0.571428
6923.5 4.14286
6924.5 7.28571
6925.5 0.285714
6926.5 4.42857
6927.5 2.42857
6928.5 -7.71429
6929.5 17.8571
6930.5 -1.85714
6931.5 -6.28571
6932.5 7.14286
6933.5 0.857144
6934.5 -2.42857
6935.5 3.71429
6936.5 -0.857141
6937.5 3.14286
6938.5 -6
6939.5 -1.85714
6940.5 -2.14286
6941.5 -0.285714
6942.5 9
6943.5 -1.57143
6944.5 2.28571
6945.5 1.14286
6946.5 2.14286
6947.5 3
6948.5 -0.714286
6949.5 -0.571428
6950.5 4.14286
6951.5 2.14286
6952.5 0.285714
6953.5 7.14286
6954.5 3.28571
6955.5 5
6956.5 6.14286
6957.5 6
6958.5 -2.71429
6959.5 7.14286
6960.5 3
6961.5 0.285714
6962.5 -2.57143
6963.5 -0.428571
6964.5 0.285714
6965.5 3.14286
6966.5 5
6967.5 6.14286
6968.5 0.142857
6969.5 1
6970.5 10.1429
6971.5 -2.57143
6972.5 4.28571
6973.5 3.14286
6974.5 -1.42857
6975.5 2.14286
6976.5 3.14286
6977.5 9.28571
6978.5 -2
6979.5 1.42857
6980.5 -5.14286
6981.5 2.42857
6982.5 5.42857
6983.5 -0.714286
6984.5 -1.57143
6985.5 -0.714286
6986.5 3.14286
6987.5 -3.57143
6988.5 2
6989.5 1.14286
6990.5 4
6991.5 3
6992.5 3.28571
6993.5 -1.57143
6994.5 0.142857
6995.5 -2.57143
6996.5 3
6997.5 6
6998.5 2.28571
6999.5 0
7000.5 2
7001.5 3.14286
7002.5 1.28571
7003.5 3
7004.5 0.285714
7005.5 0.285714
7006.5 1.14286
7007.5 -2.57143
7008.5 5
7009.5 -2.57143
7010.5 -1.85714
7011.5 5
7012.5 4
7013.5 1.14286
7014.5 2
7015.5 2
7016.5 2.14286
7017.5 0.142857
7018.5 -0.714286
7019.5 -1.42857
7020.5 -1.71429
7021.5 2.14286
7022.5 1.42857
7023.5 -8.28571
7024.5 1.28571
7025.5 6
7026.5 4.14286
7027.5 1.14286
7028.5 1.14286
7029.5 5
7030.5 3.14286
7031.5 4.14286
7032.5 2
7033.5 0.142857
7034.5 2.14286
7035.5 0.142857
7036.5 5.28571
7037.5 2.14286
7038.5 3.14286
7039.5 4.14286
7040.5 2
7041.5 0.142857
7042.5 0.142857
7043.5 0.285714
7044.5 -3.57143
7045.5 -1.57143
7046.5 3.14286
7047.5 2.14286
7048.5 3.28571
7049.5 1.14286
7050.5 3
7051.5 1
7052.5 -4.57143
7053.5 -0.714286
7054.5 1.14286
7055.5 -0.571428
7056.5 -1.57143
7057.5 6
7058.5 1.28571
7059.5 1.14286
7060.5 2.14286
7061.5 0.142857
7062.5 -2.71429
7063.5 0.142857
7064.5 0.285714
7065.5 5
7066.5 2
7067.5 4.28571
7068.5 3
7069.5 2
7070.5 0.142857
7071.5 1
7072.5 1.14286
7073.5 -0.857143
7074.5 0.142857
7075.5 -0.857143
7076.5 6
7077.5 -0.714286
7078.5 -6.42857
7079.5 4.14286
7080.5 0.428572
7081.5 0.142857
7082.5 -0.571428
7083.5 7.14286
7084.5 3.14286
7085.5 0.285714
7086.5 1.14286
7087.5 3.28571
7088.5 2
7089.5 1
7090.5 4
7091.5 2
7092.5 -3.71429
7093.5 1.14286
7094.5 4
7095.5 2
7096.5 -0.857143
7097.5 1.14286
7098.5 1
7099.5 0.285714
7100.5 -0.714286
7101.5 4
7102.5 2
7103.5 -3.71429
7104.5 -0.857143
7105.5 1
7106.5 -2.71429
7107.5 -6.42857
7108.5 -5.42857
7109.5 -11.1429
7110.5 -16.5714
7111.5 -9.85714
7112.5 -3.42857
7113.5 -8.14286
7114.5 -10
7115.5 -2.42857
7116.5 -10.1429
7117.5 3
7118.5 6.28571
7119.5 0.285714
7120.5 6.14286
7121.5 10.1429
7122.5 5.28571
7123.5 18.2857
7124.5 17
7125.5 7.42857
7126.5 22
7127.5 26
7128.5 20
7129.5 16
7130.5 14.4286
7131.5 15.2857
7132.5 17
7133.5 21.1429
7134.5 12.1429
7135.5 3.42857
7136.5 3.71429
7137.5 2.14286
7138.5 0.285714
7139.5 1.14286
7140.5 4
7141.5 0.142857
7142.5 1
7143.5 -6.42857
7144.5 -5.42857
7145.5 -2.71429
7146.5 -0.714286
7147.5 3.14286
7148.5 3.14286
7149.5 1.14286
7150.5 2.14286
7151.5 4.14286
7152.5 12
7153.5 11.1429
7154.5 14.1429
7155.5 10.1429
7156.5 12.1429
7157.5 7.14286
7158.5 7.28571
7159.5 9.14286
7160.5 6
7161.5 6
7162.5 3
7163.5 -2.71429
7164.5 5.14286
7165.5 1
7166.5 6
7167.5 -6.42857
7168.5 1
7169.5 1
7170.5 0.142857
7171.5 0
7172.5 -0.857143
7173.5 0
7174.5 3
7175.5 2
7176.5 -2.57143
7177.5 4
7178.5 2
7179.5 -2.71429
7180.5 1
7181.5 1
7182.5 0
7183.5 2
7184.5 -1.57143
7185.5 2
7186.5 0.142857
7187.5 3
7188.5 1
7189.5 1
7190.5 -0.714286
7191.5 0.142857
7192.5 -0.857143
7193.5 -4.57143
7194.5 2.14286
7195.5 2
7196.5 2
7197.5 1
7198.5 0.142857
7199.5 -3.71429
7200.5 2
7201.5 1
7202.5 -3.42857
7203.5 4
7204.5 4.14286
7205.5 1.14286
7206.5 -3.14286
7207.5 7
7208.5 8.14286
7209.5 -2.57143
7210.5 1.28571
7211.5 3.14286
7212.5 2
7213.5 1
7214.5 -1.85714
7215.5 1.14286
7216.5 2
7217.5 -1.85714
7218.5 4.14286
7219.5 0.142857
7220.5 -2.71429
7221.5 2.14286
7222.5 0.142857
7223.5 0
7224.5 0
7225.5 -0.857143
7226.5 4.14286
7227.5 1
7228.5 -1.71429
7229.5 -0.857143
7230.5 0
7231.5 2.14286
7232.5 0.142857
7233.5 -0.857143
7234.5 1
7235.5 1
7236.5 -0.857143
7237.5 2.14286
7238.5 0
7239.5 0
7240.5 0
7241.5 1.14286
7242.5 2
7243.5 -2.57143
7244.5 0.428572
7245.5 2.14286
7246.5 4.14286
7247.5 -0.714286
7248.5 4.14286
7249.5 3.14286
7250.5 2
7251.5 2
7252.5 1.14286
7253.5 2
7254.5 1.14286
7255.5 0.142857
7256.5 -4.57143
7257.5 -3.71429
7258.5 0.285714
7259.5 0.428572
7260.5 2.14286
7261.5 1.14286
7262.5 3.42857
7263.5 5.14286
7264.5 0.428572
7265.5 3.14286
7266.5 2
7267.5 2.14286
7268.5 0.142857
7269.5 -0.857143
7270.5 -1.85714
7271.5 1
7272.5 -2.71429
7273.5 -1.85714
7274.5 0.142857
7275.5 1.14286
7276.5 -0.857143
7277.5 -0.857143
7278.5 2
7279.5 1
7280.5 4
7281.5 2
7282.5 -3.71429
7283.5 -0.857143
7284.5 -1.71429
7285.5 -0.857143
7286.5 0.142857
7287.5 -1.85714
7288.5 0.142857
7289.5 0
7290.5 -0.857143
7291.5 -1.71429
7292.5 6
7293.5 -3.71429
7294.5 1.14286
7295.5 2
7296.5 5
7297.5 1
7298.5 2
7299.5 -1.71429
7300.5 -1.71429
7301.5 -0.857143
7302.5 1
7303.5 2
7304.5 -1.85714
7305.5 1
7306.5 -2.71429
7307.5 0
7308.5 -1.71429
7309.5 -0.857143
7310.5 3
7311.5 0.142857
7312.5 -1.71429
7313.5 2.28571
7314.5 -2.57143
7315.5 0.285714
7316.5 3.42857
7317.5 -1.14286
7318.5 -1.42857
7319.5 1.42857
7320.5 6.14286
7321.5 5.14286
7322.5 2
7323.5 -2.71429
7324.5 -4.57143
7325.5 4
7326.5 1
7327.5 4
7328.5 -1.71429
7329.5 0.142857
7330.5 6
7331.5 3
7332.5 0.142857
7333.5 0
7334.5 4
7335.5 0
7336.5 4.14286
7337.5 -4.57143
7338.5 0.142857
7339.5 1
7340.5 1
7341.5 0
7342.5 -3.71429
7343.5 1.14286
7344.5 -1.85714
7345.5 1.14286
7346.5 1
7347.5 2
7348.5 0.285714
7349.5 1.28571
7350.5 5
7351.5 0.428572
7352.5 4
7353.5 -1.57143
7354.5 0.142857
7355.5 1.14286
7356.5 2.14286
7357.5 8
7358.5 0.142857
7359.5 -0.857143
7360.5 0.142857
7361.5 -0.857143
7362.5 -1.85714
7363.5 1
7364.5 0.142857
7365.5 1
7366.5 1
7367.5 2
7368.5 4
7369.5 2
7370.5 -1.85714
7371.5 1
7372.5 -0.714286
7373.5 3
7374.5 -1.85714
7375.5 -2.71429
7376.5 3
7377.5 3
7378.5 1
7379.5 0
7380.5 3
7381.5 -0.857143
7382.5 3.14286
7383.5 1
7384.5 1
7385.5 -1.85714
7386.5 3
7387.5 -1.85714
7388.5 -1.71429
7389.5 -1.71429
7390.5 0.142857
7391.5 2
7392.5 3
7393.5 1
7394.5 0.142857
7395.5 -0.714286
7396.5 -1.85714
7397.5 0
7398.5 0
7399.5 0.142857
7400.5 0.142857
7401.5 2
7402.5 -2.71429
7403.5 -0.857143
7404.5 -3.71429
7405.5 -1.85714
7406.5 4
7407.5 0
7408.5 -0.857143
7409.5 1.14286
7410.5 0
7411.5 5
7412.5 0.571429
7413.5 0.428572
7414.5 2.28571
7415.5 -3.42857
7416.5 0.142857
7417.5 5.14286
7418.5 1.14286
7419.5 6
7420.5 1.14286
7421.5 0
7422.5 -0.857143
7423.5 2
7424.5 -2.71429
7425.5 -0.857143
7426.5 0
7427.5 3
7428.5 -1.85714
7429.5 1
7430.5 4
7431.5 2.14286
7432.5 -5.57143
7433.5 2
7434.5 1.14286
7435.5 0
7436.5 1
7437.5 -1.71429
7438.5 0
7439.5 0
7440.5 1
7441.5 2
7442.5 2
7443.5 3
7444.5 -1.71429
7445.5 0
7446.5 -0.857143
7447.5 -2.71429
7448.5 -5.57143
7449.5 3
7450.5 2
7451.5 4.14286
7452.5 1
7453.5 1.14286
7454.5 2
7455.5 1
7456.5 -0.857143
7457.5 2.14286
7458.5 1
7459.5 1
7460.5 -3.71429
7461.5 4
7462.5 -0.857143
7463.5 1
7464.5 -1.85714
7465.5 4
7466.5 4
7467.5 3
7468.5 -3.71429
7469.5 0.142857
7470.5 -0.857143
7471.5 -1.85714
7472.5 2
7473.5 -0.857143
7474.5 0
7475.5 -3.71429
7476.5 1
7477.5 1
7478.5 0
7479.5 2
7480.5 -0.714286
7481.5 1
7482.5 2
7483.5 -1.85714
7484.5 1.14286
7485.5 4
7486.5 -0.857143
7487.5 0.142857
7488.5 -0.857143
7489.5 -1.85714
7490.5 2
7491.5 0
7492.5 4
7493.5 0.142857
7494.5 -1.85714
7495.5 1
7496.5 1
7497.5 0.142857
7498.5 3
7499.5 1
7500.5 -7.42857
7501.5 5
7502.5 0
7503.5 5
7504.5 0.142857
7505.5 1
7506.5 1
7507.5 0
7508.5 1
7509.5 -0.857143
7510.5 0
7511.5 -1.85714
7512.5 2
7513.5 0
7514.5 -0.857143
7515.5 2
7516.5 1
7517.5 2.14286
7518.5 -0.857143
7519.5 -0.857143
7520.5 -1.85714
7521.5 2
7522.5 0
7523.5 3
7524.5 3
7525.5 3
7526.5 -0.857143
7527.5 0
7528.5 1
7529.5 0.142857
7530.5 -0.857143
7531.5 0
7532.5 2
7533.5 0
7534.5 -1.57143
7535.5 0.142857
7536.5 1
7537.5 0
7538.5 -0.857143
7539.5 2
7540.5 0
7541.5 1
7542.5 0
7543.5 0
7544.5 3
7545.5 0
7546.5 1
7547.5 3
7548.5 -3.57143
7549.5 1.14286
7550.5 -2.71429
7551.5 1
7552.5 2
7553.5 1
7554.5 1
7555.5 3
7556.5 -1.71429
7557.5 2
7558.5 0.142857
7559.5 -1.71429
7560.5 1
7561.5 -2.71429
7562.5 -1.85714
7563.5 0
7564.5 -0.857143
7565.5 4
7566.5 -3.71429
7567.5 -1.85714
7568.5 2.14286
7569.5 4
7570.5 0
7571.5 3.14286
7572.5 2
7573.5 0.142857
7574.5 -5.57143
7575.5 -2.42857
7576.5 -1.71429
7577.5 3
7578.5 0.142857
7579.5 1.14286
7580.5 0.142857
7581.5 3
7582.5 2
7583.5 -1.85714
7584.5 1
7585.5 1.14286
7586.5 -0.857143
7587.5 1
7588.5 1
7589.5 2
7590.5 2
7591.5 1
7592.5 2.14286
7593.5 -0.857143
7594.5 -5.57143
7595.5 0.142857
7596.5 2
7597.5 1
7598.5 0
7599.5 2
7600.5 1
7601.5 2
7602.5 1
7603.5 -0.857143
7604.5 0
7605.5 1.14286
7606.5 1
7607.5 -1.85714
7608.5 0
7609.5 2
7610.5 0
7611.5 3.14286
7612.5 -1.85714
7613.5 1
7614.5 -3.71429
7615.5 1
7616.5 -0.857143
7617.5 2
7618.5 1
7619.5 -2.71429
7620.5 -1.85714
7621.5 -1.85714
7622.5 -3.71429
7623.5 -0.857143
7624.5 1
7625.5 1
7626.5 2
7627.5 -1.85714
7628.5 0
7629.5 1
7630.5 2.14286
7631.5 -0.857143
7632.5 3.14286
7633.5 -0.571428
7634.5 0.142857
7635.5 0
7636.5 -1.71429
7637.5 3
7638.5 -1.85714
7639.5 2
7640.5 -0.857143
7641.5 1
7642.5 2
7643.5 -0.857143
7644.5 -2.57143
7645.5 2
7646.5 1
7647.5 3
7648.5 4
7649.5 -2.71429
7650.5 1
7651.5 0
7652.5 -1.85714
7653.5 2
7654.5 0
7655.5 -1.85714
7656.5 0
7657.5 0
7658.5 0
7659.5 1
7660.5 2
7661.5 3
7662.5 2
7663.5 0.142857
7664.5 1
7665.5 1.14286
7666.5 2
7667.5 -1.85714
7668.5 0
7669.5 -0.857143
7670.5 -1.85714
7671.5 1
7672.5 1
7673.5 2
7674.5 1
7675.5 1
7676.5 2
7677.5 0
7678.5 0
7679.5 0.142857
7680.5 -1.71429
7681.5 2
7682.5 0
7683.5 3
7684.5 0.142857
7685.5 -2.71429
7686.5 1
7687.5 0
7688.5 1
7689.5 0
7690.5 1
7691.5 3
7692.5 2
7693.5 -1.85714
7694.5 0
7695.5 0
7696.5 2
7697.5 5
7698.5 1
7699.5 0
7700.5 0
7701.5 0.142857
7702.5 0
7703.5 -0.857143
7704.5 0
7705.5 -1.85714
7706.5 1
7707.5 0
7708.5 0
7709.5 -2.71429
7710.5 0
7711.5 -0.857143
7712.5 2
7713.5 2
7714.5 0
7715.5 1
7716.5 1
7717.5 1
7718.5 0.142857
7719.5 2
7720.5 1.14286
7721.5 2
7722.5 2
7723.5 3
7724.5 1
7725.5 2
7726.5 3
7727.5 0
7728.5 -2.71429
7729.5 3
7730.5 0
7731.5 -0.857143
7732.5 0.142857
7733.5 2
7734.5 0
7735.5 -1.85714
7736.5 -0.857143
7737.5 0
7738.5 2
7739.5 0
7740.5 1
7741.5 1
7742.5 2
7743.5 1
7744.5 -3.71429
7745.5 1
7746.5 1
7747.5 0.142857
7748.5 0
7749.5 0
7750.5 0
7751.5 0
7752.5 1
7753.5 2
7754.5 0
7755.5 0
7756.5 0
7757.5 -5.57143
7758.5 0
7759.5 -0.857143
7760.5 -1.85714
7761.5 0
7762.5 -1.85714
7763.5 1
7764.5 -0.857143
7765.5 -1.71429
7766.5 1
7767.5 2.14286
7768.5 -2.71429
7769.5 -1.57143
7770.5 3
7771.5 8.14286
7772.5 9
7773.5 6.28571
7774.5 5.28571
7775.5 3.42857
7776.5 2
7777.5 0
7778.5 -0.714286
7779.5 0.142857
7780.5 1
7781.5 1
7782.5 1
7783.5 0
7784.5 2
7785.5 0.142857
7786.5 0
7787.5 -1.85714
7788.5 -2.57143
7789.5 1
7790.5 0
7791.5 1
7792.5 -0.857143
7793.5 0
7794.5 -2.71429
7795.5 1
7796.5 2
7797.5 0
7798.5 -0.857143
7799.5 0
7800.5 1
7801.5 1
7802.5 1
7803.5 0
7804.5 -0.857143
7805.5 1
7806.5 0
7807.5 2
7808.5 0
7809.5 -0.857143
7810.5 -1.85714
7811.5 1.14286
7812.5 1
7813.5 -1.71429
7814.5 0
7815.5 2
7816.5 1
7817.5 0
7818.5 3
7819.5 5
7820.5 4
7821.5 -4.57143
7822.5 -8.14286
7823.5 -0.714286
7824.5 5.28571
7825.5 -1.42857
7826.5 -3.14286
7827.5 -9.85714
7828.5 -3.14286
7829.5 -1
7830.5 5.42857
7831.5 9.14286
7832.5 4.14286
7833.5 1
7834.5 3
7835.5 0.142857
7836.5 0.142857
7837.5 3
7838.5 0.142857
7839.5 1
7840.5 0
7841.5 1
7842.5 -1.85714
7843.5 0
7844.5 2
7845.5 0
7846.5 -1.85714
7847.5 2
7848.5 1
7849.5 0
7850.5 0
7851.5 0
7852.5 0
7853.5 1
7854.5 -2.71429
7855.5 1
7856.5 0
7857.5 1
7858.5 0
7859.5 0
7860.5 3
7861.5 2
7862.5 0
7863.5 2
7864.5 0
7865.5 1
7866.5 1
7867.5 -2.71429
7868.5 0
7869.5 2
7870.5 0
7871.5 -1.85714
7872.5 0
7873.5 0
7874.5 0
7875.5 -1.85714
7876.5 0
7877.5 0
7878.5 0
7879.5 1
7880.5 1
7881.5 1
7882.5 1
7883.5 0
7884.5 0
7885.5 0
7886.5 1
7887.5 -1.85714
7888.5 0
7889.5 1
7890.5 0
7891.5 0
7892.5 1
7893.5 0
7894.5 0
7895.5 -1.85714
7896.5 0
7897.5 0
7898.5 0
7899.5 0
7900.5 0
7901.5 0
7902.5 1
7903.5 1
7904.5 0
7905.5 0
7906.5 0
7907.5 0
7908.5 0
7909.5 0
7910.5 0
7911.5 0
7912.5 0
7913.5 0
7914.5 0
7915.5 2
7916.5 1
7917.5 0
7918.5 0
7919.5 -1.85714
7920.5 1
7921.5 2
7922.5 0
7923.5 0
7924.5 1
7925.5 0
7926.5 0
7927.5 0
7928.5 -1.85714
7929.5 -3.71429
7930.5 0
7931.5 2
7932.5 -1.85714
7933.5 2
7934.5 0
7935.5 1
7936.5 0
7937.5 0
7938.5 1
7939.5 1
7940.5 1
7941.5 1
7942.5 0
7943.5 0
7944.5 1
7945.5 -1.85714
7946.5 1
7947.5 1
7948.5 1
7949.5 -1.85714
7950.5 1
7951.5 0
7952.5 1.14286
7953.5 0.142857
7954.5 -1.85714
7955.5 1
7956.5 0
7957.5 -1.85714
7958.5 -3.71429
7959.5 -0.857143
7960.5 -0.857143
7961.5 0
7962.5 1
7963.5 0
7964.5 2
7965.5 -1.85714
7966.5 0
7967.5 0
7968.5 1
7969.5 3
7970.5 0
7971.5 0
7972.5 1
7973.5 -0.857143
7974.5 -1.85714
7975.5 2
7976.5 2
7977.5 -1.85714
7978.5 -1.85714
7979.5 1
7980.5 1
7981.5 2
7982.5 2
7983.5 -0.857143
7984.5 0.142857
7985.5 0
7986.5 0
7987.5 2
7988.5 1
7989.5 0.142857
7990.5 1
7991.5 0
7992.5 0
7993.5 2
7994.5 0.142857
7995.5 1
7996.5 1
7997.5 2
7998.5 1
7999.5 0
8000.5 0
8001.5 -0.857143
8002.5 1
8003.5 0
8004.5 2
8005.5 -0.857143
8006.5 2
8007.5 2
8008.5 -1.71429
8009.5 0
8010.5 0
8011.5 0
8012.5 1
8013.5 1
8014.5 0
8015.5 1
8016.5 0
8017.5 0
8018.5 -1.85714
8019.5 0
8020.5 -0.857143
8021.5 -0.857143
8022.5 1.14286
8023.5 0.142857
8024.5 1
8025.5 2
8026.5 0
8027.5 0
8028.5 1
8029.5 1
8030.5 0
8031.5 0
8032.5 2
8033.5 1
8034.5 0
8035.5 -1.85714
8036.5 -0.857143
8037.5 0
8038.5 1
8039.5 0
8040.5 1
8041.5 0
8042.5 0
8043.5 -1.85714
8044.5 0
8045.5 0
8046.5 1
8047.5 0
8048.5 -1.85714
8049.5 -1.85714
8050.5 2
8051.5 0
8052.5 1
8053.5 1
8054.5 1
8055.5 1
8056.5 0
8057.5 1
8058.5 0
8059.5 1
8060.5 0
8061.5 0
8062.5 1.14286
8063.5 1
8064.5 1
8065.5 0
8066.5 0
8067.5 0
8068.5 -0.857143
8069.5 0
8070.5 0
8071.5 0
8072.5 1
8073.5 1
8074.5 1
8075.5 0
8076.5 1
8077.5 0
8078.5 1
8079.5 3
8080.5 0
8081.5 1
8082.5 1.14286
8083.5 3
8084.5 1.14286
8085.5 3
8086.5 3
8087.5 -1.85714
8088.5 0
8089.5 1
8090.5 -1.85714
8091.5 0
8092.5 0
8093.5 0
8094.5 0
8095.5 -1.85714
8096.5 0
8097.5 0
8098.5 0
8099.5 0
8100.5 0
8101.5 1
8102.5 0
8103.5 0
8104.5 0
8105.5 1
8106.5 0
8107.5 0
8108.5 0
8109.5 0
8110.5 0
8111.5 -1.85714
8112.5 1
8113.5 0
8114.5 0
8115.5 0
8116.5 3
8117.5 0
8118.5 1
8119.5 0
8120.5 0
8121.5 0
8122.5 0
8123.5 0
8124.5 1
8125.5 0
8126.5 0
8127.5 1
8128.5 0
8129.5 0
8130.5 0
8131.5 1
8132.5 0
8133.5 -0.857143
8134.5 -3.71429
8135.5 0
8136.5 -0.857143
8137.5 -1.85714
8138.5 1
8139.5 1
8140.5 2
8141.5 0
8142.5 1
8143.5 3
8144.5 0
8145.5 0
8146.5 2
8147.5 0
8148.5 1
8149.5 -1.85714
8150.5 0
8151.5 -1.85714
8152.5 2
8153.5 -1.85714
8154.5 0
8155.5 0
8156.5 0
8157.5 0
8158.5 0.142857
8159.5 0
8160.5 0
8161.5 1
8162.5 1
8163.5 2
8164.5 0
8165.5 0
8166.5 0
8167.5 1
8168.5 0
8169.5 0
8170.5 1
8171.5 1
8172.5 0
8173.5 0
8174.5 0
8175.5 0
8176.5 0
8177.5 -1.85714
8178.5 2
8179.5 0
8180.5 1
8181.5 0
8182.5 0
8183.5 0
8184.5 0
8185.5 1
8186.5 1
8187.5 0
8188.5 0
8189.5 0
8190.5 1
8191.5 0
8192.5 0
8193.5 0
8194.5 1
8195.5 0
8196.5 0
8197.5 2
8198.5 0
8199.5 0
8200.5 0
8201.5 -2.71429
8202.5 0
8203.5 -1.85714
8204.5 0
8205.5 -0.857143
8206.5 2
8207.5 0
8208.5 0
8209.5 1
8210.5 1
8211.5 0
8212.5 -1.85714
8213.5 0
8214.5 -1.85714
8215.5 0
8216.5 0
8217.5 1
8218.5 0
8219.5 0
8220.5 3
8221.5 0
8222.5 -1.85714
8223.5 0.142857
8224.5 0
8225.5 0
8226.5 0
8227.5 1
8228.5 0
8229.5 0
8230.5 0
8231.5 1
8232.5 -1.85714
8233.5 0
8234.5 0
8235.5 0
8236.5 0
8237.5 0
8238.5 0
8239.5 0
8240.5 1
8241.5 1
8242.5 0
8243.5 -1.85714
8244.5 0
8245.5 1
8246.5 0
8247.5 -0.857143
8248.5 0
8249.5 2
8250.5 0
8251.5 0
8252.5 -0.857143
8253.5 -1.85714
8254.5 0
8255.5 0
8256.5 1
8257.5 0
8258.5 0
8259.5 -2.71429
8260.5 0
8261.5 -1.85714
8262.5 -5.57143
8263.5 1
8264.5 0
8265.5 0
8266.5 0
8267.5 1
8268.5 0
8269.5 2
8270.5 0.142857
8271.5 -0.857143
8272.5 -1.85714
8273.5 0
8274.5 0
8275.5 -3.71429
8276.5 0
8277.5 0
8278.5 0
8279.5 2
8280.5 0
8281.5 1
8282.5 1
8283.5 1
8284.5 0
8285.5 0
8286.5 1
8287.5 0
8288.5 0
8289.5 0
8290.5 1
8291.5 -1.85714
8292.5 1
8293.5 -3.71429
8294.5 0
8295.5 0
8296.5 1
8297.5 0
8298.5 1
8299.5 1
8300.5 1
8301.5 -1.85714
8302.5 1
8303.5 0
8304.5 0
8305.5 0
8306.5 1
8307.5 0
8308.5 0
8309.5 1
8310.5 0
8311.5 0
8312.5 0
8313.5 0
8314.5 0
8315.5 1
8316.5 0
8317.5 1
8318.5 -0.857143
8319.5 0
8320.5 -0.857143
8321.5 0
8322.5 1
8323.5 0
8324.5 0
8325.5 0
8326.5 -1.85714
8327.5 2
8328.5 0
8329.5 0
8330.5 1
8331.5 -1.85714
8332.5 2
8333.5 2
8334.5 -3.71429
8335.5 1
8336.5 0
8337.5 -0.857143
8338.5 0.142857
8339.5 1
8340.5 -1.85714
8341.5 0
8342.5 1
8343.5 0
8344.5 0
8345.5 1
8346.5 -1.85714
8347.5 1
8348.5 0
8349.5 0
8350.5 2
8351.5 0
8352.5 0.142857
8353.5 0
8354.5 2
8355.5 0
8356.5 -1.85714
8357.5 0
8358.5 0
8359.5 1
8360.5 0
8361.5 0
8362.5 1
8363.5 0
8364.5 0
8365.5 0
8366.5 0
8367.5 0
8368.5 1
8369.5 1
8370.5 0
8371.5 2
8372.5 0
8373.5 0
8374.5 1
8375.5 0
8376.5 0
8377.5 0
8378.5 0
8379.5 0
8380.5 1
8381.5 0
8382.5 0
8383.5 0
8384.5 1
8385.5 0
8386.5 0
8387.5 0
8388.5 -0.857143
8389.5 -1.85714
8390.5 1
8391.5 0
8392.5 0
8393.5 1
8394.5 1
8395.5 0
8396.5 0
8397.5 1
8398.5 1
8399.5 0
8400.5 0
8401.5 0
8402.5 1
8403.5 0
8404.5 0
8405.5 1
8406.5 0
8407.5 0
8408.5 0
8409.5 -1.85714
8410.5 0
8411.5 0
8412.5 2
8413.5 0
8414.5 0
8415.5 -1.85714
8416.5 0
8417.5 1
8418.5 0
8419.5 0
8420.5 0
8421.5 2
8422.5 0
8423.5 1
8424.5 -1.85714
8425.5 1
8426.5 0
8427.5 1
8428.5 0
8429.5 0
8430.5 1
8431.5 0
8432.5 2
8433.5 0
8434.5 0
8435.5 0
8436.5 1
8437.5 0
8438.5 0
8439.5 0
8440.5 0
8441.5 1
8442.5 0
8443.5 0
8444.5 1
8445.5 2
8446.5 1
8447.5 0
8448.5 1
8449.5 0
8450.5 -1.85714
8451.5 0
8452.5 1
8453.5 3
8454.5 1
8455.5 -0.857143
8456.5 0
8457.5 1
8458.5 -1.85714
8459.5 0
8460.5 0
8461.5 1
8462.5 -1.85714
8463.5 1
8464.5 1
8465.5 0
8466.5 0
8467.5 0
8468.5 0
8469.5 0
8470.5 0
8471.5 0
8472.5 0
8473.5 1
8474.5 0
8475.5 0
8476.5 2
8477.5 -2.71429
8478.5 1
8479.5 0
8480.5 0
8481.5 0
8482.5 0
8483.5 0
8484.5 -1.85714
8485.5 1
8486.5 0
8487.5 -1.85714
8488.5 1
8489.5 0
8490.5 0
8491.5 0
8492.5 0
8493.5 0
8494.5 -0.714286
8495.5 0
8496.5 0
8497.5 -1.85714
8498.5 2
8499.5 0
8500.5 0
8501.5 1
8502.5 0
8503.5 -1.85714
8504.5 2
8505.5 0
8506.5 0
8507.5 0
8508.5 -0.857143
8509.5 -0.857143
8510.5 0
8511.5 0
8512.5 0
8513.5 2
8514.5 0
8515.5 1
8516.5 1
8517.5 1
8518.5 1
8519.5 0
8520.5 1
8521.5 0
8522.5 1
8523.5 -0.857143
8524.5 0
8525.5 -1.85714
8526.5 0
8527.5 1
8528.5 1
8529.5 1
8530.5 1
8531.5 1
8532.5 2
8533.5 -0.857143
8534.5 -1.85714
8535.5 2
8536.5 0
8537.5 1
8538.5 0.142857
8539.5 0
8540.5 0
8541.5 0
8542.5 -1.85714
8543.5 1
8544.5 1
8545.5 0
8546.5 -0.857143
8547.5 -0.857143
8548.5 0
8549.5 0
8550.5 0
8551.5 1
8552.5 0
8553.5 0
8554.5 0
8555.5 0
8556.5 1
8557.5 0
8558.5 1
8559.5 0
8560.5 0
8561.5 0
8562.5 -1.85714
8563.5 0
8564.5 1
8565.5 0
8566.5 0
8567.5 0
8568.5 0
8569.5 0
8570.5 0
8571.5 0
8572.5 0
8573.5 0
8574.5 0
8575.5 0
8576.5 0
8577.5 0
8578.5 2
8579.5 -1.85714
8580.5 1
8581.5 1
8582.5 1
8583.5 0
8584.5 0
8585.5 2
8586.5 2
8587.5 1
8588.5 0
8589.5 0
8590.5 0
8591.5 1
8592.5 0
8593.5 -0.857143
8594.5 0
8595.5 0
8596.5 0
8597.5 0
8598.5 0
8599.5 0
8600.5 0
8601.5 -1.85714
8602.5 1
8603.5 2
8604.5 0
8605.5 1
8606.5 0
8607.5 0
8608.5 0
8609.5 -1.85714
8610.5 0
8611.5 0
8612.5 0
8613.5 1
8614.5 0
8615.5 0
8616.5 1
8617.5 0
8618.5 0
8619.5 0
8620.5 0
8621.5 0
8622.5 0
8623.5 0
8624.5 0
8625.5 0
8626.5 0
8627.5 1
8628.5 0
8629.5 1
8630.5 0
8631.5 0
8632.5 0
8633.5 -1.85714
8634.5 0
8635.5 3
8636.5 1
8637.5 0
8638.5 0
8639.5 0
8640.5 0
8641.5 1
8642.5 0
8643.5 0
8644.5 0
8645.5 -3.71429
8646.5 0
8647.5 0
8648.5 -1.85714
8649.5 -0.857143
8650.5 0
8651.5 0
8652.5 0
8653.5 -0.857143
8654.5 2
8655.5 0
8656.5 1
8657.5 0
8658.5 1
8659.5 0
8660.5 0
8661.5 1
8662.5 0
8663.5 0
8664.5 0
8665.5 -1.85714
8666.5 0
8667.5 -1.85714
8668.5 1
8669.5 0
8670.5 0
8671.5 -1.85714
8672.5 0
8673.5 0
8674.5 0
8675.5 0
8676.5 1
8677.5 0
8678.5 0
8679.5 0
8680.5 0
8681.5 0
8682.5 0
8683.5 0
8684.5 0
8685.5 1
8686.5 0
8687.5 0
8688.5 1
8689.5 0
8690.5 0
8691.5 2
8692.5 0
8693.5 0
8694.5 0
8695.5 0
8696.5 1
8697.5 -1.85714
8698.5 1
8699.5 0
8700.5 1
8701.5 0
8702.5 -1.85714
8703.5 -1.85714
8704.5 1
8705.5 0
8706.5 -3.71429
8707.5 0
8708.5 -0.857143
8709.5 0
8710.5 -0.857143
8711.5 0
8712.5 0
8713.5 0
8714.5 0
8715.5 0
8716.5 0
8717.5 0
8718.5 0
8719.5 0
8720.5 -1.85714
8721.5 -0.857143
8722.5 0
8723.5 1
8724.5 0
8725.5 0
8726.5 0
8727.5 1
8728.5 1
8729.5 0
8730.5 0
8731.5 0
8732.5 0
8733.5 1
8734.5 0
8735.5 1
8736.5 0
8737.5 0
8738.5 0
8739.5 0
8740.5 0
8741.5 0
8742.5 0
8743.5 0
8744.5 -0.857143
8745.5 -3.71429
8746.5 0
8747.5 0
8748.5 0
8749.5 3
8750.5 1
8751.5 1
8752.5 0
8753.5 0
8754.5 0
8755.5 2
8756.5 0
8757.5 0
8758.5 0
8759.5 0
8760.5 0
8761.5 0
8762.5 0
8763.5 -3.71429
8764.5 -1.85714
8765.5 0
8766.5 2
8767.5 0
8768.5 0
8769.5 -1.85714
8770.5 1
8771.5 0
8772.5 0
8773.5 0
8774.5 0
8775.5 1
8776.5 1
8777.5 -2.71429
8778.5 0
8779.5 0
8780.5 0
8781.5 1
8782.5 0
8783.5 0
8784.5 0
8785.5 -1.85714
8786.5 -1.85714
8787.5 2
8788.5 -1.85714
8789.5 0
8790.5 0
8791.5 0
8792.5 1
8793.5 1
8794.5 1
8795.5 0
8796.5 0
8797.5 0
8798.5 0
8799.5 -1.85714
8800.5 0
8801.5 0
8802.5 0
8803.5 0
8804.5 1
8805.5 0
8806.5 1
8807.5 0
8808.5 1
8809.5 1
8810.5 0
8811.5 0
8812.5 0
8813.5 0
8814.5 1
8815.5 0
8816.5 0
8817.5 0
8818.5 -0.857143
8819.5 1
8820.5 1
8821.5 0
8822.5 0
8823.5 0
8824.5 0
8825.5 0
8826.5 0
8827.5 1
8828.5 0
8829.5 -1.85714
8830.5 1
8831.5 0
8832.5 0
8833.5 1
8834.5 0
8835.5 0
8836.5 0
8837.5 0
8838.5 0
8839.5 1
8840.5 0
8841.5 0
8842.5 1
8843.5 2
8844.5 0
8845.5 1
8846.5 -1.85714
8847.5 0
8848.5 3
8849.5 1
8850.5 0
8851.5 0
8852.5 0
8853.5 0
8854.5 1
8855.5 1
8856.5 0
8857.5 0
8858.5 0
8859.5 -0.857143
8860.5 1
8861.5 2
8862.5 0
8863.5 0
8864.5 0
8865.5 0
8866.5 0
8867.5 1
8868.5 0
8869.5 0
8870.5 -0.857143
8871.5 0
8872.5 0
8873.5 0
8874.5 1
8875.5 1
8876.5 0
8877.5 1
8878.5 0
8879.5 0
8880.5 0
8881.5 0
8882.5 0
8883.5 0
8884.5 2
8885.5 0
8886.5 0
8887.5 0
8888.5 0
8889.5 0
8890.5 0
8891.5 0
8892.5 1
8893.5 0
8894.5 0
8895.5 0
8896.5 0
8897.5 1
8898.5 1
8899.5 0
8900.5 0
8901.5 0
8902.5 0
8903.5 0
8904.5 0
8905.5 0
8906.5 0
8907.5 0
8908.5 0
8909.5 1
8910.5 0
8911.5 0
8912.5 0
8913.5 -1.85714
8914.5 0
8915.5 1
8916.5 0
8917.5 0
8918.5 1
8919.5 0
8920.5 0
8921.5 0
8922.5 -0.857143
8923.5 0
8924.5 0
8925.5 0
8926.5 1
8927.5 0
8928.5 1
8929.5 0
8930.5 -0.857143
8931.5 0
8932.5 0
8933.5 0
8934.5 0
8935.5 0
8936.5 0
8937.5 0
8938.5 0
8939.5 0
8940.5 -1.85714
8941.5 0
8942.5 0
8943.5 0
8944.5 -1.85714
8945.5 0
8946.5 0
8947.5 0
8948.5 2
8949.5 -1.85714
8950.5 1
8951.5 1
8952.5 0
8953.5 0
8954.5 2
8955.5 0
8956.5 1
8957.5 1
8958.5 -1.85714
8959.5 0
8960.5 0
8961.5 2
8962.5 -0.857143
8963.5 0
8964.5 0
8965.5 0
8966.5 0
8967.5 0
8968.5 0
8969.5 0
8970.5 0
8971.5 0
8972.5 0
8973.5 0
8974.5 0
8975.5 0
8976.5 1
8977.5 0
8978.5 1
8979.5 0
8980.5 0
8981.5 2
8982.5 0
8983.5 -1.85714
8984.5 0
8985.5 0
8986.5 0
8987.5 2
8988.5 0
8989.5 0
8990.5 1
8991.5 -0.857143
8992.5 0.142857
8993.5 0
8994.5 0
8995.5 0
8996.5 0
8997.5 0
8998.5 0
8999.5 -0.857143
9000.5 1
9001.5 0
9002.5 -0.857143
9003.5 1
9004.5 0
9005.5 0
9006.5 0
9007.5 1
9008.5 0
9009.5 0
9010.5 0
9011.5 0
9012.5 0
9013.5 0
9014.5 1
9015.5 0
9016.5 0
9017.5 0
9018.5 0
9019.5 -1.85714
9020.5 0
9021.5 0
9022.5 0
9023.5 0
9024.5 0
9025.5 0
9026.5 0
9027.5 0
9028.5 0
9029.5 0
9030.5 0
9031.5 3
9032.5 0
9033.5 0
9034.5 0
9035.5 2
9036.5 0
9037.5 0
9038.5 0
9039.5 -1.85714
9040.5 0
9041.5 0
9042.5 0
9043.5 0
9044.5 0
9045.5 0
9046.5 0
9047.5 0
9048.5 0
9049.5 0
9050.5 1
9051.5 -1.85714
9052.5 0
9053.5 -1.85714
9054.5 2
9055.5 0
9056.5 2
9057.5 1
9058.5 -1.85714
9059.5 0
9060.5 0
9061.5 0
9062.5 0
9063.5 0
9064.5 0
9065.5 -1.85714
9066.5 0
9067.5 0
9068.5 0
9069.5 0
9070.5 0
9071.5 1
9072.5 1
9073.5 0
9074.5 0
9075.5 0
9076.5 0
9077.5 0
9078.5 0
9079.5 0
9080.5 0
9081.5 0
9082.5 -0.857143
9083.5 0
9084.5 1
9085.5 0
9086.5 0
9087.5 0
9088.5 -1.85714
9089.5 0
9090.5 0
9091.5 0
9092.5 1
9093.5 0
9094.5 0
9095.5 1
9096.5 -1.85714
9097.5 0
9098.5 0
9099.5 0
9100.5 0
9101.5 0
9102.5 0
9103.5 0
9104.5 0
9105.5 0
9106.5 2
9107.5 0
9108.5 1
9109.5 -1.85714
9110.5 0
9111.5 0
9112.5 -1.85714
9113.5 0
9114.5 0
9115.5 0
9116.5 0
9117.5 -1.85714
9118.5 0
9119.5 1
9120.5 0
9121.5 0
9122.5 0
9123.5 0
9124.5 0
9125.5 0
9126.5 1
9127.5 0
9128.5 0
9129.5 0
9130.5 0
9131.5 -1.85714
9132.5 0
9133.5 1
9134.5 1
9135.5 0
9136.5 -1.85714
9137.5 1
9138.5 0
9139.5 -1.71429
9140.5 0
9141.5 0
9142.5 0
9143.5 0
9144.5 0
9145.5 0
9146.5 -1.85714
9147.5 0
9148.5 -1.85714
9149.5 0
9150.5 0
9151.5 0
9152.5 0
9153.5 0
9154.5 1
9155.5 0
9156.5 0
9157.5 0
9158.5 0
9159.5 0
9160.5 0
9161.5 0
9162.5 0
9163.5 0
9164.5 -1.85714
9165.5 0
9166.5 0
9167.5 0
9168.5 0
9169.5 0
9170.5 0
9171.5 0
9172.5 0
9173.5 0
9174.5 -1.85714
9175.5 0
9176.5 0
9177.5 0
9178.5 0
9179.5 0
9180.5 0
9181.5 0
9182.5 1
9183.5 0
9184.5 0
9185.5 0
9186.5 0
9187.5 1
9188.5 0
9189.5 0
9190.5 -0.857143
9191.5 0
9192.5 0
9193.5 0
9194.5 0
9195.5 1
9196.5 0
9197.5 0
9198.5 0
9199.5 0
9200.5 0
9201.5 1
9202.5 0
9203.5 0
9204.5 0
9205.5 0
9206.5 0
9207.5 0
9208.5 -1.85714
9209.5 0
9210.5 0
9211.5 0
9212.5 1
9213.5 0
9214.5 0
9215.5 0
9216.5 -1.85714
9217.5 1
9218.5 0
9219.5 0
9220.5 -2.71429
9221.5 -1.85714
9222.5 0
9223.5 1
9224.5 1
9225.5 0
9226.5 -1.85714
9227.5 0
9228.5 0
9229.5 1
9230.5 0
9231.5 1
9232.5 1
9233.5 -1.85714
9234.5 0
9235.5 0
9236.5 0
9237.5 0
9238.5 0
9239.5 -1.85714
9240.5 0
9241.5 0
9242.5 0
9243.5 1
9244.5 0
9245.5 0
9246.5 1
9247.5 1
9248.5 0
9249.5 0
9250.5 0
9251.5 0
9252.5 0
9253.5 0
9254.5 2
9255.5 0
9256.5 0
9257.5 0
9258.5 0
9259.5 0
9260.5 1
9261.5 1
9262.5 0
9263.5 0
9264.5 0
9265.5 0
9266.5 0
9267.5 0
9268.5 3
9269.5 0
9270.5 0
9271.5 0
9272.5 1
9273.5 0
9274.5 0
9275.5 0
9276.5 -1.85714
9277.5 0
9278.5 1
9279.5 0
9280.5 0
9281.5 0
9282.5 1
9283.5 0
9284.5 0
9285.5 -1.85714
9286.5 0
9287.5 1
9288.5 0
9289.5 0
9290.5 0
9291.5 1
9292.5 0
9293.5 0
9294.5 0
9295.5 1
9296.5 1
9297.5 0
9298.5 0
9299.5 -1.85714
9300.5 0
9301.5 0
9302.5 0
9303.5 0
9304.5 0
9305.5 0
9306.5 1
9307.5 0
9308.5 0
9309.5 0
9310.5 0
9311.5 0
9312.5 0
9313.5 0
9314.5 0
9315.5 0
9316.5 0
9317.5 0
9318.5 1
9319.5 0
9320.5 0
9321.5 0
9322.5 0
9323.5 -1.85714
9324.5 0
9325.5 0
9326.5 0
9327.5 0
9328.5 2
9329.5 1
9330.5 0
9331.5 0
9332.5 0
9333.5 0
9334.5 1
9335.5 -0.857143
9336.5 0
9337.5 0
9338.5 0
9339.5 0
9340.5 0
9341.5 0
9342.5 0
9343.5 0
9344.5 0
9345.5 0
9346.5 0
9347.5 0
9348.5 0
9349.5 0
9350.5 0
9351.5 0
9352.5 0
9353.5 0
9354.5 0
9355.5 0
9356.5 1
9357.5 1
9358.5 1
9359.5 0
9360.5 0
9361.5 0
9362.5 1
9363.5 0
9364.5 0
9365.5 0
9366.5 1
9367.5 0
9368.5 0
9369.5 0
9370.5 1
9371.5 1
9372.5 0
9373.5 0
9374.5 0
9375.5 0
9376.5 1
9377.5 0
9378.5 -1.85714
9379.5 1
9380.5 0
9381.5 0
9382.5 0
9383.5 0
9384.5 0
9385.5 0
9386.5 0
9387.5 0
9388.5 0
9389.5 1
9390.5 0
9391.5 0
9392.5 0
9393.5 1
9394.5 0
9395.5 0
9396.5 0
9397.5 0
9398.5 0
9399.5 0
9400.5 0
9401.5 0
9402.5 0
9403.5 0
9404.5 0
9405.5 0
9406.5 0
9407.5 0
9408.5 0
9409.5 0
9410.5 1
9411.5 0
9412.5 0
9413.5 0
9414.5 0
9415.5 0
9416.5 0
9417.5 -1.85714
9418.5 1
9419.5 0
9420.5 0
9421.5 0
9422.5 1
9423.5 0
9424.5 0
9425.5 0
9426.5 1
9427.5 0
9428.5 0
9429.5 0
9430.5 1
9431.5 0
9432.5 -1.85714
9433.5 1
9434.5 0
9435.5 0
9436.5 -0.857143
9437.5 0
9438.5 0
9439.5 0
9440.5 0
9441.5 0
9442.5 0
9443.5 1
9444.5 0
9445.5 0
9446.5 0
9447.5 0
9448.5 0
9449.5 1
9450.5 1
9451.5 0
9452.5 -1.85714
9453.5 0
9454.5 0
9455.5 1
9456.5 0
9457.5 -1.85714
9458.5 0
9459.5 0
9460.5 0
9461.5 -0.857143
9462.5 -1.85714
9463.5 -1.85714
9464.5 0
9465.5 0
9466.5 0
9467.5 0
9468.5 0.142857
9469.5 0
9470.5 0
9471.5 0
9472.5 0
9473.5 0
9474.5 0
9475.5 0
9476.5 0
9477.5 0
9478.5 0
9479.5 0
9480.5 0
9481.5 0
9482.5 0
9483.5 0
9484.5 0
9485.5 0
9486.5 0
9487.5 0
9488.5 0
9489.5 0
9490.5 0
9491.5 0
9492.5 1
9493.5 0
9494.5 0
9495.5 0
9496.5 1
9497.5 0
9498.5 0
9499.5 0
9500.5 0
9501.5 0
9502.5 0
9503.5 0
9504.5 0
9505.5 0
9506.5 0
9507.5 0
9508.5 0
9509.5 0
9510.5 0
9511.5 0
9512.5 0
9513.5 0
9514.5 0
9515.5 2
9516.5 0
9517.5 0
9518.5 0
9519.5 1
9520.5 0
9521.5 0
9522.5 1
9523.5 0
9524.5 0
9525.5 1
9526.5 0
9527.5 0
9528.5 0
9529.5 0
9530.5 0
9531.5 0
9532.5 0
9533.5 0
9534.5 0
9535.5 0
9536.5 0
9537.5 0
9538.5 0
9539.5 0
9540.5 -1.85714
9541.5 0
9542.5 0
9543.5 0
9544.5 0
9545.5 0
9546.5 0
9547.5 0
9548.5 0
9549.5 0
9550.5 0
9551.5 0
9552.5 -1.85714
9553.5 0
9554.5 0
9555.5 -1.85714
9556.5 0
9557.5 0
9558.5 0
9559.5 1
9560.5 1
9561.5 0
9562.5 1
9563.5 0
9564.5 0
9565.5 1
9566.5 1
9567.5 0
9568.5 0
9569.5 0
9570.5 0
9571.5 1
9572.5 1
9573.5 0
9574.5 0
9575.5 0
9576.5 0
9577.5 0
9578.5 -1.85714
9579.5 0
9580.5 0
9581.5 0
9582.5 0
9583.5 0
9584.5 0
9585.5 0
9586.5 0
9587.5 0
9588.5 1
9589.5 0
9590.5 0
9591.5 0
9592.5 0
9593.5 0
9594.5 0
9595.5 0
9596.5 0
9597.5 0
9598.5 0
9599.5 0
9600.5 0
9601.5 0
9602.5 1
9603.5 0
9604.5 0
9605.5 0
9606.5 1
9607.5 0
9608.5 0
9609.5 -1.85714
9610.5 0
9611.5 0
9612.5 0
9613.5 0
9614.5 0
9615.5 0
9616.5 0
9617.5 0
9618.5 0
9619.5 0
9620.5 0
9621.5 0
9622.5 0
9623.5 1
9624.5 0
9625.5 0
9626.5 2
9627.5 0
9628.5 0
9629.5 0
9630.5 0
9631.5 0
9632.5 0
9633.5 -1.85714
9634.5 0
9635.5 0
9636.5 0
9637.5 0
9638.5 0
9639.5 0
9640.5 0
9641.5 1
9642.5 0
9643.5 0
9644.5 0
9645.5 0
9646.5 0
9647.5 0
9648.5 -1.85714
9649.5 0
9650.5 0
9651.5 0
9652.5 0
9653.5 0
9654.5 0
9655.5 0
9656.5 0
9657.5 1
9658.5 0
9659.5 0
9660.5 1
9661.5 0
9662.5 1
9663.5 0
9664.5 0
9665.5 0
9666.5 0
9667.5 0
9668.5 0
9669.5 0
9670.5 -1.85714
9671.5 0
9672.5 0
9673.5 0
9674.5 0
9675.5 0
9676.5 1
9677.5 0
9678.5 0
9679.5 1
9680.5 1
9681.5 0
9682.5 0
9683.5 -1.85714
9684.5 0
9685.5 1
9686.5 -1.85714
9687.5 0
9688.5 0
9689.5 0
9690.5 0
9691.5 0
9692.5 0
9693.5 0
9694.5 0
9695.5 0
9696.5 0
9697.5 0
9698.5 0
9699.5 0
9700.5 0
9701.5 2
9702.5 1
9703.5 0
9704.5 0
9705.5 2
9706.5 1
9707.5 0
9708.5 0
9709.5 1
9710.5 2
9711.5 0
9712.5 0
9713.5 0
9714.5 1
9715.5 -1.85714
9716.5 0
9717.5 0
9718.5 0
9719.5 0
9720.5 0
9721.5 0
9722.5 0
9723.5 0
9724.5 0
9725.5 1
9726.5 0
9727.5 0
9728.5 0
9729.5 0
9730.5 0
9731.5 -1.85714
9732.5 1
9733.5 0
9734.5 0
9735.5 1
9736.5 0
9737.5 0
9738.5 0
9739.5 0
9740.5 0
9741.5 0
9742.5 0
9743.5 0
9744.5 0
9745.5 0
9746.5 0
9747.5 0
9748.5 0
9749.5 0
9750.5 0
9751.5 0
9752.5 0
9753.5 0
9754.5 0
9755.5 0
9756.5 0
9757.5 0
9758.5 0
9759.5 0
9760.5 0
9761.5 0
9762.5 0
9763.5 0
9764.5 0
9765.5 0
9766.5 0
9767.5 0
9768.5 0
9769.5 0
9770.5 0
9771.5 0
9772.5 0
9773.5 0
9774.5 1
9775.5 1
9776.5 0
9777.5 0
9778.5 1
9779.5 1
9780.5 0
9781.5 0
9782.5 0
9783.5 0
9784.5 0
9785.5 0
9786.5 0
9787.5 0
9788.5 0
9789.5 0
9790.5 0
9791.5 0
9792.5 0
9793.5 0
9794.5 0
9795.5 0
9796.5 0
9797.5 0
9798.5 0
9799.5 0
9800.5 0
9801.5 0
9802.5 0
9803.5 0
9804.5 0
9805.5 0
9806.5 0
9807.5 0
9808.5 0
9809.5 0
9810.5 0
9811.5 0
9812.5 0
9813.5 0
9814.5 1
9815.5 0
9816.5 0
9817.5 0
9818.5 0
9819.5 0
9820.5 0
9821.5 0
9822.5 0
9823.5 0
9824.5 0
9825.5 0
9826.5 0
9827.5 0
9828.5 0
9829.5 0
9830.5 0
9831.5 0
9832.5 1
9833.5 0
9834.5 0
9835.5 0
9836.5 0
9837.5 0
9838.5 1
9839.5 0
9840.5 0
9841.5 0
9842.5 1
9843.5 1
9844.5 0
9845.5 0
9846.5 0
9847.5 0
9848.5 0
9849.5 0
9850.5 0
9851.5 0
9852.5 0
9853.5 1
9854.5 0
9855.5 0
9856.5 0
9857.5 0
9858.5 0
9859.5 0
9860.5 0
9861.5 0
9862.5 0
9863.5 0
9864.5 0
9865.5 0
9866.5 0
9867.5 0
9868.5 0
9869.5 0
9870.5 0
9871.5 -1.85714
9872.5 0
9873.5 0
9874.5 0
9875.5 0
9876.5 0
9877.5 0
9878.5 0
9879.5 0
9880.5 0
9881.5 1
9882.5 0
9883.5 0
9884.5 0
9885.5 2
9886.5 0
9887.5 0
9888.5 0
9889.5 0
9890.5 0
9891.5 0
9892.5 0
9893.5 0
9894.5 0
9895.5 0
9896.5 0
9897.5 0
9898.5 1
9899.5 0
9900.5 0
9901.5 0
9902.5 0
9903.5 0
9904.5 0
9905.5 0
9906.5 0
9907.5 0
9908.5 0
9909.5 0
9910.5 0
9911.5 0
9912.5 0
9913.5 0
9914.5 0
9915.5 -1.85714
9916.5 0
9917.5 0
9918.5 0
9919.5 0
9920.5 0
9921.5 0
9922.5 1
9923.5 -1.85714
9924.5 0
9925.5 0
9926.5 0
9927.5 0
9928.5 0
9929.5 0
9930.5 0
9931.5 0
9932.5 0
9933.5 0
9934.5 0
9935.5 0
9936.5 0
9937.5 0
9938.5 0
9939.5 0
9940.5 1
9941.5 0
9942.5 0
9943.5 0
9944.5 0
9945.5 0
9946.5 0
9947.5 0
9948.5 0
9949.5 0
9950.5 0
9951.5 0
9952.5 0
9953.5 0
9954.5 0
9955.5 0
9956.5 -1.85714
9957.5 0
9958.5 0
9959.5 0
9960.5 0
9961.5 0
9962.5 -1.85714
9963.5 0
9964.5 0
9965.5 0
9966.5 0
9967.5 -1.85714
9968.5 0
9969.5 0
9970.5 0
9971.5 0
9972.5 0
9973.5 0
9974.5 0
9975.5 0
9976.5 0
9977.5 0
9978.5 0
9979.5 0
9980.5 0
9981.5 1
9982.5 0
9983.5 0
9984.5 0
9985.5 0
9986.5 0
9987.5 0
9988.5 0
9989.5 0
9990.5 0
9991.5 0
9992.5 0
9993.5 0
9994.5 0
9995.5 1
9996.5 0
9997.5 0
9998.5 0
9999.5 0
10000.5 0
10001.5 0
10002.5 0
10003.5 0
10004.5 0
10005.5 0
10006.5 0
10007.5 0
10008.5 0
10009.5 0
10010.5 0
10011.5 0
10012.5 0
10013.5 0
10014.5 0
10015.5 0
10016.5 0
10017.5 0
10018.5 0
10019.5 0
10020.5 0
10021.5 0
10022.5 0
10023.5 0
10024.5 0
10025.5 0
10026.5 1
10027.5 0
10028.5 0
10029.5 0
10030.5 0
10031.5 0
10032.5 0
10033.5 0
10034.5 0
10035.5 0
10036.5 0
10037.5 0
10038.5 0
10039.5 0
10040.5 0
10041.5 0
10042.5 0
10043.5 0
10044.5 0
10045.5 -1.85714
10046.5 0
10047.5 0
10048.5 0
10049.5 0
10050.5 0
10051.5 0
10052.5 0
10053.5 0
10054.5 0
10055.5 0
10056.5 0
10057.5 0
10058.5 0
10059.5 0
10060.5 0
10061.5 0
10062.5 0
10063.5 0
10064.5 0
10065.5 0
10066.5 0
10067.5 0
10068.5 0
10069.5 0
10070.5 0
10071.5 0
10072.5 0
10073.5 1
10074.5 0
10075.5 0
10076.5 0
10077.5 0
10078.5 0
10079.5 0
10080.5 0
10081.5 0
10082.5 0
10083.5 0
10084.5 0
10085.5 0
10086.5 0
10087.5 -1.85714
10088.5 0
10089.5 0
10090.5 0
10091.5 0
10092.5 0
10093.5 0
10094.5 0
10095.5 0
10096.5 0
10097.5 0
10098.5 -1.85714
10099.5 0
10100.5 0
10101.5 0
10102.5 0
10103.5 0
10104.5 0
10105.5 0
10106.5 0
10107.5 0
10108.5 0
10109.5 0
10110.5 0
10111.5 0
10112.5 0
10113.5 0
10114.5 0
10115.5 0
10116.5 0
10117.5 0
10118.5 -3.71429
10119.5 0
10120.5 0
10121.5 0
10122.5 0
10123.5 0
10124.5 0
10125.5 0
10126.5 0
10127.5 0
10128.5 0
10129.5 0
10130.5 0
10131.5 0
10132.5 0
10133.5 0
10134.5 0
10135.5 0
10136.5 0
10137.5 0
10138.5 0
10139.5 0
10140.5 0
10141.5 0
10142.5 0
10143.5 0
10144.5 0
10145.5 0
10146.5 0
10147.5 0
10148.5 0
10149.5 0
10150.5 0
10151.5 0
10152.5 0
10153.5 0
10154.5 0
10155.5 0
10156.5 0
10157.5 0
10158.5 0
10159.5 0
10160.5 1
10161.5 0
10162.5 0
10163.5 0
10164.5 0
10165.5 0
10166.5 0
10167.5 0
10168.5 0
10169.5 0
10170.5 0
10171.5 0
10172.5 0
10173.5 0
10174.5 0
10175.5 0
10176.5 0
10177.5 0
10178.5 0
10179.5 0
10180.5 0
10181.5 0
10182.5 0
10183.5 0
10184.5 0
10185.5 0
10186.5 0
10187.5 0
10188.5 0
10189.5 0
10190.5 -1.85714
10191.5 0
10192.5 0
10193.5 0
10194.5 0
10195.5 0
10196.5 0
10197.5 0
10198.5 0
10199.5 0
10200.5 0
10201.5 0
10202.5 0
10203.5 0
10204.5 0
10205.5 0
10206.5 0
10207.5 0
10208.5 0
10209.5 0
10210.5 0
10211.5 0
10212.5 0
10213.5 0
10214.5 0
10215.5 0
10216.5 0
10217.5 0
10218.5 0
10219.5 0
10220.5 0
10221.5 0
10222.5 0
10223.5 0
10224.5 0
10225.5 0
10226.5 0
10227.5 1
10228.5 0
10229.5 0
10230.5 0
10231.5 0
10232.5 0
10233.5 0
10234.5 0
10235.5 0
10236.5 0
10237.5 2
10238.5 0
10239.5 0
10240.5 0
10241.5 0
10242.5 0
10243.5 0
10244.5 0
10245.5 0
10246.5 0
10247.5 0
10248.5 0
10249.5 0
10250.5 0
10251.5 0
10252.5 0
10253.5 0
10254.5 0
10255.5 0
10256.5 0
10257.5 0
10258.5 0
10259.5 0
10260.5 0
10261.5 0
10262.5 0
10263.5 0
10264.5 1
10265.5 0
10266.5 0
10267.5 0
10268.5 0
10269.5 0
10270.5 0
10271.5 0
10272.5 0
10273.5 0
10274.5 0
10275.5 0
10276.5 0
10277.5 0
10278.5 0
10279.5 0
10280.5 0
10281.5 0
10282.5 0
10283.5 0
10284.5 0
10285.5 0
10286.5 0
10287.5 0
10288.5 0
10289.5 0
10290.5 0
10291.5 0
10292.5 0
10293.5 0
10294.5 0
10295.5 1
10296.5 0
10297.5 0
10298.5 0
10299.5 0
10300.5 0
10301.5 0
10302.5 0
10303.5 0
10304.5 0
10305.5 0
10306.5 0
10307.5 0
10308.5 0
10309.5 0
10310.5 0
10311.5 0
10312.5 0
10313.5 0
10314.5 0
10315.5 0
10316.5 0
10317.5 0
10318.5 0
10319.5 0
10320.5 0
10321.5 0
10322.5 0
10323.5 0
10324.5 0
10325.5 0
10326.5 0
10327.5 0
10328.5 0
10329.5 0
10330.5 0
10331.5 0
10332.5 0
10333.5 0
10334.5 0
10335.5 0
10336.5 0
10337.5 1
10338.5 0
10339.5 0
10340.5 0
10341.5 0
10342.5 0
10343.5 0
10344.5 0
10345.5 0
10346.5 0
10347.5 0
10348.5 0
10349.5 0
10350.5 0
10351.5 0
10352.5 0
10353.5 0
10354.5 0
10355.5 0
10356.5 0
10357.5 0
10358.5 0
10359.5 0
10360.5 0
10361.5 0
10362.5 0
10363.5 0
10364.5 0
10365.5 0
10366.5 0
10367.5 0
10368.5 0
10369.5 0
10370.5 0
10371.5 0
10372.5 0
10373.5 0
10374.5 0
10375.5 0
10376.5 0
10377.5 0
10378.5 0
10379.5 0
10380.5 0
10381.5 0
10382.5 0
10383.5 0
10384.5 1
10385.5 0
10386.5 0
10387.5 0
10388.5 0
10389.5 0
10390.5 1
10391.5 0
10392.5 0
10393.5 0
10394.5 0
10395.5 0
10396.5 0
10397.5 0
10398.5 0
10399.5 0
10400.5 0
10401.5 0
10402.5 0
10403.5 0
10404.5 0
10405.5 0
10406.5 0
10407.5 0
10408.5 0
10409.5 0
10410.5 0
10411.5 0
10412.5 0
10413.5 0
10414.5 0
10415.5 0
10416.5 0
10417.5 0
10418.5 0
10419.5 0
10420.5 0
10421.5 0
10422.5 0
10423.5 0
10424.5 0
10425.5 1
10426.5 0
10427.5 0
10428.5 0
10429.5 0
10430.5 0
10431.5 0
10432.5 0
10433.5 0
10434.5 0
10435.5 0
10436.5 0
10437.5 0
10438.5 0
10439.5 0
10440.5 0
10441.5 0
10442.5 0
10443.5 0
10444.5 0
10445.5 0
10446.5 0
10447.5 0
10448.5 0
10449.5 0
10450.5 0
10451.5 0
10452.5 0
10453.5 0
10454.5 0
10455.5 0
10456.5 0
10457.5 0
10458.5 0
10459.5 0
10460.5 0
10461.5 0
10462.5 0
10463.5 0
10464.5 0
10465.5 0
10466.5 0
10467.5 0
10468.5 0
10469.5 0
10470.5 0
10471.5 0
10472.5 0
10473.5 0
10474.5 0
10475.5 0
10476.5 0
10477.5 0
10478.5 0
10479.5 0
10480.5 0
10481.5 0
10482.5 0
10483.5 0
10484.5 0
10485.5 1
10486.5 0
10487.5 0
10488.5 0
10489.5 0
10490.5 0
10491.5 0
10492.5 0
10493.5 0
10494.5 1
10495.5 0
10496.5 0
10497.5 0
10498.5 0
10499.5 0
10500.5 0
10501.5 0
10502.5 0
10503.5 0
10504.5 0
10505.5 0
10506.5 0
10507.5 0
10508.5 0
10509.5 0
10510.5 0
10511.5 0
10512.5 0
10513.5 0
10514.5 0
10515.5 0
10516.5 0
10517.5 0
10518.5 0
10519.5 0
10520.5 0
10521.5 0
10522.5 0
10523.5 0
10524.5 0
10525.5 0
10526.5 0
10527.5 0
10528.5 0
10529.5 0
10530.5 0
10531.5 0
10532.5 0
10533.5 0
10534.5 0
10535.5 0
10536.5 0
10537.5 0
10538.5 0
10539.5 0
10540.5 0
10541.5 0
10542.5 0
10543.5 0
10544.5 0
10545.5 0
10546.5 0
10547.5 0
10548.5 0
10549.5 0
10550.5 0
10551.5 0
10552.5 1
10553.5 0
10554.5 0
10555.5 1
10556.5 0
10557.5 0
10558.5 0
10559.5 0
10560.5 0
10561.5 0
10562.5 0
10563.5 0
10564.5 0
10565.5 0
10566.5 0
10567.5 0
10568.5 0
10569.5 0
10570.5 0
10571.5 0
10572.5 0
10573.5 0
10574.5 0
10575.5 0
10576.5 0
10577.5 0
10578.5 0
10579.5 0
10580.5 0
10581.5 1
10582.5 0
10583.5 0
10584.5 0
10585.5 0
10586.5 0
10587.5 0
10588.5 0
10589.5 0
10590.5 0
10591.5 0
10592.5 0
10593.5 0
10594.5 0
10595.5 0
10596.5 1
10597.5 0
10598.5 0
10599.5 0
10600.5 0
10601.5 1
10602.5 0
10603.5 0
10604.5 0
10605.5 0
10606.5 0
10607.5 0
10608.5 0
10609.5 0
10610.5 0
10611.5 0
10612.5 0
10613.5 0
10614.5 0
10615.5 0
10616.5 0
10617.5 0
10618.5 0
10619.5 0
10620.5 0
10621.5 0
10622.5 0
10623.5 0
10624.5 0
10625.5 0
10626.5 0
10627.5 0
10628.5 0
10629.5 0
10630.5 0
10631.5 0
10632.5 0
10633.5 0
10634.5 0
10635.5 0
10636.5 0
10637.5 0
10638.5 0
10639.5 0
10640.5 0
10641.5 0
10642.5 0
10643.5 0
10644.5 0
10645.5 0
10646.5 0
10647.5 1
10648.5 0
10649.5 0
10650.5 0
10651.5 0
10652.5 0
10653.5 0
10654.5 0
10655.5 0
10656.5 0
10657.5 0
10658.5 0
10659.5 0
10660.5 0
10661.5 0
10662.5 0
10663.5 0
10664.5 0
10665.5 0
10666.5 0
10667.5 0
10668.5 0
10669.5 0
10670.5 0
10671.5 0
10672.5 0
10673.5 0
10674.5 0
10675.5 0
10676.5 0
10677.5 0
10678.5 0
10679.5 0
10680.5 0
10681.5 0
10682.5 0
10683.5 0
10684.5 0
10685.5 0
10686.5 0
10687.5 0
10688.5 0
10689.5 0
10690.5 0
10691.5 0
10692.5 0
10693.5 0
10694.5 0
10695.5 0
10696.5 0
10697.5 0
10698.5 0
10699.5 1
10700.5 0
10701.5 0
10702.5 0
10703.5 0
10704.5 0
10705.5 0
10706.5 0
10707.5 0
10708.5 0
10709.5 0
10710.5 0
10711.5 0
10712.5 0
10713.5 0
10714.5 0
10715.5 0
10716.5 0
10717.5 0
10718.5 0
10719.5 0
10720.5 0
10721.5 0
10722.5 0
10723.5 0
10724.5 0
10725.5 0
10726.5 0
10727.5 0
10728.5 0
10729.5 0
10730.5 0
10731.5 0
10732.5 0
10733.5 0
10734.5 0
10735.5 0
10736.5 0
10737.5 0
10738.5 0
10739.5 0
10740.5 0
10741.5 0
10742.5 0
10743.5 0
10744.5 0
10745.5 0
10746.5 1
10747.5 0
10748.5 0
10749.5 0
10750.5 1
10751.5 0
10752.5 0
10753.5 0
10754.5 0
10755.5 0
10756.5 0
10757.5 0
10758.5 0
10759.5 0
10760.5 0
10761.5 0
10762.5 0
10763.5 0
10764.5 0
10765.5 0
10766.5 0
10767.5 0
10768.5 0
10769.5 0
10770.5 0
10771.5 0
10772.5 0
10773.5 0
10774.5 0
10775.5 0
10776.5 0
10777.5 0
10778.5 0
10779.5 0
10780.5 1
10781.5 0
10782.5 0
10783.5 0
10784.5 0
10785.5 0
10786.5 0
10787.5 0
10788.5 0
10789.5 0
10790.5 0
10791.5 0
10792.5 0
10793.5 0
10794.5 0
10795.5 0
10796.5 0
10797.5 0
10798.5 0
10799.5 0
10800.5 0
10801.5 0
10802.5 0
10803.5 0
10804.5 0
10805.5 0
10806.5 0
10807.5 0
10808.5 0
10809.5 0
10810.5 0
10811.5 0
10812.5 0
10813.5 0
10814.5 0
10815.5 0
10816.5 0
10817.5 0
10818.5 0
10819.5 0
10820.5 0
10821.5 0
10822.5 0
10823.5 0
10824.5 0
10825.5 0
10826.5 0
10827.5 0
10828.5 0
10829.5 0
10830.5 0
10831.5 0
10832.5 0
10833.5 0
10834.5 0
10835.5 0
10836.5 0
10837.5 0
10838.5 0
10839.5 0
10840.5 0
10841.5 0
10842.5 0
10843.5 0
10844.5 0
10845.5 0
10846.5 0
10847.5 0
10848.5 -1.85714
10849.5 0
10850.5 0
10851.5 0
10852.5 0
10853.5 0
10854.5 0
10855.5 0
10856.5 0
10857.5 0
10858.5 0
10859.5 0
10860.5 0
10861.5 0
10862.5 0
10863.5 0
10864.5 1
10865.5 0
10866.5 0
10867.5 0
10868.5 0
10869.5 0
10870.5 0
10871.5 0
10872.5 0
10873.5 0
10874.5 0
10875.5 0
10876.5 0
10877.5 0
10878.5 0
10879.5 0
10880.5 0
10881.5 0
10882.5 1
10883.5 0
10884.5 0
10885.5 0
10886.5 0
10887.5 0
10888.5 0
10889.5 0
10890.5 0
10891.5 0
10892.5 0
10893.5 1
10894.5 0
10895.5 0
10896.5 0
10897.5 0
10898.5 0
10899.5 0
10900.5 0
10901.5 0
10902.5 0
10903.5 0
10904.5 0
10905.5 0
10906.5 0
10907.5 0
10908.5 0
10909.5 0
10910.5 0
10911.5 0
10912.5 0
10913.5 0
10914.5 0
10915.5 0
10916.5 0
10917.5 0
10918.5 0
10919.5 0
10920.5 0
10921.5 0
10922.5 0
10923.5 0
10924.5 0
10925.5 0
10926.5 0
10927.5 0
10928.5 0
10929.5 0
10930.5 0
10931.5 0
10932.5 0
10933.5 0
10934.5 0
10935.5 0
10936.5 0
10937.5 0
10938.5 0
10939.5 0
10940.5 0
10941.5 0
10942.5 0
10943.5 0
10944.5 0
10945.5 0
10946.5 0
10947.5 0
10948.5 0
10949.5 0
10950.5 0
10951.5 0
10952.5 0
10953.5 0
10954.5 0
10955.5 0
10956.5 0
10957.5 0
10958.5 0
10959.5 0
10960.5 0
10961.5 0
10962.5 0
10963.5 0
10964.5 0
10965.5 0
10966.5 0
10967.5 0
10968.5 0
10969.5 0
10970.5 0
10971.5 0
10972.5 0
10973.5 0
10974.5 0
10975.5 0
10976.5 0
10977.5 0
10978.5 0
10979.5 0
10980.5 0
10981.5 0
10982.5 0
10983.5 0
10984.5 0
10985.5 0
10986.5 0
10987.5 0
10988.5 0
10989.5 0
10990.5 0
10991.5 0
10992.5 0
10993.5 0
10994.5 0
10995.5 0
10996.5 0
10997.5 0
10998.5 0
10999.5 0
11000.5 0
11001.5 0
11002.5 0
11003.5 0
11004.5 0
11005.5 0
11006.5 0
11007.5 -1.85714
11008.5 0
11009.5 0
11010.5 0
11011.5 0
11012.5 0
11013.5 0
11014.5 0
11015.5 0
11016.5 0
11017.5 0
11018.5 0
11019.5 0
11020.5 0
11021.5 0
11022.5 0
11023.5 0
11024.5 0
11025.5 0
11026.5 0
11027.5 0
11028.5 0
11029.5 0
11030.5 0
11031.5 0
11032.5 0
11033.5 0
11034.5 0
11035.5 0
11036.5 0
11037.5 0
11038.5 0
11039.5 0
11040.5 0
11041.5 0
11042.5 0
11043.5 0
11044.5 0
11045.5 0
11046.5 0
11047.5 0
11048.5 0
11049.5 0
11050.5 0
11051.5 0
11052.5 0
11053.5 0
11054.5 0
11055.5 0
11056.5 0
11057.5 0
11058.5 0
11059.5 0
11060.5 0
11061.5 0
11062.5 0
11063.5 0
11064.5 0
11065.5 0
11066.5 0
11067.5 0
11068.5 0
11069.5 0
11070.5 0
11071.5 0
11072.5 0
11073.5 0
11074.5 0
11075.5 0
11076.5 0
11077.5 0
11078.5 1
11079.5 0
11080.5 1
11081.5 0
11082.5 0
11083.5 0
11084.5 0
11085.5 0
11086.5 0
11087.5 0
11088.5 0
11089.5 0
11090.5 0
11091.5 0
11092.5 0
11093.5 0
11094.5 0
11095.5 0
11096.5 0
11097.5 0
11098.5 0
11099.5 0
11100.5 0
11101.5 0
11102.5 0
11103.5 0
11104.5 0
11105.5 0
11106.5 0
11107.5 0
11108.5 0
11109.5 0
11110.5 0
11111.5 0
11112.5 0
11113.5 0
11114.5 0
11115.5 0
11116.5 0
11117.5 0
11118.5 0
11119.5 0
11120.5 0
11121.5 0
11122.5 0
11123.5 0
11124.5 0
11125.5 0
11126.5 0
11127.5 0
11128.5 0
11129.5 0
11130.5 0
11131.5 0
11132.5 0
11133.5 0
11134.5 0
11135.5 0
11136.5 0
11137.5 0
11138.5 0
11139.5 0
11140.5 0
11141.5 0
11142.5 0
11143.5 0
11144.5 0
11145.5 0
11146.5 0
11147.5 0
11148.5 0
11149.5 0
11150.5 0
11151.5 0
11152.5 0
11153.5 0
11154.5 0
11155.5 0
11156.5 0
11157.5 0
11158.5 0
11159.5 0
11160.5 0
11161.5 0
11162.5 0
11163.5 0
11164.5 0
11165.5 -1.85714
11166.5 0
11167.5 0
11168.5 0
11169.5 0
11170.5 0
11171.5 0
11172.5 0
11173.5 0
11174.5 0
11175.5 0
11176.5 0
11177.5 0
11178.5 0
11179.5 0
11180.5 0
11181.5 0
11182.5 0
11183.5 0
11184.5 0
11185.5 0
11186.5 0
11187.5 0
11188.5 0
11189.5 0
11190.5 0
11191.5 0
11192.5 0
11193.5 0
11194.5 0
11195.5 0
11196.5 0
11197.5 0
11198.5 0
11199.5 0
11200.5 0
11201.5 0
11202.5 0
11203.5 0
11204.5 0
11205.5 0
11206.5 0
11207.5 0
11208.5 0
11209.5 0
11210.5 0
11211.5 0
11212.5 -1.85714
11213.5 0
11214.5 0
11215.5 0
11216.5 0
11217.5 0
11218.5 0
11219.5 0
11220.5 0
11221.5 0
11222.5 0
11223.5 0
11224.5 0
11225.5 0
11226.5 0
11227.5 0
11228.5 0
11229.5 0
11230.5 0
11231.5 0
11232.5 0
11233.5 0
11234.5 0
11235.5 0
11236.5 0
11237.5 0
11238.5 0
11239.5 0
11240.5 0
11241.5 0
11242.5 0
11243.5 0
11244.5 0
11245.5 0
11246.5 0
11247.5 0
11248.5 0
11249.5 0
11250.5 0
11251.5 0
11252.5 0
11253.5 0
11254.5 0
11255.5 0
11256.5 0
11257.5 0
11258.5 0
11259.5 0
11260.5 0
11261.5 1
11262.5 0
11263.5 0
11264.5 0
11265.5 0
11266.5 0
11267.5 0
11268.5 0
11269.5 0
11270.5 0
11271.5 0
11272.5 0
11273.5 0
11274.5 0
11275.5 0
11276.5 0
11277.5 0
11278.5 0
11279.5 0
11280.5 0
11281.5 0
11282.5 0
11283.5 0
11284.5 0
11285.5 0
11286.5 0
11287.5 0
11288.5 0
11289.5 0
11290.5 0
11291.5 0
11292.5 0
11293.5 0
11294.5 0
11295.5 0
11296.5 0
11297.5 0
11298.5 0
11299.5 0
11300.5 0
11301.5 0
11302.5 0
11303.5 0
11304.5 0
11305.5 0
11306.5 0
11307.5 0
11308.5 0
11309.5 0
11310.5 0
11311.5 0
11312.5 0
11313.5 0
11314.5 0
11315.5 0
11316.5 0
11317.5 0
11318.5 0
11319.5 0
11320.5 0
11321.5 0
11322.5 0
11323.5 0
11324.5 0
11325.5 0
11326.5 0
11327.5 0
11328.5 0
11329.5 0
11330.5 0
11331.5 0
11332.5 0
11333.5 0
11334.5 0
11335.5 0
11336.5 0
11337.5 0
11338.5 0
11339.5 0
11340.5 0
11341.5 0
11342.5 0
11343.5 0
11344.5 0
11345.5 0
11346.5 0
11347.5 0
11348.5 0
11349.5 0
11350.5 0
11351.5 0
11352.5 0
11353.5 0
11354.5 0
11355.5 0
11356.5 0
11357.5 0
11358.5 0
11359.5 0
11360.5 0
11361.5 0
11362.5 0
11363.5 0
11364.5 0
11365.5 0
11366.5 0
11367.5 0
11368.5 0
11369.5 0
11370.5 0
11371.5 0
11372.5 0
11373.5 0
11374.5 0
11375.5 0
11376.5 0
11377.5 0
11378.5 0
11379.5 0
11380.5 0
11381.5 0
11382.5 0
11383.5 0
11384.5 0
11385.5 0
11386.5 0
11387.5 0
11388.5 0
11389.5 -1.85714
11390.5 0
11391.5 0
11392.5 0
11393.5 0
11394.5 0
11395.5 0
11396.5 0
11397.5 0
11398.5 0
11399.5 0
11400.5 0
11401.5 0
11402.5 0
11403.5 0
11404.5 0
11405.5 0
11406.5 0
11407.5 0
11408.5 0
11409.5 0
11410.5 0
11411.5 0
11412.5 0
11413.5 0
11414.5 0
11415.5 0
11416.5 0
11417.5 0
11418.5 0
11419.5 0
11420.5 0
11421.5 0
11422.5 0
11423.5 0
11424.5 0
11425.5 0
11426.5 0
11427.5 0
11428.5 0
11429.5 0
11430.5 0
11431.5 0
11432.5 0
11433.5 0
11434.5 0
11435.5 0
11436.5 0
11437.5 0
11438.5 0
11439.5 0
11440.5 0
11441.5 1
11442.5 0
11443.5 0
11444.5 0
11445.5 0
11446.5 0
11447.5 0
11448.5 0
11449.5 0
11450.5 0
11451.5 0
11452.5 0
11453.5 0
11454.5 0
11455.5 0
11456.5 0
11457.5 0
11458.5 0
11459.5 0
11460.5 0
11461.5 0
11462.5 0
11463.5 0
11464.5 0
11465.5 0
11466.5 0
11467.5 0
11468.5 0
11469.5 0
11470.5 0
11471.5 0
11472.5 0
11473.5 0
11474.5 0
11475.5 0
11476.5 0
11477.5 0
11478.5 0
11479.5 0
11480.5 0
11481.5 0
11482.5 0
11483.5 0
11484.5 0
11485.5 0
11486.5 0
11487.5 0
11488.5 0
11489.5 0
11490.5 0
11491.5 0
11492.5 0
11493.5 0
11494.5 0
11495.5 0
11496.5 0
11497.5 0
11498.5 0
11499.5 0
11500.5 0
11501.5 0
11502.5 0
11503.5 0
11504.5 0
11505.5 0
11506.5 0
11507.5 0
11508.5 0
11509.5 0
11510.5 0
11511.5 0
11512.5 0
11513.5 0
11514.5 0
11515.5 0
11516.5 0
11517.5 0
11518.5 0
11519.5 0
11520.5 0
11521.5 0
11522.5 0
11523.5 0
11524.5 0
11525.5 0
11526.5 0
11527.5 0
11528.5 0
11529.5 0
11530.5 0
11531.5 0
11532.5 0
11533.5 0
11534.5 0
11535.5 0
11536.5 0
11537.5 0
11538.5 0
11539.5 0
11540.5 0
11541.5 0
11542.5 0
11543.5 0
11544.5 0
11545.5 0
11546.5 0
11547.5 0
11548.5 0
11549.5 0
11550.5 0
11551.5 0
11552.5 0
11553.5 0
11554.5 0
11555.5 0
11556.5 0
11557.5 0
11558.5 0
11559.5 0
11560.5 0
11561.5 0
11562.5 0
11563.5 0
11564.5 0
11565.5 0
11566.5 0
11567.5 0
11568.5 0
11569.5 0
11570.5 0
11571.5 0
11572.5 0
11573.5 0
11574.5 0
11575.5 0
11576.5 0
11577.5 0
11578.5 0
11579.5 0
11580.5 0
11581.5 0
11582.5 0
11583.5 0
11584.5 0
11585.5 0
11586.5 0
11587.5 0
11588.5 0
11589.5 0
11590.5 0
11591.5 0
11592.5 0
11593.5 0
11594.5 0
11595.5 0
11596.5 0
11597.5 0
11598.5 0
11599.5 0
11600.5 0
11601.5 0
11602.5 0
11603.5 0
11604.5 0
11605.5 0
11606.5 0
11607.5 0
11608.5 0
11609.5 0
11610.5 0
11611.5 0
11612.5 0
11613.5 0
11614.5 0
11615.5 0
11616.5 0
11617.5 0
11618.5 0
11619.5 0
11620.5 0
11621.5 0
11622.5 0
11623.5 0
11624.5 0
11625.5 0
11626.5 0
11627.5 0
11628.5 0
11629.5 0
11630.5 1
11631.5 0
11632.5 0
11633.5 0
11634.5 0
11635.5 0
11636.5 0
11637.5 0
11638.5 0
11639.5 1
11640.5 0
11641.5 0
11642.5 0
11643.5 0
11644.5 0
11645.5 0
11646.5 0
11647.5 0
11648.5 0
11649.5 0
11650.5 0
11651.5 0
11652.5 0
11653.5 0
11654.5 0
11655.5 0
11656.5 1
11657.5 0
11658.5 0
11659.5 0
11660.5 0
11661.5 0
11662.5 0
11663.5 0
11664.5 0
11665.5 0
11666.5 0
11667.5 0
11668.5 0
11669.5 0
11670.5 0
11671.5 0
11672.5 0
11673.5 0
11674.5 0
11675.5 0
11676.5 0
11677.5 0
11678.5 0
11679.5 0
11680.5 0
11681.5 0
11682.5 0
11683.5 0
11684.5 0
11685.5 0
11686.5 0
11687.5 0
11688.5 0
11689.5 0
11690.5 0
11691.5 0
11692.5 0
11693.5 0
11694.5 0
11695.5 0
11696.5 0
11697.5 0
11698.5 0
11699.5 0
11700.5 0
11701.5 0
11702.5 0
11703.5 0
11704.5 0
11705.5 0
11706.5 0
11707.5 0
11708.5 0
11709.5 0
11710.5 0
11711.5 0
11712.5 0
11713.5 0
11714.5 0
11715.5 0
11716.5 0
11717.5 0
11718.5 0
11719.5 0
11720.5 0
11721.5 0
11722.5 0
11723.5 0
11724.5 0
11725.5 0
11726.5 0
11727.5 0
11728.5 0
11729.5 0
11730.5 0
11731.5 0
11732.5 0
11733.5 0
11734.5 0
11735.5 0
11736.5 0
11737.5 0
11738.5 0
11739.5 0
11740.5 0
11741.5 0
11742.5 0
11743.5 0
11744.5 0
11745.5 0
11746.5 0
11747.5 0
11748.5 0
11749.5 0
11750.5 0
11751.5 0
11752.5 0
11753.5 1
11754.5 0
11755.5 0
11756.5 0
11757.5 0
11758.5 0
11759.5 0
11760.5 0
11761.5 0
11762.5 0
11763.5 0
11764.5 0
11765.5 0
11766.5 0
11767.5 0
11768.5 0
11769.5 0
11770.5 0
11771.5 0
11772.5 0
11773.5 0
11774.5 0
11775.5 0
11776.5 0
11777.5 0
11778.5 0
11779.5 0
11780.5 0
11781.5 0
11782.5 0
11783.5 0
11784.5 0
11785.5 1
11786.5 0
11787.5 0
11788.5 0
11789.5 0
11790.5 0
11791.5 0
11792.5 0
11793.5 0
11794.5 0
11795.5 0
11796.5 0
11797.5 0
11798.5 0
11799.5 0
11800.5 0
11801.5 0
11802.5 0
11803.5 0
11804.5 0
11805.5 0
11806.5 0
11807.5 0
11808.5 0
11809.5 0
11810.5 0
11811.5 0
11812.5 0
11813.5 0
11814.5 0
11815.5 0
11816.5 0
11817.5 0
11818.5 0
11819.5 0
11820.5 0
11821.5 0
11822.5 0
11823.5 0
11824.5 0
11825.5 0
11826.5 0
11827.5 0
11828.5 0
11829.5 0
11830.5 0
11831.5 0
11832.5 0
11833.5 0
11834.5 0
11835.5 0
11836.5 0
11837.5 0
11838.5 0
11839.5 0
11840.5 0
11841.5 0
11842.5 0
11843.5 0
11844.5 0
11845.5 0
11846.5 0
11847.5 0
11848.5 0
11849.5 0
11850.5 0
11851.5 0
11852.5 0
11853.5 0
11854.5 0
11855.5 0
11856.5 0
11857.5 0
11858.5 0
11859.5 0
11860.5 0
11861.5 0
11862.5 0
11863.5 0
11864.5 0
11865.5 0
11866.5 0
11867.5 0
11868.5 0
11869.5 0
11870.5 0
11871.5 0
11872.5 0
11873.5 0
11874.5 0
11875.5 0
11876.5 0
11877.5 0
11878.5 0
11879.5 0
11880.5 0
11881.5 0
11882.5 0
11883.5 0
11884.5 0
11885.5 0
11886.5 0
11887.5 0
11888.5 0
11889.5 0
11890.5 0
11891.5 0
11892.5 0
11893.5 0
11894.5 1
11895.5 0
11896.5 0
11897.5 0
11898.5 0
11899.5 0
11900.5 0
11901.5 0
11902.5 0
11903.5 0
11904.5 0
11905.5 0
11906.5 0
11907.5 0
11908.5 0
11909.5 0
11910.5 0
11911.5 0
11912.5 -1.85714
11913.5 0
11914.5 0
11915.5 0
11916.5 0
11917.5 0
11918.5 0
11919.5 0
11920.5 0
11921.5 0
11922.5 0
11923.5 0
11924.5 0
11925.5 0
11926.5 0
11927.5 0
11928.5 0
11929.5 0
11930.5 0
11931.5 0
11932.5 0
11933.5 0
11934.5 0
11935.5 0
11936.5 0
11937.5 0
11938.5 0
11939.5 0
11940.5 0
11941.5 0
11942.5 0
11943.5 0
11944.5 0
11945.5 0
11946.5 0
11947.5 0
11948.5 0
11949.5 0
11950.5 0
11951.5 0
11952.5 0
11953.5 0
11954.5 0
11955.5 0
11956.5 0
11957.5 0
11958.5 0
11959.5 0
11960.5 0
11961.5 0
11962.5 0
11963.5 0
11964.5 0
11965.5 0
11966.5 0
11967.5 0
11968.5 0
11969.5 0
11970.5 0
11971.5 0
11972.5 0
11973.5 0
11974.5 0
11975.5 0
11976.5 0
11977.5 0
11978.5 0
11979.5 0
11980.5 0
11981.5 0
11982.5 0
11983.5 0
11984.5 0
11985.5 0
11986.5 0
11987.5 0
11988.5 0
11989.5 0
11990.5 0
11991.5 0
11992.5 0
11993.5 0
11994.5 0
11995.5 0
11996.5 0
11997.5 0
11998.5 0
11999.5 0
