# EGG_ProjY_E5829.5(7.5)_B5806.0(4.0)_B5852.0(3.0)
# X axis : Energy (keV) [Y axis]
# Y axis : Counts/1 keV
# N Bins : 12000
# X Min : 0
# X Max : 12000
# X value at the center of the bins
0.5 0
1.5 0
2.5 0
3.5 0
4.5 0
5.5 55.6429
6.5 46.3572
7.5 25.7143
8.5 -9.85714
9.5 -3.78571
10.5 26.5
11.5 -2.14285
12.5 37.4286
13.5 28.8572
14.5 16.5
15.5 46.1429
16.5 83.7857
17.5 19.9286
18.5 42.9286
19.5 68.9286
20.5 27.8572
21.5 114.071
22.5 137.071
23.5 165.214
24.5 119.429
25.5 184.286
26.5 170.5
27.5 306
28.5 231.786
29.5 348.429
30.5 309.929
31.5 339.143
32.5 328.214
33.5 391.929
34.5 385.714
35.5 349
36.5 415
37.5 366.286
38.5 364.286
39.5 429
40.5 404.786
41.5 344.857
42.5 389
43.5 377.857
44.5 433.929
45.5 348.071
46.5 397.786
47.5 384.786
48.5 510.143
49.5 367.929
50.5 508.357
51.5 409.429
52.5 547.5
53.5 515.857
54.5 472.571
55.5 449.214
56.5 523.5
57.5 529.214
58.5 752.857
59.5 794.857
60.5 610.286
61.5 505
62.5 493.357
63.5 558.643
64.5 669.929
65.5 577.643
66.5 624.143
67.5 634.071
68.5 650.429
69.5 587.857
70.5 612.214
71.5 604.143
72.5 578.643
73.5 815.143
74.5 960.786
75.5 1115.71
76.5 1057.79
77.5 1231.57
78.5 739.214
79.5 670.214
80.5 399.286
81.5 569.071
82.5 517.571
83.5 578.214
84.5 558.214
85.5 558.643
86.5 743.5
87.5 804.357
88.5 584.286
89.5 593.571
90.5 559.786
91.5 493.857
92.5 363.071
93.5 311.643
94.5 482.786
95.5 306.357
96.5 395.286
97.5 429.643
98.5 453.571
99.5 539.286
100.5 426.643
101.5 469.286
102.5 580.5
103.5 448
104.5 513.286
105.5 428
106.5 611.643
107.5 439.643
108.5 674.643
109.5 514.357
110.5 473.857
111.5 575.643
112.5 774.286
113.5 385.214
114.5 526.5
115.5 444.786
116.5 463
117.5 524.071
118.5 559.857
119.5 545.357
120.5 638.071
121.5 574.357
122.5 454.929
123.5 620.143
124.5 684.643
125.5 695.571
126.5 667.214
127.5 607.571
128.5 634.857
129.5 780.786
130.5 674.143
131.5 814.5
132.5 935.5
133.5 997.643
134.5 861.357
135.5 886.143
136.5 964.786
137.5 811.571
138.5 1032.21
139.5 961
140.5 887.357
141.5 838
142.5 825.072
143.5 803.143
144.5 760
145.5 564.5
146.5 524.5
147.5 443
148.5 616.286
149.5 593.857
150.5 553.929
151.5 575.072
152.5 769.643
153.5 671
154.5 650.572
155.5 703.857
156.5 635.429
157.5 591.072
158.5 691
159.5 757.714
160.5 716.572
161.5 595.429
162.5 721
163.5 926
164.5 946.072
165.5 861.286
166.5 1143.64
167.5 1003.29
168.5 1381.14
169.5 1144.79
170.5 1066.5
171.5 1018.43
172.5 1114.21
173.5 1120.5
174.5 1169.5
175.5 981.5
176.5 762.357
177.5 681.643
178.5 601.143
179.5 542.572
180.5 476.929
181.5 414.072
182.5 629
183.5 445.286
184.5 446.643
185.5 502.143
186.5 501.929
187.5 660.072
188.5 572.5
189.5 420.572
190.5 660.214
191.5 429
192.5 507
193.5 633.929
194.5 622.357
195.5 647.572
196.5 911.786
197.5 1061.43
198.5 1234.21
199.5 1168.07
200.5 1198.86
201.5 1233.64
202.5 1275.21
203.5 1364.86
204.5 1295.71
205.5 1242.64
206.5 1267.86
207.5 1258.86
208.5 1177
209.5 1296.93
210.5 1071.86
211.5 885.786
212.5 908.643
213.5 1033.29
214.5 916.357
215.5 775.929
216.5 922.643
217.5 986.571
218.5 939.714
219.5 748.286
220.5 873.286
221.5 823.429
222.5 632.5
223.5 650.357
224.5 714.643
225.5 587
226.5 538
227.5 408.857
228.5 495.572
229.5 556.143
230.5 625.929
231.5 635.143
232.5 688.214
233.5 666.143
234.5 726.786
235.5 821.357
236.5 785.143
237.5 883.5
238.5 807.571
239.5 802.929
240.5 835.643
241.5 830.214
242.5 843.643
243.5 679.286
244.5 788.5
245.5 825.214
246.5 736.571
247.5 797.929
248.5 673.857
249.5 585.143
250.5 675.929
251.5 798.857
252.5 780.857
253.5 576.357
254.5 665.071
255.5 626.857
256.5 726.786
257.5 634.929
258.5 680.214
259.5 605.643
260.5 618.714
261.5 693.857
262.5 719.143
263.5 653.714
264.5 691.714
265.5 635.071
266.5 581.929
267.5 579.071
268.5 474.643
269.5 488.214
270.5 490.643
271.5 424.643
272.5 425.714
273.5 550.5
274.5 595.143
275.5 859.571
276.5 867.5
277.5 861
278.5 960.286
279.5 869.643
280.5 849.286
281.5 955.857
282.5 909.643
283.5 831.214
284.5 918.786
285.5 1114.71
286.5 1147.64
287.5 1120.43
288.5 1157.64
289.5 1231.64
290.5 1085.71
291.5 1087.14
292.5 1096
293.5 1045.14
294.5 1022.57
295.5 955
296.5 840.429
297.5 851.143
298.5 841.357
299.5 749.571
300.5 753.857
301.5 610.714
302.5 500.357
303.5 468.143
304.5 395
305.5 328.143
306.5 493.357
307.5 453.429
308.5 428.071
309.5 491.786
310.5 475.143
311.5 318.357
312.5 287.357
313.5 171.714
314.5 21.0715
315.5 169.143
316.5 58.8572
317.5 153
318.5 297.357
319.5 139.714
320.5 271.571
321.5 358.071
322.5 403.286
323.5 635.857
324.5 460.214
325.5 530.429
326.5 536.571
327.5 523.357
328.5 441.714
329.5 557.643
330.5 504.071
331.5 473.286
332.5 487
333.5 550.929
334.5 545.5
335.5 576.286
336.5 446.929
337.5 548.929
338.5 486.143
339.5 494.071
340.5 476.929
341.5 532.143
342.5 535.357
343.5 598.571
344.5 492.643
345.5 551.643
346.5 553.5
347.5 430.786
348.5 488.929
349.5 463.643
350.5 415.143
351.5 574.5
352.5 467.857
353.5 571.643
354.5 600.071
355.5 536.143
356.5 551.071
357.5 529
358.5 563.071
359.5 533.286
360.5 518.929
361.5 548.214
362.5 438.786
363.5 523.929
364.5 559
365.5 555.357
366.5 841.071
367.5 1964.93
368.5 2733.07
369.5 1442.71
370.5 557
371.5 509.929
372.5 495.643
373.5 470.143
374.5 524.357
375.5 555.071
376.5 489.429
377.5 432.143
378.5 520.5
379.5 432.857
380.5 468.357
381.5 493
382.5 407.286
383.5 514.929
384.5 528.357
385.5 447.071
386.5 580.929
387.5 574.143
388.5 552.5
389.5 532.071
390.5 506
391.5 530.5
392.5 561.286
393.5 625.429
394.5 587.357
395.5 573.929
396.5 531.571
397.5 577.357
398.5 567.714
399.5 623.429
400.5 656.714
401.5 931.786
402.5 3255.71
403.5 9864.79
404.5 10622.1
405.5 3593.07
406.5 967.571
407.5 480.357
408.5 389.929
409.5 430.143
410.5 404.786
411.5 329.929
412.5 387.857
413.5 387.286
414.5 314
415.5 487.5
416.5 368.357
417.5 311.857
418.5 310.571
419.5 312.071
420.5 495
421.5 290.929
422.5 414.214
423.5 411
424.5 453.929
425.5 480.143
426.5 484.429
427.5 415.786
428.5 436.429
429.5 348.857
430.5 358.429
431.5 414
432.5 412.857
433.5 433.071
434.5 321.214
435.5 411.5
436.5 453.429
437.5 439
438.5 373.714
439.5 473.786
440.5 366.571
441.5 323.143
442.5 405.571
443.5 308.929
444.5 346.786
445.5 367.714
446.5 375.214
447.5 368.143
448.5 315.643
449.5 292.357
450.5 279.143
451.5 290
452.5 278
453.5 237.071
454.5 278.714
455.5 317.571
456.5 369.857
457.5 315.214
458.5 300.357
459.5 251.429
460.5 376.5
461.5 378
462.5 316
463.5 456.714
464.5 381.5
465.5 373.214
466.5 358.429
467.5 282.357
468.5 317.714
469.5 352.857
470.5 415.857
471.5 350.643
472.5 275.571
473.5 300.143
474.5 454.714
475.5 453.5
476.5 413.571
477.5 346.571
478.5 446.786
479.5 453.786
480.5 408.214
481.5 356.643
482.5 423.786
483.5 380.929
484.5 401.857
485.5 344.286
486.5 317.214
487.5 396.5
488.5 489.214
489.5 462.286
490.5 437.214
491.5 420.786
492.5 380.643
493.5 393.071
494.5 484.214
495.5 439.5
496.5 384.429
497.5 368.714
498.5 350.5
499.5 356.714
500.5 355.286
501.5 294.286
502.5 400.571
503.5 413.857
504.5 328.143
505.5 211.929
506.5 182.572
507.5 327.214
508.5 204.357
509.5 598.5
510.5 860.572
511.5 988.429
512.5 735.286
513.5 456.214
514.5 339
515.5 305.143
516.5 301.857
517.5 305.214
518.5 331.357
519.5 355.929
520.5 325.714
521.5 309.571
522.5 327.286
523.5 304.857
524.5 307.786
525.5 219.5
526.5 307.429
527.5 335.5
528.5 404.643
529.5 302.357
530.5 331.071
531.5 313.786
532.5 333
533.5 340.714
534.5 396.786
535.5 356.857
536.5 364.714
537.5 312
538.5 296.5
539.5 304.214
540.5 340
541.5 286.143
542.5 353.714
543.5 338.143
544.5 309.643
545.5 333.286
546.5 249.786
547.5 314.857
548.5 296.214
549.5 333.643
550.5 230.143
551.5 383.357
552.5 303.143
553.5 257.143
554.5 313
555.5 327.143
556.5 227.929
557.5 315.786
558.5 356.286
559.5 315.429
560.5 324.357
561.5 242.357
562.5 331
563.5 386.643
564.5 280.5
565.5 248.714
566.5 302.571
567.5 303.286
568.5 324.143
569.5 324.357
570.5 297.286
571.5 333.357
572.5 319.929
573.5 320.857
574.5 288.857
575.5 312.143
576.5 303.143
577.5 374.071
578.5 306.214
579.5 363.143
580.5 359.214
581.5 293.429
582.5 321.429
583.5 288.571
584.5 366.857
585.5 333.786
586.5 373.286
587.5 380.571
588.5 361.643
589.5 441.357
590.5 361.5
591.5 417.714
592.5 382.857
593.5 346.857
594.5 332.357
595.5 428.929
596.5 390.429
597.5 344.214
598.5 332.643
599.5 341.786
600.5 335.929
601.5 422.286
602.5 311.857
603.5 392.643
604.5 332.929
605.5 251.643
606.5 318.786
607.5 312.357
608.5 319.571
609.5 277.357
610.5 272.357
611.5 261.714
612.5 274.5
613.5 338.571
614.5 321.714
615.5 243.357
616.5 253.429
617.5 244.786
618.5 335
619.5 255.357
620.5 224.071
621.5 265.714
622.5 244.643
623.5 221.143
624.5 262.571
625.5 239.143
626.5 262.357
627.5 257.929
628.5 309.071
629.5 238.643
630.5 278.214
631.5 319
632.5 295.5
633.5 320.5
634.5 264.929
635.5 300.786
636.5 246.929
637.5 494.143
638.5 337.571
639.5 319.643
640.5 318.357
641.5 319.429
642.5 320.786
643.5 329.929
644.5 465.857
645.5 434.643
646.5 463.143
647.5 395.357
648.5 481.286
649.5 591.571
650.5 1222.14
651.5 1443.07
652.5 737.786
653.5 478.643
654.5 342.786
655.5 360.857
656.5 339.357
657.5 268.929
658.5 347.214
659.5 282.857
660.5 255.071
661.5 215.643
662.5 285.714
663.5 308.5
664.5 313.714
665.5 309.214
666.5 327.429
667.5 335.571
668.5 277.429
669.5 297.571
670.5 234.571
671.5 214.929
672.5 222.786
673.5 252.286
674.5 272.857
675.5 281.643
676.5 294.643
677.5 312
678.5 269.929
679.5 325.357
680.5 265.5
681.5 295.143
682.5 279.571
683.5 265.786
684.5 288.071
685.5 293.286
686.5 307.714
687.5 223.429
688.5 189.5
689.5 345.143
690.5 276.214
691.5 208.286
692.5 262.214
693.5 293.286
694.5 236.571
695.5 284.071
696.5 280.571
697.5 287.643
698.5 317.429
699.5 290.5
700.5 301.143
701.5 355.5
702.5 343.286
703.5 320.786
704.5 297.143
705.5 311.143
706.5 288.286
707.5 357.5
708.5 300.786
709.5 305.786
710.5 332.571
711.5 432.214
712.5 379.214
713.5 372.286
714.5 431.857
715.5 362.429
716.5 452.571
717.5 354.714
718.5 376.357
719.5 380.143
720.5 337.286
721.5 359.143
722.5 368.5
723.5 254.786
724.5 429.643
725.5 500.5
726.5 602.643
727.5 399.714
728.5 402.5
729.5 302
730.5 278.143
731.5 289.643
732.5 287.786
733.5 267.643
734.5 214.429
735.5 216.429
736.5 295.214
737.5 212.929
738.5 273.429
739.5 251.5
740.5 286.571
741.5 275.786
742.5 283
743.5 206.786
744.5 144.143
745.5 304.357
746.5 264.357
747.5 360.929
748.5 326.714
749.5 327.357
750.5 320.571
751.5 309.286
752.5 293.5
753.5 302.5
754.5 304.429
755.5 313.643
756.5 304.429
757.5 337.071
758.5 263.571
759.5 352.786
760.5 452.5
761.5 558.5
762.5 363.071
763.5 456.071
764.5 343.143
765.5 357.071
766.5 292.357
767.5 351.929
768.5 329.643
769.5 287
770.5 263
771.5 327.929
772.5 346.643
773.5 332.643
774.5 410.929
775.5 295.071
776.5 312.786
777.5 280.357
778.5 293.286
779.5 323.857
780.5 312.643
781.5 315.071
782.5 357.714
783.5 293.143
784.5 235.643
785.5 313.071
786.5 217.357
787.5 296.286
788.5 182.214
789.5 336
790.5 303.357
791.5 304.429
792.5 296.857
793.5 263.5
794.5 279.929
795.5 344
796.5 352.429
797.5 311.214
798.5 340.929
799.5 315.643
800.5 237.071
801.5 340.5
802.5 285.5
803.5 271.214
804.5 375.071
805.5 356.786
806.5 412.714
807.5 371.571
808.5 353.214
809.5 351.786
810.5 350
811.5 283.071
812.5 284.571
813.5 354.214
814.5 327.5
815.5 354.071
816.5 276.143
817.5 376.857
818.5 321.214
819.5 331.429
820.5 297.286
821.5 279.357
822.5 292.286
823.5 348.5
824.5 348.714
825.5 346.143
826.5 294.786
827.5 304.286
828.5 295.5
829.5 329.214
830.5 330.571
831.5 315.357
832.5 277.143
833.5 355.857
834.5 377.286
835.5 343.286
836.5 310.857
837.5 270.357
838.5 357.714
839.5 333.643
840.5 323.286
841.5 304.357
842.5 326.714
843.5 340.071
844.5 258.357
845.5 310
846.5 326.857
847.5 316.286
848.5 403.643
849.5 397.357
850.5 345.143
851.5 234.643
852.5 334.929
853.5 290.857
854.5 366
855.5 379.071
856.5 242.429
857.5 261.071
858.5 373.357
859.5 326.214
860.5 364.143
861.5 360.571
862.5 363.214
863.5 311.786
864.5 297.643
865.5 333.071
866.5 378.214
867.5 360.929
868.5 308.929
869.5 387.857
870.5 425.071
871.5 329.643
872.5 353.143
873.5 410.429
874.5 378.5
875.5 411
876.5 465.571
877.5 467.071
878.5 493.786
879.5 327.429
880.5 437.214
881.5 341.143
882.5 399.929
883.5 349.571
884.5 358.429
885.5 383.429
886.5 391.643
887.5 409.714
888.5 341.929
889.5 383.071
890.5 378
891.5 417
892.5 468.143
893.5 425.143
894.5 445.071
895.5 481.286
896.5 429.857
897.5 387.214
898.5 388.5
899.5 459.571
900.5 442.357
901.5 354.5
902.5 408.429
903.5 368.286
904.5 407.071
905.5 470.643
906.5 364.786
907.5 477.643
908.5 344.429
909.5 358.571
910.5 420.143
911.5 374.643
912.5 475.143
913.5 413.571
914.5 465.643
915.5 436.571
916.5 377.286
917.5 365
918.5 418.857
919.5 388.714
920.5 477.071
921.5 394.857
922.5 341.214
923.5 409
924.5 419
925.5 406.786
926.5 494.571
927.5 445.571
928.5 382.5
929.5 475.143
930.5 339.857
931.5 322.429
932.5 420.571
933.5 374.857
934.5 465.071
935.5 442.643
936.5 491.786
937.5 489.071
938.5 414.286
939.5 559.429
940.5 503.857
941.5 449.929
942.5 499
943.5 494.286
944.5 481.5
945.5 469.714
946.5 387.857
947.5 425.143
948.5 436.286
949.5 392.143
950.5 303.071
951.5 390.786
952.5 269.429
953.5 349.143
954.5 395.071
955.5 322.786
956.5 321.786
957.5 339.286
958.5 314
959.5 361.286
960.5 270.714
961.5 328.571
962.5 328.429
963.5 292.786
964.5 332.5
965.5 379.214
966.5 375.429
967.5 388
968.5 373.071
969.5 314.714
970.5 248.214
971.5 329.286
972.5 347.786
973.5 240.214
974.5 345.571
975.5 301.929
976.5 292.429
977.5 328.143
978.5 311.786
979.5 321.214
980.5 278.286
981.5 353.357
982.5 335.571
983.5 350.214
984.5 300.857
985.5 272.857
986.5 328.143
987.5 236.714
988.5 302.214
989.5 313.214
990.5 310.429
991.5 321.714
992.5 330.357
993.5 264.857
994.5 283.286
995.5 279.571
996.5 258.357
997.5 293.643
998.5 292.571
999.5 375.929
1000.5 335.286
1001.5 361.214
1002.5 381.714
1003.5 304.643
1004.5 315.643
1005.5 248
1006.5 226.714
1007.5 279.929
1008.5 292.929
1009.5 280.714
1010.5 250.071
1011.5 297.714
1012.5 289.286
1013.5 290.714
1014.5 250.857
1015.5 282
1016.5 276.357
1017.5 333.643
1018.5 499.143
1019.5 735.357
1020.5 523.357
1021.5 389
1022.5 482
1023.5 1021.86
1024.5 1735.43
1025.5 1411.07
1026.5 666.857
1027.5 338.357
1028.5 301.714
1029.5 183.857
1030.5 237.643
1031.5 231.786
1032.5 283.643
1033.5 243.929
1034.5 251.214
1035.5 252.143
1036.5 213.714
1037.5 239.286
1038.5 269.786
1039.5 252.714
1040.5 220.643
1041.5 187.929
1042.5 187.643
1043.5 265.071
1044.5 210
1045.5 261.143
1046.5 267.571
1047.5 201.571
1048.5 150.786
1049.5 230.571
1050.5 263.071
1051.5 244.786
1052.5 204.286
1053.5 217.571
1054.5 186.5
1055.5 207.714
1056.5 169.143
1057.5 172.143
1058.5 205.571
1059.5 210.286
1060.5 190.214
1061.5 217.714
1062.5 271.786
1063.5 217.714
1064.5 229
1065.5 198.357
1066.5 268.571
1067.5 195.071
1068.5 192.571
1069.5 209.929
1070.5 219.429
1071.5 247.714
1072.5 235
1073.5 327.929
1074.5 256.286
1075.5 222.071
1076.5 230.643
1077.5 259.5
1078.5 256.143
1079.5 206.357
1080.5 204.786
1081.5 179.286
1082.5 211.429
1083.5 177.429
1084.5 168.286
1085.5 192.071
1086.5 186.214
1087.5 220.571
1088.5 204.071
1089.5 200.286
1090.5 220.929
1091.5 148.929
1092.5 174.286
1093.5 176.643
1094.5 77.1429
1095.5 -44.9286
1096.5 91.1429
1097.5 129
1098.5 197
1099.5 317.714
1100.5 502.857
1101.5 565.429
1102.5 384.786
1103.5 223.357
1104.5 184.286
1105.5 230.357
1106.5 191.286
1107.5 215.5
1108.5 208.071
1109.5 202
1110.5 261.5
1111.5 243.857
1112.5 217.571
1113.5 264.929
1114.5 275.786
1115.5 177.786
1116.5 197.143
1117.5 237.429
1118.5 266.643
1119.5 299
1120.5 254.571
1121.5 233.857
1122.5 349.357
1123.5 757.571
1124.5 2314.07
1125.5 5389.36
1126.5 5659.5
1127.5 2798.71
1128.5 882
1129.5 313.929
1130.5 218.5
1131.5 231.357
1132.5 234.786
1133.5 151.786
1134.5 177.357
1135.5 200.571
1136.5 206.929
1137.5 192.429
1138.5 240
1139.5 192.357
1140.5 178.143
1141.5 168.5
1142.5 176.5
1143.5 203.071
1144.5 222.214
1145.5 212.929
1146.5 230.929
1147.5 222.071
1148.5 250.857
1149.5 215.143
1150.5 220.929
1151.5 261.5
1152.5 382.786
1153.5 900.429
1154.5 2654.57
1155.5 8857.93
1156.5 20372.7
1157.5 20221.7
1158.5 8402.71
1159.5 2000
1160.5 439
1161.5 291.357
1162.5 140.429
1163.5 186.714
1164.5 194
1165.5 179.571
1166.5 131
1167.5 101.143
1168.5 137.5
1169.5 166.5
1170.5 113.357
1171.5 131.643
1172.5 147.857
1173.5 173.143
1174.5 149
1175.5 170.429
1176.5 151.357
1177.5 138.214
1178.5 156.143
1179.5 134.929
1180.5 165.5
1181.5 122.143
1182.5 107
1183.5 192.786
1184.5 103.214
1185.5 138.571
1186.5 156.143
1187.5 119.857
1188.5 148
1189.5 172.286
1190.5 159.929
1191.5 152.429
1192.5 141.643
1193.5 150.857
1194.5 176.143
1195.5 181.357
1196.5 224.5
1197.5 182.286
1198.5 149.143
1199.5 164.786
1200.5 148.143
1201.5 162.5
1202.5 161.071
1203.5 141
1204.5 160.571
1205.5 163
1206.5 142.071
1207.5 176.143
1208.5 157.429
1209.5 148.429
1210.5 119.143
1211.5 192.357
1212.5 135.143
1213.5 139
1214.5 124
1215.5 183.214
1216.5 131.429
1217.5 177.5
1218.5 187.357
1219.5 164.357
1220.5 171.214
1221.5 171.857
1222.5 129.429
1223.5 130.786
1224.5 157.929
1225.5 204.643
1226.5 136.714
1227.5 171.643
1228.5 144.286
1229.5 139.857
1230.5 156.714
1231.5 158
1232.5 174.214
1233.5 114.357
1234.5 171.214
1235.5 177.143
1236.5 139.143
1237.5 149.429
1238.5 163.071
1239.5 120.643
1240.5 148.5
1241.5 135.857
1242.5 167.786
1243.5 156.929
1244.5 186.143
1245.5 164.429
1246.5 103.857
1247.5 145.929
1248.5 156.071
1249.5 165.929
1250.5 170.214
1251.5 172.929
1252.5 119.786
1253.5 167.357
1254.5 159.714
1255.5 133.5
1256.5 156.643
1257.5 158.071
1258.5 142.5
1259.5 110.5
1260.5 152.571
1261.5 175.714
1262.5 174.071
1263.5 165.714
1264.5 174.214
1265.5 213.143
1266.5 166.214
1267.5 135.071
1268.5 175.857
1269.5 126.071
1270.5 182.429
1271.5 179.286
1272.5 144
1273.5 162.429
1274.5 132.357
1275.5 148.786
1276.5 132.214
1277.5 140.643
1278.5 106.071
1279.5 167.143
1280.5 121.143
1281.5 182.643
1282.5 154.571
1283.5 160.5
1284.5 182.643
1285.5 168.643
1286.5 180.357
1287.5 173.357
1288.5 189.929
1289.5 250.214
1290.5 230.714
1291.5 194.286
1292.5 215.643
1293.5 185.5
1294.5 167.643
1295.5 160.571
1296.5 154.786
1297.5 147.429
1298.5 175.929
1299.5 157.5
1300.5 176.714
1301.5 176.5
1302.5 173.857
1303.5 183.429
1304.5 130.286
1305.5 179.143
1306.5 155.071
1307.5 158.929
1308.5 130.714
1309.5 155.571
1310.5 190
1311.5 171.714
1312.5 169.5
1313.5 155.786
1314.5 139.429
1315.5 181
1316.5 120.571
1317.5 165.5
1318.5 158.786
1319.5 148
1320.5 203.643
1321.5 141.857
1322.5 159
1323.5 159.571
1324.5 180.071
1325.5 152.857
1326.5 181.214
1327.5 158.5
1328.5 184.571
1329.5 202.357
1330.5 164.214
1331.5 149.5
1332.5 176.143
1333.5 163.857
1334.5 188.714
1335.5 147
1336.5 154.286
1337.5 164.714
1338.5 149.857
1339.5 154.643
1340.5 158.571
1341.5 200.071
1342.5 191.786
1343.5 169.643
1344.5 183.857
1345.5 177.286
1346.5 156.714
1347.5 195.214
1348.5 171.643
1349.5 203.786
1350.5 146.286
1351.5 181
1352.5 224.429
1353.5 226.214
1354.5 183.571
1355.5 201.714
1356.5 228.929
1357.5 204.929
1358.5 163.786
1359.5 187.214
1360.5 177
1361.5 217.786
1362.5 190.571
1363.5 156.5
1364.5 184.357
1365.5 230.357
1366.5 233.857
1367.5 205.929
1368.5 192.643
1369.5 177.286
1370.5 177.571
1371.5 184.429
1372.5 248.286
1373.5 189.929
1374.5 197.429
1375.5 195.857
1376.5 199.429
1377.5 151.5
1378.5 141.643
1379.5 171.286
1380.5 162.071
1381.5 188.714
1382.5 150.643
1383.5 200.429
1384.5 192.286
1385.5 223.071
1386.5 174.5
1387.5 168.643
1388.5 186.714
1389.5 167.857
1390.5 165.643
1391.5 175.286
1392.5 162.786
1393.5 184
1394.5 164.571
1395.5 197.071
1396.5 117.429
1397.5 175.214
1398.5 191.429
1399.5 181.643
1400.5 161.929
1401.5 121.5
1402.5 141.571
1403.5 137.5
1404.5 163
1405.5 134.429
1406.5 122.429
1407.5 45.8571
1408.5 8.00001
1409.5 97.2143
1410.5 119.429
1411.5 131.929
1412.5 127.857
1413.5 153.071
1414.5 110.357
1415.5 136.571
1416.5 79.1429
1417.5 193.857
1418.5 149.714
1419.5 120.571
1420.5 97.8571
1421.5 165.571
1422.5 150.286
1423.5 200.714
1424.5 185.857
1425.5 329.429
1426.5 735.857
1427.5 1782.14
1428.5 2780.43
1429.5 2179.43
1430.5 763.286
1431.5 283.571
1432.5 141.357
1433.5 123.714
1434.5 124.857
1435.5 147.429
1436.5 151.857
1437.5 138.714
1438.5 139.143
1439.5 100.571
1440.5 125
1441.5 133.071
1442.5 131.5
1443.5 114.5
1444.5 116.643
1445.5 118.429
1446.5 128.786
1447.5 117.786
1448.5 136.214
1449.5 115.429
1450.5 120.5
1451.5 88.5714
1452.5 109.786
1453.5 165.429
1454.5 131
1455.5 130.786
1456.5 106.714
1457.5 131.857
1458.5 102.786
1459.5 92.5714
1460.5 69.0714
1461.5 88.2143
1462.5 109.143
1463.5 117.429
1464.5 122.857
1465.5 74.4286
1466.5 122.286
1467.5 134.214
1468.5 79.4286
1469.5 93.9286
1470.5 110.286
1471.5 127.357
1472.5 124
1473.5 94.9286
1474.5 136.286
1475.5 107.357
1476.5 140.929
1477.5 118.571
1478.5 90.6429
1479.5 123.357
1480.5 110.929
1481.5 108.286
1482.5 163.071
1483.5 147.143
1484.5 157.714
1485.5 80.5
1486.5 121.214
1487.5 76.2143
1488.5 115.571
1489.5 83.7143
1490.5 87.6429
1491.5 100.714
1492.5 103.857
1493.5 95.1429
1494.5 117.286
1495.5 139.071
1496.5 224.643
1497.5 476.857
1498.5 997.929
1499.5 1281.36
1500.5 950.143
1501.5 296.714
1502.5 143.143
1503.5 91.6429
1504.5 98.7143
1505.5 74.6429
1506.5 113.286
1507.5 97.5714
1508.5 134.857
1509.5 115.429
1510.5 75.3571
1511.5 89.0714
1512.5 136.214
1513.5 92.7857
1514.5 122.714
1515.5 95.6429
1516.5 116.143
1517.5 123.5
1518.5 248.643
1519.5 390.286
1520.5 473.429
1521.5 378
1522.5 277.571
1523.5 422.214
1524.5 477
1525.5 332.643
1526.5 132.643
1527.5 76.7857
1528.5 63.6429
1529.5 85.3571
1530.5 93.6429
1531.5 71.1429
1532.5 90.8571
1533.5 112.143
1534.5 77.7143
1535.5 96.4286
1536.5 88.5
1537.5 139.357
1538.5 65
1539.5 81.2857
1540.5 84.5
1541.5 102.643
1542.5 89.5
1543.5 85
1544.5 76.5714
1545.5 69.9286
1546.5 109.214
1547.5 97.8571
1548.5 78.5714
1549.5 73.3571
1550.5 79.2857
1551.5 92.2143
1552.5 72.9286
1553.5 86.5714
1554.5 80.8571
1555.5 44.9286
1556.5 41.5
1557.5 88.5714
1558.5 68.2857
1559.5 59.8571
1560.5 82.3571
1561.5 75.8571
1562.5 72.9286
1563.5 85.2143
1564.5 36.4286
1565.5 79.7857
1566.5 85.1429
1567.5 98.5
1568.5 54.2143
1569.5 44.3571
1570.5 76.4286
1571.5 61.5
1572.5 86.2857
1573.5 82.4286
1574.5 104.571
1575.5 151.071
1576.5 223
1577.5 201.071
1578.5 139.214
1579.5 104.857
1580.5 88.2143
1581.5 97.1429
1582.5 115.714
1583.5 155.286
1584.5 165.214
1585.5 470.571
1586.5 1362.57
1587.5 3525.43
1588.5 6188.79
1589.5 5365.07
1590.5 2216.14
1591.5 558.929
1592.5 178.643
1593.5 111.929
1594.5 101.429
1595.5 91.5714
1596.5 92
1597.5 59.7143
1598.5 78.8571
1599.5 60.9286
1600.5 69.1429
1601.5 76.6429
1602.5 32.4286
1603.5 43.7143
1604.5 51.5714
1605.5 48.7143
1606.5 39.7143
1607.5 55.7143
1608.5 56.0714
1609.5 52
1610.5 18.6429
1611.5 92.6429
1612.5 46.9286
1613.5 66.5
1614.5 92
1615.5 78.6429
1616.5 96.2143
1617.5 121.286
1618.5 200.429
1619.5 458
1620.5 591.286
1621.5 713.714
1622.5 1342.57
1623.5 2865.5
1624.5 4097.79
1625.5 2825.64
1626.5 986.357
1627.5 256.214
1628.5 154.714
1629.5 104.071
1630.5 100.5
1631.5 84.4286
1632.5 173.929
1633.5 321.286
1634.5 482.286
1635.5 473.214
1636.5 276.571
1637.5 135.357
1638.5 179.5
1639.5 173.071
1640.5 153.214
1641.5 103.429
1642.5 69.2143
1643.5 45.1429
1644.5 81.2857
1645.5 40.2857
1646.5 112.357
1647.5 15.7857
1648.5 61
1649.5 37.5715
1650.5 107.286
1651.5 92.6429
1652.5 54.1429
1653.5 69.0714
1654.5 53.2857
1655.5 78.6429
1656.5 51.4286
1657.5 39.4286
1658.5 63.0714
1659.5 57.9286
1660.5 49.2143
1661.5 67.5
1662.5 54.2143
1663.5 57
1664.5 61.1429
1665.5 75.8571
1666.5 79.1429
1667.5 51.3571
1668.5 43.0714
1669.5 87
1670.5 62.8571
1671.5 92.2857
1672.5 62.7143
1673.5 64.9286
1674.5 63.3571
1675.5 53.1429
1676.5 92.1429
1677.5 61.9286
1678.5 65.2143
1679.5 55.7857
1680.5 84.2143
1681.5 46.9286
1682.5 72.9286
1683.5 86.2143
1684.5 56.7143
1685.5 42.8571
1686.5 51.8571
1687.5 75.2857
1688.5 52.2857
1689.5 42.1429
1690.5 66.7143
1691.5 71.6429
1692.5 55.0714
1693.5 73.4286
1694.5 74.5
1695.5 55.4286
1696.5 69.2143
1697.5 81
1698.5 74
1699.5 58.9286
1700.5 81.7143
1701.5 69.5714
1702.5 58.0714
1703.5 55.9286
1704.5 50
1705.5 52.7143
1706.5 66.5714
1707.5 76.7857
1708.5 66.6429
1709.5 70.5
1710.5 78.2857
1711.5 86.2857
1712.5 60.5714
1713.5 103.786
1714.5 37.1429
1715.5 95.0714
1716.5 64.4286
1717.5 42.4286
1718.5 55.2857
1719.5 75.3571
1720.5 75.0714
1721.5 75.5714
1722.5 86.0714
1723.5 54.9286
1724.5 43.7857
1725.5 26.8571
1726.5 72.2143
1727.5 71.5714
1728.5 130.786
1729.5 102.5
1730.5 62.9286
1731.5 50.8571
1732.5 93.5714
1733.5 62.5
1734.5 68.5
1735.5 102.143
1736.5 53.3571
1737.5 84.5
1738.5 83
1739.5 87.9286
1740.5 82.4286
1741.5 93.5714
1742.5 87.6429
1743.5 59.3571
1744.5 60.7143
1745.5 92.4286
1746.5 88.6429
1747.5 116.857
1748.5 69.2143
1749.5 89.8571
1750.5 79.2857
1751.5 84.7143
1752.5 89.3571
1753.5 114.143
1754.5 69
1755.5 89.1429
1756.5 76.2143
1757.5 92.0714
1758.5 89.5
1759.5 78.5
1760.5 81.2143
1761.5 80.2143
1762.5 61.8571
1763.5 83.2857
1764.5 55.8571
1765.5 42.2857
1766.5 65.8571
1767.5 67.9286
1768.5 81.8571
1769.5 60.0714
1770.5 78.0714
1771.5 43.4286
1772.5 90.5714
1773.5 41.9286
1774.5 83.4286
1775.5 82.2143
1776.5 110.857
1777.5 143.857
1778.5 125.929
1779.5 101
1780.5 61.9286
1781.5 71.6429
1782.5 41.0714
1783.5 84.3571
1784.5 23.7143
1785.5 78.1429
1786.5 77.2857
1787.5 81.4286
1788.5 71.7143
1789.5 96.3571
1790.5 41.8571
1791.5 57.1429
1792.5 78.2857
1793.5 71.8571
1794.5 71.2143
1795.5 55.4286
1796.5 83
1797.5 95.6429
1798.5 55.0714
1799.5 83.7143
1800.5 81.0714
1801.5 107.786
1802.5 56.7143
1803.5 64.6429
1804.5 48.5714
1805.5 66.6429
1806.5 96.2143
1807.5 75.1429
1808.5 64
1809.5 103.643
1810.5 89
1811.5 82.4286
1812.5 64.7143
1813.5 65.5
1814.5 71.2143
1815.5 91
1816.5 79.1429
1817.5 77.5714
1818.5 60.3571
1819.5 83.0714
1820.5 65.4286
1821.5 75.9286
1822.5 79.4286
1823.5 49.1429
1824.5 51.8571
1825.5 77.2143
1826.5 53.0714
1827.5 42.5714
1828.5 78.1429
1829.5 65.7857
1830.5 62
1831.5 62.2857
1832.5 84.7143
1833.5 57.5714
1834.5 58.7857
1835.5 105.429
1836.5 65.7857
1837.5 51.5
1838.5 88.7857
1839.5 92.7143
1840.5 38.6429
1841.5 71.5714
1842.5 60.5
1843.5 54.2857
1844.5 94.7143
1845.5 66.7143
1846.5 77
1847.5 74.2143
1848.5 45.5
1849.5 73.3571
1850.5 58.3571
1851.5 59.6429
1852.5 69.2857
1853.5 60.4286
1854.5 59
1855.5 74.2857
1856.5 82.5714
1857.5 71.9286
1858.5 46.2857
1859.5 70.3571
1860.5 82.1429
1861.5 80.6429
1862.5 88.5
1863.5 79.2857
1864.5 75.8571
1865.5 82.5
1866.5 94.5714
1867.5 81.7857
1868.5 61.2857
1869.5 70.7857
1870.5 59.0714
1871.5 -19.7143
1872.5 32.2143
1873.5 46.4286
1874.5 42.5
1875.5 54.9286
1876.5 48.5
1877.5 73.2143
1878.5 70.3571
1879.5 55.1429
1880.5 80.7857
1881.5 78
1882.5 94.2857
1883.5 58.5714
1884.5 120.857
1885.5 126.571
1886.5 255.071
1887.5 185.357
1888.5 171.143
1889.5 34.6429
1890.5 55.3571
1891.5 66.9286
1892.5 98.9286
1893.5 57.7143
1894.5 68.7857
1895.5 90.0714
1896.5 62.8571
1897.5 79.5714
1898.5 73.0714
1899.5 79.0714
1900.5 55.2857
1901.5 90.7857
1902.5 59.7857
1903.5 118.357
1904.5 79.3571
1905.5 94.9286
1906.5 62.8571
1907.5 89.7857
1908.5 96.3571
1909.5 91.2857
1910.5 73.9286
1911.5 96.3571
1912.5 124.071
1913.5 75.5
1914.5 78.5
1915.5 59.5714
1916.5 86.7143
1917.5 56.1429
1918.5 100.571
1919.5 31.8571
1920.5 50.7857
1921.5 65.2143
1922.5 33.7143
1923.5 39.5714
1924.5 54.7857
1925.5 72.9286
1926.5 60.8571
1927.5 79.3571
1928.5 74.9286
1929.5 97
1930.5 82.3571
1931.5 94.0714
1932.5 103
1933.5 55.4286
1934.5 69.6429
1935.5 31.3571
1936.5 50
1937.5 43.4286
1938.5 52.2857
1939.5 61.5714
1940.5 73.7143
1941.5 76.0714
1942.5 55.3572
1943.5 66.2857
1944.5 145.786
1945.5 67.6429
1946.5 100.357
1947.5 103.786
1948.5 45.1429
1949.5 87.1429
1950.5 39.4286
1951.5 102.786
1952.5 88.2857
1953.5 58.3571
1954.5 63.0714
1955.5 43.2143
1956.5 52.4286
1957.5 42.7143
1958.5 50.7143
1959.5 51.7857
1960.5 48.5
1961.5 46.5714
1962.5 50.4286
1963.5 45.6429
1964.5 64.2143
1965.5 57.4286
1966.5 32.6429
1967.5 25.3571
1968.5 43.5714
1969.5 44.8571
1970.5 53
1971.5 61.4286
1972.5 39.8571
1973.5 26.8571
1974.5 79.1429
1975.5 48.6429
1976.5 55.1429
1977.5 75.2857
1978.5 55.9286
1979.5 70.2143
1980.5 71.7143
1981.5 41.5
1982.5 48.8571
1983.5 95.5714
1984.5 63.2143
1985.5 97.2143
1986.5 204.429
1987.5 378.286
1988.5 508
1989.5 411.857
1990.5 256.857
1991.5 241.571
1992.5 446.643
1993.5 987.786
1994.5 1654.57
1995.5 1785.14
1996.5 1039.43
1997.5 394.571
1998.5 211.429
1999.5 220.429
2000.5 158.071
2001.5 68.6429
2002.5 82.0714
2003.5 85.7143
2004.5 89.0714
2005.5 88
2006.5 125.071
2007.5 150.286
2008.5 113
2009.5 122.786
2010.5 55.7857
2011.5 39.2143
2012.5 62.5714
2013.5 57.8571
2014.5 56.1429
2015.5 31.9286
2016.5 27.0714
2017.5 35.5714
2018.5 18.6429
2019.5 52
2020.5 27.7857
2021.5 50.3571
2022.5 44.7857
2023.5 37.4286
2024.5 28.6429
2025.5 43.8571
2026.5 31.4286
2027.5 13
2028.5 25.1429
2029.5 61.4286
2030.5 43.3571
2031.5 38.0714
2032.5 40.2143
2033.5 60.8571
2034.5 38.2857
2035.5 31.4286
2036.5 27.2143
2037.5 43.6429
2038.5 53.7143
2039.5 43.7143
2040.5 37.3571
2041.5 51.5
2042.5 53.7857
2043.5 32.5
2044.5 42.7143
2045.5 21.7143
2046.5 46.2857
2047.5 31.2857
2048.5 39.4286
2049.5 29
2050.5 32.6429
2051.5 33.3571
2052.5 27.5714
2053.5 37.3571
2054.5 43.6429
2055.5 40.4286
2056.5 20.1429
2057.5 21.7857
2058.5 44.7857
2059.5 54
2060.5 52.4286
2061.5 34.2143
2062.5 30.5714
2063.5 20.1429
2064.5 40.7857
2065.5 35.3571
2066.5 32
2067.5 47.7143
2068.5 31.3571
2069.5 47.8571
2070.5 35.0714
2071.5 24.9286
2072.5 46.5
2073.5 42.3571
2074.5 49.6429
2075.5 41.0714
2076.5 40.0714
2077.5 40.8571
2078.5 39.9286
2079.5 49.6429
2080.5 49.3571
2081.5 43.5714
2082.5 2.28572
2083.5 37.8571
2084.5 40
2085.5 32.0714
2086.5 40.6429
2087.5 33.5714
2088.5 40.6429
2089.5 48.2857
2090.5 44.3571
2091.5 27.5714
2092.5 44
2093.5 34.8571
2094.5 38.1429
2095.5 32.5
2096.5 23.1429
2097.5 30.2143
2098.5 20.2143
2099.5 30.6429
2100.5 33.2143
2101.5 49.2143
2102.5 54.5
2103.5 34.5
2104.5 50.8571
2105.5 32.7857
2106.5 63.2143
2107.5 56.7143
2108.5 44.4286
2109.5 52.5714
2110.5 50.7143
2111.5 41.5714
2112.5 45.3571
2113.5 19.2857
2114.5 41.5
2115.5 19.0714
2116.5 22.5714
2117.5 40.9286
2118.5 34.2143
2119.5 28.8571
2120.5 40.5714
2121.5 55.3571
2122.5 29
2123.5 37.1429
2124.5 33.5714
2125.5 35.8571
2126.5 35.0714
2127.5 16.4286
2128.5 47.4286
2129.5 47.5
2130.5 47
2131.5 35.1429
2132.5 50
2133.5 43.2143
2134.5 24
2135.5 32.8571
2136.5 46.8571
2137.5 51.1429
2138.5 76.0714
2139.5 64.7857
2140.5 132.857
2141.5 334.357
2142.5 664.357
2143.5 1174.71
2144.5 1084.21
2145.5 653.143
2146.5 278.714
2147.5 428.5
2148.5 890.429
2149.5 1952.79
2150.5 2714.07
2151.5 2063.07
2152.5 922.857
2153.5 303.5
2154.5 109.214
2155.5 33.2857
2156.5 33.4286
2157.5 48.4286
2158.5 29.7143
2159.5 41.7857
2160.5 13.5
2161.5 27.0714
2162.5 41.2857
2163.5 23.7857
2164.5 24.2857
2165.5 10
2166.5 24.5714
2167.5 12.1429
2168.5 37.3571
2169.5 32.3571
2170.5 13
2171.5 36.2857
2172.5 28.1429
2173.5 31.7857
2174.5 30.9286
2175.5 27.3571
2176.5 26.4286
2177.5 47.6429
2178.5 46.5714
2179.5 26.7143
2180.5 31.1429
2181.5 27.7143
2182.5 28.4286
2183.5 23.5714
2184.5 20.6429
2185.5 11.9286
2186.5 19.5714
2187.5 25.7857
2188.5 25.4286
2189.5 15.3571
2190.5 41.2143
2191.5 55
2192.5 19.7857
2193.5 29.9286
2194.5 37.4286
2195.5 21.8571
2196.5 20.4286
2197.5 48.3571
2198.5 39.3571
2199.5 -3.42856
2200.5 35.1429
2201.5 53.3571
2202.5 8.35715
2203.5 38.5
2204.5 39.1429
2205.5 27.5714
2206.5 55.7857
2207.5 62.8571
2208.5 14
2209.5 53.6429
2210.5 16.4286
2211.5 40.6429
2212.5 20.5714
2213.5 23.6429
2214.5 29.2857
2215.5 27.4286
2216.5 31.2143
2217.5 30.5714
2218.5 43.3571
2219.5 36.8571
2220.5 52.8571
2221.5 39.7143
2222.5 75.3571
2223.5 66.5
2224.5 69.7857
2225.5 33
2226.5 38.7143
2227.5 -8.35714
2228.5 -33.3571
2229.5 -23.5
2230.5 -16
2231.5 6.64286
2232.5 21.0714
2233.5 37.5
2234.5 40.8571
2235.5 37.7143
2236.5 52.6429
2237.5 39.0714
2238.5 42.1429
2239.5 74.2143
2240.5 51.7857
2241.5 55.5
2242.5 51.2857
2243.5 39.5714
2244.5 47.8571
2245.5 44.7143
2246.5 42.9286
2247.5 31.5714
2248.5 50.9286
2249.5 56.1429
2250.5 50.2143
2251.5 37.2857
2252.5 53
2253.5 60.4286
2254.5 75.3571
2255.5 120.357
2256.5 124.357
2257.5 56.5
2258.5 26.7857
2259.5 33
2260.5 38.4286
2261.5 41.9286
2262.5 46.2143
2263.5 47.4286
2264.5 53.9286
2265.5 33.5
2266.5 49.5
2267.5 39.9286
2268.5 42.5
2269.5 53.8571
2270.5 40.2143
2271.5 54.4286
2272.5 54.4286
2273.5 44.3571
2274.5 52.2143
2275.5 29.4286
2276.5 38.5
2277.5 47.2857
2278.5 55.5714
2279.5 84.8571
2280.5 65.6429
2281.5 58.2143
2282.5 48
2283.5 59.8571
2284.5 65.1429
2285.5 61.5714
2286.5 42
2287.5 16.7143
2288.5 20.7143
2289.5 34.7857
2290.5 19.4286
2291.5 47.0714
2292.5 19.2143
2293.5 36.1429
2294.5 34.1429
2295.5 20.7857
2296.5 39.8571
2297.5 42
2298.5 29.4286
2299.5 5.00001
2300.5 26.0714
2301.5 41.7143
2302.5 14.8571
2303.5 64.9286
2304.5 26.7143
2305.5 35.4286
2306.5 40.8571
2307.5 34.9286
2308.5 28.5714
2309.5 29.7857
2310.5 17.7857
2311.5 30.3571
2312.5 48.2143
2313.5 52.5
2314.5 13.5
2315.5 52.3571
2316.5 14.6429
2317.5 42.5714
2318.5 24.5714
2319.5 32.3571
2320.5 29.5
2321.5 33.2857
2322.5 24.9286
2323.5 33.7143
2324.5 8.14286
2325.5 22.5
2326.5 41.2857
2327.5 38.2857
2328.5 24
2329.5 5.42857
2330.5 34.9286
2331.5 49.2143
2332.5 8.85714
2333.5 38.7143
2334.5 31.4286
2335.5 22.3571
2336.5 33.8571
2337.5 35.1429
2338.5 34.0714
2339.5 23.2857
2340.5 46.5714
2341.5 23.1429
2342.5 43.8571
2343.5 26.2857
2344.5 25
2345.5 33.7143
2346.5 11.8571
2347.5 21.5
2348.5 23.4286
2349.5 24.7857
2350.5 23.7857
2351.5 32.3571
2352.5 43
2353.5 28.3571
2354.5 44.5
2355.5 39.9286
2356.5 28.7857
2357.5 34.3571
2358.5 27
2359.5 19.8571
2360.5 20.6429
2361.5 27.4286
2362.5 32.2143
2363.5 18
2364.5 26
2365.5 26.6429
2366.5 30.5
2367.5 22.9286
2368.5 53.0714
2369.5 31.9286
2370.5 27.1429
2371.5 26.5714
2372.5 27.5714
2373.5 42.9286
2374.5 30.9286
2375.5 30.2143
2376.5 48.6429
2377.5 37
2378.5 20.5714
2379.5 30.5714
2380.5 6.85714
2381.5 20.2143
2382.5 16.8571
2383.5 32.7143
2384.5 30.4286
2385.5 36.2857
2386.5 33.3571
2387.5 20.7857
2388.5 -3.71428
2389.5 20.3571
2390.5 26
2391.5 38
2392.5 24.5
2393.5 50.3571
2394.5 25.4286
2395.5 22
2396.5 12.7143
2397.5 35.2143
2398.5 39.7857
2399.5 16.5
2400.5 29.5
2401.5 18.4286
2402.5 33.2857
2403.5 28.0714
2404.5 24.5
2405.5 38.6429
2406.5 31.0714
2407.5 45.1429
2408.5 15.6429
2409.5 21.5714
2410.5 27.5714
2411.5 7.28572
2412.5 15.7143
2413.5 24.6429
2414.5 15.7143
2415.5 22.7857
2416.5 25.4286
2417.5 4.85714
2418.5 9.28572
2419.5 29.0714
2420.5 19.1429
2421.5 23.3571
2422.5 32.7143
2423.5 11.2857
2424.5 14.2857
2425.5 24
2426.5 27.0714
2427.5 44.5714
2428.5 12.2143
2429.5 15.2143
2430.5 33.9286
2431.5 26.2857
2432.5 17.7143
2433.5 34.3571
2434.5 -0.928568
2435.5 -20.2857
2436.5 6.57143
2437.5 30.5714
2438.5 29
2439.5 21.8571
2440.5 29.2143
2441.5 31
2442.5 8.07143
2443.5 32.4286
2444.5 31.2143
2445.5 12.7857
2446.5 24.1429
2447.5 26.1429
2448.5 15
2449.5 12.5714
2450.5 36.2857
2451.5 6.57143
2452.5 5.35714
2453.5 12.6429
2454.5 31.3571
2455.5 14.2143
2456.5 16.5714
2457.5 14.1429
2458.5 24.2857
2459.5 17.1429
2460.5 8.42857
2461.5 26.3571
2462.5 52.3571
2463.5 22.5714
2464.5 20.2857
2465.5 17.2143
2466.5 37.2857
2467.5 26.7143
2468.5 10.5
2469.5 23.5714
2470.5 3.07143
2471.5 23.2857
2472.5 34.7857
2473.5 15.9286
2474.5 27.4286
2475.5 13.1429
2476.5 -0.428569
2477.5 24.0714
2478.5 17.7857
2479.5 11.3571
2480.5 30.5714
2481.5 14.4286
2482.5 12.2857
2483.5 7.64286
2484.5 12.2143
2485.5 16.5714
2486.5 -13.9286
2487.5 4.14286
2488.5 1.42857
2489.5 26.7143
2490.5 25.7143
2491.5 43.9286
2492.5 52.9286
2493.5 64.5
2494.5 62.2857
2495.5 29.1429
2496.5 40
2497.5 32.5
2498.5 30.2857
2499.5 25.1429
2500.5 30.1429
2501.5 41.4286
2502.5 40.7857
2503.5 34.2857
2504.5 58.3571
2505.5 32.0714
2506.5 12.5714
2507.5 44.6429
2508.5 18
2509.5 40.2857
2510.5 52.2143
2511.5 118.429
2512.5 147.714
2513.5 144.357
2514.5 131.071
2515.5 241.714
2516.5 550.786
2517.5 1143.71
2518.5 1772.86
2519.5 1875.64
2520.5 1231.29
2521.5 469.643
2522.5 137.786
2523.5 29.7857
2524.5 18.1429
2525.5 9.5
2526.5 11.3571
2527.5 33.4286
2528.5 11
2529.5 10.5
2530.5 0.0714304
2531.5 -11.4286
2532.5 -8.14286
2533.5 -21.2857
2534.5 -17.2143
2535.5 3.42857
2536.5 12.3571
2537.5 -5.07143
2538.5 7.42857
2539.5 -3.07143
2540.5 17.2857
2541.5 3.64286
2542.5 16.7143
2543.5 6.5
2544.5 8.35714
2545.5 11.2143
2546.5 22.8571
2547.5 30.5714
2548.5 21.2143
2549.5 11.5714
2550.5 39
2551.5 2.07143
2552.5 18.0714
2553.5 26
2554.5 29.6429
2555.5 29.5714
2556.5 17.2143
2557.5 15.3571
2558.5 16.7857
2559.5 -1.57143
2560.5 -1.85714
2561.5 20.5714
2562.5 1.85714
2563.5 20.5
2564.5 25.6429
2565.5 0.07143
2566.5 16.2857
2567.5 9.71429
2568.5 -0.857141
2569.5 20.5
2570.5 11.5714
2571.5 13.4286
2572.5 26.5714
2573.5 17.5714
2574.5 11
2575.5 15.9286
2576.5 9.85714
2577.5 1.78572
2578.5 2.57143
2579.5 8.92857
2580.5 7.5
2581.5 19.2857
2582.5 5.78572
2583.5 13.7857
2584.5 2.14286
2585.5 -2.92857
2586.5 13.5714
2587.5 14.5
2588.5 15.2143
2589.5 4.14286
2590.5 14.5
2591.5 7.92857
2592.5 10.2857
2593.5 11.5
2594.5 22.9286
2595.5 13.2143
2596.5 3.57143
2597.5 -5.35714
2598.5 7.78572
2599.5 15.5
2600.5 18.6429
2601.5 -6.5
2602.5 12.2143
2603.5 15.0714
2604.5 20.7143
2605.5 12.8571
2606.5 8.21429
2607.5 7.92857
2608.5 19.4286
2609.5 2.14286
2610.5 10.5
2611.5 17.4286
2612.5 16.5
2613.5 9.21429
2614.5 31.1429
2615.5 51.7857
2616.5 88.0714
2617.5 169.643
2618.5 335.857
2619.5 355.429
2620.5 291.143
2621.5 140.571
2622.5 53.4286
2623.5 38.1429
2624.5 26.2857
2625.5 12.7857
2626.5 9.5
2627.5 0.857144
2628.5 5.42857
2629.5 26.9286
2630.5 21.8571
2631.5 8.35714
2632.5 6.28572
2633.5 23.2857
2634.5 26.6429
2635.5 15.8571
2636.5 37.4286
2637.5 85.6429
2638.5 148.643
2639.5 187.429
2640.5 225.5
2641.5 199.643
2642.5 95.0714
2643.5 23.9286
2644.5 -3.07143
2645.5 -7.57143
2646.5 14.2857
2647.5 11.6429
2648.5 9
2649.5 12.6429
2650.5 22.6429
2651.5 13.5
2652.5 16.1429
2653.5 32.6429
2654.5 60.8571
2655.5 99
2656.5 123.714
2657.5 84.0714
2658.5 87
2659.5 26.2143
2660.5 1
2661.5 9
2662.5 -7.14286
2663.5 10
2664.5 8
2665.5 -13.1429
2666.5 -19.7857
2667.5 -0.285713
2668.5 11.5714
2669.5 3.85714
2670.5 8.42857
2671.5 9.85714
2672.5 8.71429
2673.5 20.2143
2674.5 6
2675.5 8.35714
2676.5 11.4286
2677.5 13.5
2678.5 17.4286
2679.5 -5.21428
2680.5 -4.07143
2681.5 17.1429
2682.5 8.07143
2683.5 -2.07143
2684.5 26.4286
2685.5 -3.14286
2686.5 5.07143
2687.5 17.2143
2688.5 15.0714
2689.5 -2.21428
2690.5 20.0714
2691.5 0.357145
2692.5 -12.4286
2693.5 13.4286
2694.5 19.0714
2695.5 5.5
2696.5 8.5
2697.5 3.71429
2698.5 -3.21428
2699.5 3.21429
2700.5 8.28572
2701.5 -12.6429
2702.5 22.0714
2703.5 6.07143
2704.5 17.7857
2705.5 6.14286
2706.5 20.5
2707.5 22.2143
2708.5 -0.92857
2709.5 5
2710.5 14.5714
2711.5 8.21429
2712.5 7.07143
2713.5 3.14286
2714.5 25.6429
2715.5 25
2716.5 3.42857
2717.5 13.2857
2718.5 15.5
2719.5 25.2143
2720.5 -12.4286
2721.5 19.5714
2722.5 -0.714258
2723.5 -57.7143
2724.5 -8.07142
2725.5 2.71429
2726.5 14.6429
2727.5 -8.64286
2728.5 15.8571
2729.5 7
2730.5 10.2143
2731.5 29.4286
2732.5 20.9286
2733.5 3.57143
2734.5 8.92857
2735.5 29.0714
2736.5 15.9286
2737.5 16.7857
2738.5 0.785715
2739.5 24.2143
2740.5 4.28572
2741.5 16.7857
2742.5 15.4286
2743.5 40.2857
2744.5 18.2857
2745.5 26.5714
2746.5 8.35714
2747.5 15.4286
2748.5 9.57143
2749.5 0.500002
2750.5 8.71429
2751.5 18
2752.5 20.1429
2753.5 9.71429
2754.5 19.5
2755.5 15.2143
2756.5 8.42857
2757.5 17.6429
2758.5 13.7857
2759.5 24.8571
2760.5 14.6429
2761.5 14.8571
2762.5 12.1429
2763.5 19.7857
2764.5 16.0714
2765.5 16.1429
2766.5 9.71429
2767.5 25.2143
2768.5 11.0714
2769.5 16.7143
2770.5 7.64286
2771.5 9.64286
2772.5 17.7143
2773.5 17.5
2774.5 24.1429
2775.5 0.214287
2776.5 6.57143
2777.5 16.9286
2778.5 14.6429
2779.5 23.7143
2780.5 12.0714
2781.5 18.2857
2782.5 26.5714
2783.5 1.07143
2784.5 7.64286
2785.5 7.64286
2786.5 11.5714
2787.5 28.9286
2788.5 26.4286
2789.5 36.2143
2790.5 34.6429
2791.5 41
2792.5 18.4286
2793.5 18.7857
2794.5 7.35714
2795.5 22.1429
2796.5 1.57143
2797.5 7.35714
2798.5 2.92857
2799.5 -2.64286
2800.5 -7.71428
2801.5 11.5714
2802.5 6.92857
2803.5 4.71429
2804.5 3.78572
2805.5 17
2806.5 32.5
2807.5 12.6429
2808.5 23.8571
2809.5 18.3571
2810.5 9.42857
2811.5 -1.35714
2812.5 23.6429
2813.5 7.92857
2814.5 12.2857
2815.5 3
2816.5 11.5
2817.5 14
2818.5 24.6429
2819.5 -2.28571
2820.5 12.7857
2821.5 19.8571
2822.5 -1.42857
2823.5 2.35714
2824.5 0.357144
2825.5 8.07143
2826.5 4.78572
2827.5 9.64286
2828.5 2.42857
2829.5 4.42857
2830.5 18.0714
2831.5 -2.21428
2832.5 15.3571
2833.5 10.0714
2834.5 11.5714
2835.5 3.71429
2836.5 21.4286
2837.5 3.21429
2838.5 9.85714
2839.5 25.5
2840.5 5.64286
2841.5 9.07143
2842.5 6.64286
2843.5 16.5714
2844.5 -48.7143
2845.5 14.5714
2846.5 21.2857
2847.5 -32
2848.5 7.85715
2849.5 1.14286
2850.5 12.9286
2851.5 5.85714
2852.5 15.0714
2853.5 3.07143
2854.5 17.4286
2855.5 19.6429
2856.5 5.28572
2857.5 12.5714
2858.5 26.7857
2859.5 10.4286
2860.5 1.92857
2861.5 10.0714
2862.5 -1.21428
2863.5 12.8571
2864.5 10.8571
2865.5 2.57143
2866.5 11.5
2867.5 17.6429
2868.5 6.28572
2869.5 17.5
2870.5 16.4286
2871.5 3.71429
2872.5 12.6429
2873.5 20.7143
2874.5 9.92857
2875.5 -0.214285
2876.5 15.4286
2877.5 1
2878.5 2.78572
2879.5 1.28572
2880.5 -2.35714
2881.5 7.07143
2882.5 14.3571
2883.5 -8.5
2884.5 10.9286
2885.5 3.42857
2886.5 6.35714
2887.5 -1.85714
2888.5 -11.6429
2889.5 5.35714
2890.5 13.4286
2891.5 9.85714
2892.5 6
2893.5 12.2143
2894.5 23.7857
2895.5 -1.85714
2896.5 -3
2897.5 21.6429
2898.5 13.9286
2899.5 -9.14286
2900.5 2.92857
2901.5 15.8571
2902.5 22.8571
2903.5 11.0714
2904.5 7.21429
2905.5 6.42857
2906.5 3.35714
2907.5 8.07143
2908.5 12.5714
2909.5 21.0714
2910.5 -7.28571
2911.5 13.9286
2912.5 -10.3571
2913.5 1.43051e-06
2914.5 22.2143
2915.5 9.14286
2916.5 -13.7143
2917.5 13.5714
2918.5 11.6429
2919.5 18
2920.5 19
2921.5 12.8571
2922.5 12.2857
2923.5 -0.0714276
2924.5 13.6429
2925.5 6.92857
2926.5 14.2143
2927.5 0.57143
2928.5 0.714287
2929.5 9.85714
2930.5 11
2931.5 1.14286
2932.5 18.5714
2933.5 -2.42857
2934.5 4.71429
2935.5 18.9286
2936.5 0.928573
2937.5 9.07143
2938.5 6.14286
2939.5 7.57143
2940.5 24.1429
2941.5 2.71429
2942.5 23.0714
2943.5 27.8571
2944.5 -2.64285
2945.5 -11.2857
2946.5 -33.0714
2947.5 3.00001
2948.5 -0.714275
2949.5 12.4286
2950.5 27.7857
2951.5 15.5714
2952.5 0.714287
2953.5 10.2857
2954.5 8.35714
2955.5 23.5714
2956.5 11.3571
2957.5 7
2958.5 7.5
2959.5 5.85714
2960.5 5.42857
2961.5 14.4286
2962.5 12.5
2963.5 13.6429
2964.5 11.5
2965.5 1.21429
2966.5 10.7143
2967.5 15.3571
2968.5 13.5714
2969.5 15.0714
2970.5 -1.92857
2971.5 10.0714
2972.5 20.1429
2973.5 8.42857
2974.5 13.7857
2975.5 12
2976.5 9.57143
2977.5 16.7143
2978.5 25.2857
2979.5 0.428572
2980.5 -0.142856
2981.5 16.9286
2982.5 18.2857
2983.5 8.42857
2984.5 18.1429
2985.5 15.2143
2986.5 9.21429
2987.5 7.28572
2988.5 1.92857
2989.5 4.14286
2990.5 4.07143
2991.5 7.07143
2992.5 2.71429
2993.5 10.6429
2994.5 9.85714
2995.5 -0.42857
2996.5 15.5
2997.5 3.14286
2998.5 -1.92857
2999.5 7
3000.5 18
3001.5 26.3571
3002.5 59.6429
3003.5 144.071
3004.5 264.214
3005.5 293.214
3006.5 280.286
3007.5 163.357
3008.5 52.2143
3009.5 28.0714
3010.5 35.5
3011.5 46.2143
3012.5 34.7857
3013.5 25.2143
3014.5 22.0714
3015.5 29.1429
3016.5 36.4286
3017.5 35
3018.5 33.3571
3019.5 15.6429
3020.5 20
3021.5 0.07143
3022.5 7.57143
3023.5 5.78572
3024.5 26.0714
3025.5 -1.71428
3026.5 -1.71428
3027.5 9.57143
3028.5 9.57143
3029.5 1.21429
3030.5 16.5
3031.5 8
3032.5 -7.5
3033.5 -5.21428
3034.5 29.2143
3035.5 41.4286
3036.5 42
3037.5 95.4286
3038.5 115.714
3039.5 105.357
3040.5 27.5
3041.5 9.85714
3042.5 -33.2143
3043.5 -53.9286
3044.5 -39.2143
3045.5 -26.1429
3046.5 3.14286
3047.5 -0.142856
3048.5 0.142858
3049.5 9.64286
3050.5 35.1429
3051.5 11.2857
3052.5 8.07143
3053.5 17
3054.5 9
3055.5 6
3056.5 10.9286
3057.5 10.5
3058.5 4.71429
3059.5 3.71429
3060.5 -4
3061.5 12.3571
3062.5 10.0714
3063.5 9.78571
3064.5 -2
3065.5 7.64286
3066.5 1.57143
3067.5 14.7857
3068.5 11.4286
3069.5 9.71429
3070.5 10.2143
3071.5 6
3072.5 7.64286
3073.5 12.7857
3074.5 -8.35714
3075.5 1.42857
3076.5 0.714287
3077.5 15.7143
3078.5 21.2143
3079.5 -4.14286
3080.5 9.64286
3081.5 10.7143
3082.5 4.35714
3083.5 5.85714
3084.5 19.5
3085.5 7.28572
3086.5 13.8571
3087.5 22
3088.5 4.42857
3089.5 4.92857
3090.5 18.0714
3091.5 -0.928571
3092.5 16.7857
3093.5 12.4286
3094.5 8.57143
3095.5 2.14286
3096.5 1.5
3097.5 -8.64286
3098.5 -8.28571
3099.5 -21.2857
3100.5 -13.0714
3101.5 -23.5714
3102.5 5.64286
3103.5 14.0714
3104.5 11.6429
3105.5 5.35714
3106.5 25.4286
3107.5 10
3108.5 10.7857
3109.5 17.1429
3110.5 16.5
3111.5 -0.285713
3112.5 4.78572
3113.5 -1.21428
3114.5 3.5
3115.5 28.0714
3116.5 2.85714
3117.5 18.9286
3118.5 11.3571
3119.5 9.92857
3120.5 21.8571
3121.5 19.8571
3122.5 9.14286
3123.5 18.0714
3124.5 23
3125.5 23.9286
3126.5 30
3127.5 23.5
3128.5 9.71429
3129.5 5.85714
3130.5 12
3131.5 12.2143
3132.5 2.5
3133.5 1.35714
3134.5 14.6429
3135.5 12.7857
3136.5 14
3137.5 17.8571
3138.5 13.5
3139.5 -5.07143
3140.5 11.9286
3141.5 0.928572
3142.5 -5.35714
3143.5 11.5714
3144.5 13
3145.5 4.07143
3146.5 10.5
3147.5 3.28572
3148.5 16.8571
3149.5 26.4286
3150.5 9.28572
3151.5 25.8571
3152.5 15.7857
3153.5 14.5714
3154.5 4.35714
3155.5 9.53674e-07
3156.5 13.2857
3157.5 18.5
3158.5 12.3571
3159.5 19.7857
3160.5 10.2857
3161.5 27.5
3162.5 6.71429
3163.5 1
3164.5 10.6429
3165.5 -1.28571
3166.5 7.42857
3167.5 13.5
3168.5 2
3169.5 9.5
3170.5 9.85714
3171.5 17.2857
3172.5 -7.35714
3173.5 15.2857
3174.5 10.0714
3175.5 15.4286
3176.5 18.5
3177.5 8.21429
3178.5 3.14286
3179.5 7.28572
3180.5 13.5714
3181.5 16.5
3182.5 -0.857142
3183.5 5.5
3184.5 -1.28571
3185.5 4.28572
3186.5 7.57143
3187.5 4.21429
3188.5 2.35714
3189.5 -1.14286
3190.5 9.92857
3191.5 0.428572
3192.5 17.9286
3193.5 3.64286
3194.5 8.5
3195.5 1.21429
3196.5 2.35714
3197.5 14.7857
3198.5 13.0714
3199.5 -1.28571
3200.5 7.92857
3201.5 14.0714
3202.5 16.9286
3203.5 1.57143
3204.5 9.28572
3205.5 -6.21428
3206.5 10.8571
3207.5 7.35714
3208.5 -0.999999
3209.5 6.14286
3210.5 11.2857
3211.5 4.57143
3212.5 -1.64286
3213.5 6.5
3214.5 -3.92857
3215.5 5.85714
3216.5 -5.21429
3217.5 -4.57143
3218.5 14.1429
3219.5 1.42857
3220.5 1.57143
3221.5 -0.857142
3222.5 17.1429
3223.5 -5.14286
3224.5 6.42857
3225.5 13.7143
3226.5 0.428572
3227.5 -9.64286
3228.5 1.5
3229.5 -3.71428
3230.5 3.5
3231.5 9.71429
3232.5 22.5714
3233.5 10.9286
3234.5 -6
3235.5 21.2143
3236.5 1.35714
3237.5 8.57143
3238.5 -0.857141
3239.5 4.35714
3240.5 2.21429
3241.5 2.5
3242.5 6.5
3243.5 0.142859
3244.5 0.357144
3245.5 20.7857
3246.5 -3.78571
3247.5 4.07143
3248.5 13.8571
3249.5 1.35714
3250.5 11.7143
3251.5 15.7857
3252.5 5.57143
3253.5 2.57143
3254.5 -4.71428
3255.5 4.64286
3256.5 3.42857
3257.5 1.42857
3258.5 5.92857
3259.5 10.9286
3260.5 -4.42857
3261.5 12.8571
3262.5 8.78571
3263.5 -4.85714
3264.5 7.78571
3265.5 4
3266.5 13
3267.5 15.6429
3268.5 12.5714
3269.5 -9.78571
3270.5 18.2143
3271.5 6
3272.5 -8
3273.5 12.9286
3274.5 9.42857
3275.5 5.71429
3276.5 15.4286
3277.5 1.28572
3278.5 8.71429
3279.5 23.1429
3280.5 20.9286
3281.5 -9.71428
3282.5 15.5714
3283.5 6.64286
3284.5 -10.9286
3285.5 5.78571
3286.5 2.21429
3287.5 -4.78571
3288.5 -5.78571
3289.5 4.78571
3290.5 -1.64286
3291.5 -1.85714
3292.5 -4
3293.5 16.9286
3294.5 6.28572
3295.5 11.7143
3296.5 29
3297.5 49
3298.5 118.786
3299.5 194.786
3300.5 296.571
3301.5 326.786
3302.5 250.071
3303.5 121.5
3304.5 41.4286
3305.5 27.7857
3306.5 22.7143
3307.5 6.57143
3308.5 5.42857
3309.5 0.285715
3310.5 3.35714
3311.5 2.64286
3312.5 16.5
3313.5 15.9286
3314.5 13.0714
3315.5 5.35714
3316.5 2
3317.5 15.6429
3318.5 13.4286
3319.5 -8.78571
3320.5 18.2857
3321.5 26.1429
3322.5 -6.28571
3323.5 4.35715
3324.5 6.64286
3325.5 4.57143
3326.5 16.7857
3327.5 1.42857
3328.5 -2
3329.5 12.7143
3330.5 -8
3331.5 3.57143
3332.5 5.71429
3333.5 -5.85714
3334.5 -2.92857
3335.5 0.285715
3336.5 16.3571
3337.5 1.42857
3338.5 10
3339.5 7.35714
3340.5 0.500001
3341.5 18
3342.5 13.9286
3343.5 6
3344.5 4.35714
3345.5 3.78571
3346.5 4.28572
3347.5 10.5714
3348.5 6.07143
3349.5 -1.07143
3350.5 1.21429
3351.5 14.7143
3352.5 2.35714
3353.5 8.42857
3354.5 10.0714
3355.5 -5.21428
3356.5 19.0714
3357.5 2.21429
3358.5 8.28572
3359.5 3.64286
3360.5 8.14286
3361.5 5.78571
3362.5 2.42857
3363.5 18
3364.5 0.285715
3365.5 9.57143
3366.5 11.6429
3367.5 5.14286
3368.5 4.14286
3369.5 0.0714295
3370.5 16.4286
3371.5 -0.571428
3372.5 8.5
3373.5 7.85714
3374.5 -3.5
3375.5 -10.0714
3376.5 13.1429
3377.5 17.8571
3378.5 -6.42857
3379.5 18.1429
3380.5 9.64286
3381.5 -10.1429
3382.5 10.5714
3383.5 -5.07143
3384.5 6.64286
3385.5 12.7143
3386.5 1.78571
3387.5 1.21429
3388.5 18.2857
3389.5 -2.21428
3390.5 7.78571
3391.5 6.5
3392.5 5.57143
3393.5 13.8571
3394.5 17.8571
3395.5 4.21429
3396.5 14.9286
3397.5 6.5
3398.5 6.71429
3399.5 5.78571
3400.5 -1.35714
3401.5 2.92857
3402.5 -2.92857
3403.5 6.64286
3404.5 4.57143
3405.5 14.9286
3406.5 1.64286
3407.5 11.6429
3408.5 -1.35714
3409.5 6.5
3410.5 10.2857
3411.5 3.57143
3412.5 23.1429
3413.5 30.9286
3414.5 20.0714
3415.5 -0.499999
3416.5 -5.64286
3417.5 12.2857
3418.5 8.92857
3419.5 0.928572
3420.5 6.71429
3421.5 12
3422.5 9.78572
3423.5 10.6429
3424.5 9.71429
3425.5 -2.78571
3426.5 3.35715
3427.5 11
3428.5 2.14286
3429.5 12.2857
3430.5 6.07143
3431.5 12.2143
3432.5 10.7857
3433.5 4.57143
3434.5 12.8571
3435.5 10
3436.5 -7.85714
3437.5 1.64286
3438.5 3.78571
3439.5 8
3440.5 6.35714
3441.5 6.57143
3442.5 8.28571
3443.5 -7.07143
3444.5 9
3445.5 1.78571
3446.5 6.28572
3447.5 19
3448.5 -11.1429
3449.5 12.3571
3450.5 5.92857
3451.5 4.57143
3452.5 -0.428571
3453.5 0.428572
3454.5 13.1429
3455.5 10.7143
3456.5 13.3571
3457.5 -6
3458.5 2.64286
3459.5 3.42857
3460.5 -11.7143
3461.5 0.785716
3462.5 -17.2857
3463.5 -5.14286
3464.5 3.42857
3465.5 3.07143
3466.5 -3.35714
3467.5 -1.21429
3468.5 6.28571
3469.5 6.85714
3470.5 16.2143
3471.5 -1.14286
3472.5 1.78571
3473.5 1
3474.5 8.21429
3475.5 0.500001
3476.5 5.85714
3477.5 1.14286
3478.5 -6.5
3479.5 9.71429
3480.5 7.64286
3481.5 2.21429
3482.5 9
3483.5 -6.64286
3484.5 14.8571
3485.5 10.5
3486.5 10.0714
3487.5 -0.642856
3488.5 7.85714
3489.5 25.5
3490.5 5.5
3491.5 -16.3571
3492.5 5.07143
3493.5 -2.07143
3494.5 17.1429
3495.5 2.85714
3496.5 -0.214285
3497.5 9.71429
3498.5 0.571429
3499.5 10.2143
3500.5 7.92857
3501.5 -0.0714281
3502.5 0.500001
3503.5 -6.21429
3504.5 14.1429
3505.5 -4.64286
3506.5 4.64286
3507.5 6.64286
3508.5 5.78571
3509.5 7.71429
3510.5 8.35714
3511.5 10.0714
3512.5 14.0714
3513.5 1.21429
3514.5 8
3515.5 13.2143
3516.5 15.2857
3517.5 -6.42857
3518.5 4.14286
3519.5 2.92857
3520.5 -8.57143
3521.5 -3.64286
3522.5 -10.7143
3523.5 9.42857
3524.5 -2.78571
3525.5 11.9286
3526.5 10
3527.5 5.71429
3528.5 -6.07143
3529.5 16.7857
3530.5 1.64286
3531.5 -4.57143
3532.5 -3.07142
3533.5 -14.6429
3534.5 7.92857
3535.5 -2.85714
3536.5 0.428572
3537.5 -11.5714
3538.5 6.14286
3539.5 -2.35714
3540.5 5.78571
3541.5 10.2143
3542.5 3.28571
3543.5 7.21429
3544.5 20.2143
3545.5 1.85714
3546.5 1.21429
3547.5 7.21429
3548.5 2.92857
3549.5 0.857143
3550.5 3.85714
3551.5 15.1429
3552.5 10.0714
3553.5 3.14286
3554.5 11.4286
3555.5 9.28571
3556.5 13.2857
3557.5 11.3571
3558.5 5.35714
3559.5 0.642858
3560.5 5.14286
3561.5 -3.92857
3562.5 -3.64286
3563.5 5.07143
3564.5 18.4286
3565.5 4.92857
3566.5 10.2143
3567.5 5
3568.5 7.14286
3569.5 1.92857
3570.5 7.07143
3571.5 6
3572.5 5.07143
3573.5 7.42857
3574.5 1.07143
3575.5 5
3576.5 -15.5714
3577.5 7.42857
3578.5 6
3579.5 1.57143
3580.5 -0.714285
3581.5 0.214287
3582.5 8.28572
3583.5 3.28572
3584.5 13.2143
3585.5 -7.64286
3586.5 -1
3587.5 -3.42857
3588.5 3.78571
3589.5 6.35714
3590.5 3.57143
3591.5 1.07143
3592.5 2.78571
3593.5 16.3571
3594.5 8.71429
3595.5 8
3596.5 0.714286
3597.5 1.92857
3598.5 12.2143
3599.5 -1.71429
3600.5 3.14286
3601.5 6.92857
3602.5 10.1429
3603.5 3.07143
3604.5 1.07143
3605.5 1.85714
3606.5 -5.64286
3607.5 -19.4286
3608.5 -11.0714
3609.5 -12.3571
3610.5 -11.9286
3611.5 13.8571
3612.5 -0.642856
3613.5 4.35714
3614.5 8.78571
3615.5 5.85714
3616.5 3.5
3617.5 6.35714
3618.5 34.8571
3619.5 36.2857
3620.5 75.2857
3621.5 70.8571
3622.5 59.9286
3623.5 39.8571
3624.5 43.6429
3625.5 10.0714
3626.5 11.3571
3627.5 15.7857
3628.5 37.2857
3629.5 28.0714
3630.5 49.7857
3631.5 32.9286
3632.5 44.7857
3633.5 33.6429
3634.5 29.9286
3635.5 22.5714
3636.5 42.1429
3637.5 29
3638.5 22.3571
3639.5 42.7857
3640.5 25.7143
3641.5 17.9286
3642.5 2.5
3643.5 -5.5
3644.5 -0.928568
3645.5 1.64286
3646.5 43.1429
3647.5 15.7857
3648.5 4.35714
3649.5 9.64286
3650.5 -6.85714
3651.5 -3.28571
3652.5 4.71429
3653.5 4.42857
3654.5 -22.7143
3655.5 -9.07143
3656.5 5.5
3657.5 5.5
3658.5 32.2143
3659.5 59.8571
3660.5 93.8571
3661.5 124.357
3662.5 80.0714
3663.5 48.7857
3664.5 29.5
3665.5 10
3666.5 20.2857
3667.5 -2.35714
3668.5 7.14286
3669.5 7
3670.5 1.92857
3671.5 5.85714
3672.5 4.85714
3673.5 14.2857
3674.5 10.9286
3675.5 16.2143
3676.5 5.21429
3677.5 12.2143
3678.5 6.28571
3679.5 5
3680.5 4.28571
3681.5 8.14286
3682.5 0.357143
3683.5 -2.07143
3684.5 8
3685.5 8.28571
3686.5 7.78571
3687.5 5.28571
3688.5 4
3689.5 5.14286
3690.5 1.78571
3691.5 3.14286
3692.5 4.78571
3693.5 4.85714
3694.5 11.3571
3695.5 11.3571
3696.5 4.07143
3697.5 1.14286
3698.5 -1.85714
3699.5 13.6429
3700.5 7.35714
3701.5 3.71429
3702.5 -2.64286
3703.5 0.642858
3704.5 -1.07143
3705.5 5.07143
3706.5 -2.35714
3707.5 4.57143
3708.5 -5.21429
3709.5 -6.28571
3710.5 3.14286
3711.5 6.35714
3712.5 -2.42857
3713.5 4.21429
3714.5 7.28571
3715.5 9.07143
3716.5 9.07143
3717.5 1.71429
3718.5 7.14286
3719.5 3.07143
3720.5 1.57143
3721.5 -1.5
3722.5 8.78571
3723.5 7.92857
3724.5 -4.5
3725.5 4.85714
3726.5 13.2857
3727.5 3.14286
3728.5 4
3729.5 -4
3730.5 5.07143
3731.5 -3.07143
3732.5 4.07143
3733.5 2.92857
3734.5 8.57143
3735.5 1.07143
3736.5 9.35714
3737.5 3.14286
3738.5 5.21429
3739.5 6.85714
3740.5 13.3571
3741.5 -3.71428
3742.5 -0.142856
3743.5 11.0714
3744.5 13.6429
3745.5 -1.28571
3746.5 10.5
3747.5 -3.85714
3748.5 10.6429
3749.5 -2.28571
3750.5 -10.5
3751.5 10.5714
3752.5 9.07143
3753.5 -5.14286
3754.5 11.3571
3755.5 -1
3756.5 4.76837e-07
3757.5 2
3758.5 4.42857
3759.5 -12.5714
3760.5 4.21429
3761.5 3.14286
3762.5 7.28571
3763.5 7.14286
3764.5 9.35714
3765.5 2.42857
3766.5 12.3571
3767.5 -5.21429
3768.5 -2.92857
3769.5 3.28571
3770.5 5.5
3771.5 -5.14286
3772.5 14.6429
3773.5 2.78571
3774.5 1.78571
3775.5 1.78571
3776.5 1.57143
3777.5 6.35714
3778.5 8.07143
3779.5 13.6429
3780.5 -5.14286
3781.5 -2.07143
3782.5 2.14286
3783.5 0.857143
3784.5 3.64286
3785.5 4.78571
3786.5 1.5
3787.5 11.9286
3788.5 1.92857
3789.5 0.357143
3790.5 1.21429
3791.5 2.35714
3792.5 9.28571
3793.5 -7.35714
3794.5 7.57143
3795.5 7.07143
3796.5 2.14286
3797.5 -6
3798.5 7
3799.5 3.21429
3800.5 8.5
3801.5 12.1429
3802.5 -1.85714
3803.5 4.28571
3804.5 7.42857
3805.5 5.28571
3806.5 4
3807.5 8.71429
3808.5 6.57143
3809.5 -0.928571
3810.5 8.28571
3811.5 3.85714
3812.5 -3.85714
3813.5 5.21429
3814.5 0.214286
3815.5 -0.785714
3816.5 5.35714
3817.5 1.92857
3818.5 6.28571
3819.5 5.92857
3820.5 11.4286
3821.5 11.3571
3822.5 12.5714
3823.5 3.78571
3824.5 1.57143
3825.5 15.8571
3826.5 11.5
3827.5 -3.21428
3828.5 -6.57143
3829.5 8.14286
3830.5 1.07143
3831.5 -0.928571
3832.5 -5.92857
3833.5 0.785715
3834.5 -1.42857
3835.5 -2.85714
3836.5 5.57143
3837.5 -1.85714
3838.5 6.57143
3839.5 1
3840.5 1.92857
3841.5 -2
3842.5 0.285715
3843.5 -2.5
3844.5 14.7143
3845.5 -23.8571
3846.5 8
3847.5 0.142859
3848.5 5.5
3849.5 -3.71428
3850.5 3.14286
3851.5 -2.71428
3852.5 -1
3853.5 -4
3854.5 -6.35714
3855.5 8.64286
3856.5 -7.5
3857.5 -5.57143
3858.5 -2.71428
3859.5 21.5
3860.5 9.28572
3861.5 1.21429
3862.5 8.92857
3863.5 -8.85714
3864.5 0.428572
3865.5 -6.14286
3866.5 16.5714
3867.5 -5.64285
3868.5 2.21429
3869.5 17.6429
3870.5 2.14286
3871.5 -4.85714
3872.5 3
3873.5 8
3874.5 7.14286
3875.5 4.28571
3876.5 3.5
3877.5 2.35714
3878.5 -4.92857
3879.5 -2.78571
3880.5 6.5
3881.5 -2.71429
3882.5 2.21429
3883.5 -1.92857
3884.5 -1.14286
3885.5 2.5
3886.5 9.28571
3887.5 11.3571
3888.5 5.35714
3889.5 10.4286
3890.5 11.5
3891.5 1.21429
3892.5 7.5
3893.5 0.357143
3894.5 -0.0714281
3895.5 -5.21429
3896.5 6.57143
3897.5 6.57143
3898.5 4.5
3899.5 -0.857142
3900.5 6.64286
3901.5 -1.57143
3902.5 13.0714
3903.5 13.6429
3904.5 10.9286
3905.5 13.2857
3906.5 -7.21429
3907.5 -1.78571
3908.5 2
3909.5 4.42857
3910.5 1.28571
3911.5 -2.78571
3912.5 2.35714
3913.5 4.78571
3914.5 0.357143
3915.5 1.5
3916.5 3.5
3917.5 9.28571
3918.5 0.214286
3919.5 -0.5
3920.5 2.35714
3921.5 -6
3922.5 0.285715
3923.5 -1.85714
3924.5 8.64286
3925.5 8.57143
3926.5 6.57143
3927.5 9.64286
3928.5 -3.78571
3929.5 -2.78571
3930.5 12.4286
3931.5 9.35714
3932.5 -4.14286
3933.5 -3.42857
3934.5 3.71429
3935.5 2.28572
3936.5 1.57143
3937.5 -2.35714
3938.5 9.5
3939.5 0.357143
3940.5 6.57143
3941.5 -2.64286
3942.5 -2.78571
3943.5 1.42857
3944.5 9.71429
3945.5 -1
3946.5 5.35714
3947.5 5.5
3948.5 0.214286
3949.5 3.42857
3950.5 0.142858
3951.5 -2.35714
3952.5 5.5
3953.5 -0.642857
3954.5 5.64286
3955.5 8.71429
3956.5 6.28571
3957.5 2.07143
3958.5 -0.785714
3959.5 13.7143
3960.5 0.142858
3961.5 -0.714285
3962.5 -4.78571
3963.5 0.071429
3964.5 7.35714
3965.5 -4.14286
3966.5 -1.35714
3967.5 10.5714
3968.5 15.7143
3969.5 22.7143
3970.5 -9.78571
3971.5 10.5
3972.5 25.8572
3973.5 -15.3571
3974.5 6.07143
3975.5 -16.9286
3976.5 22.4286
3977.5 -2.07143
3978.5 6.07143
3979.5 -5.07143
3980.5 -1.78571
3981.5 5.35714
3982.5 3.42857
3983.5 10.6429
3984.5 4.71429
3985.5 6.64286
3986.5 1.35714
3987.5 -1.64286
3988.5 2.42857
3989.5 6.64286
3990.5 0.571429
3991.5 0.571429
3992.5 6.71429
3993.5 -1.57143
3994.5 -4.57143
3995.5 4.5
3996.5 -3.92857
3997.5 -0.857142
3998.5 -3.57143
3999.5 1.42857
4000.5 -4.92857
4001.5 4.57143
4002.5 -1.57143
4003.5 4.78571
4004.5 7.71429
4005.5 5.71429
4006.5 2.57143
4007.5 4.78571
4008.5 3.71429
4009.5 1.57143
4010.5 10.8571
4011.5 12.7857
4012.5 0.785714
4013.5 -0.642857
4014.5 7.85714
4015.5 6.78571
4016.5 6.71429
4017.5 -3.78571
4018.5 8.85714
4019.5 4.71429
4020.5 3.71429
4021.5 0.571429
4022.5 -3.64286
4023.5 8.71429
4024.5 -1.35714
4025.5 -2.78571
4026.5 3.5
4027.5 -1.5
4028.5 -2.64286
4029.5 1.64286
4030.5 6.57143
4031.5 1.64286
4032.5 7.64286
4033.5 -1.78571
4034.5 -2
4035.5 -0.714285
4036.5 -2.85714
4037.5 1.57143
4038.5 4.42857
4039.5 6.64286
4040.5 7.78571
4041.5 -2.5
4042.5 3.64286
4043.5 1.64286
4044.5 7.85714
4045.5 4.71429
4046.5 8.64286
4047.5 1.64286
4048.5 10
4049.5 2.71429
4050.5 -1.57143
4051.5 1.85714
4052.5 -0.642857
4053.5 9.57143
4054.5 -1.57143
4055.5 -0.142857
4056.5 3.78571
4057.5 8.71429
4058.5 4.64286
4059.5 -0.5
4060.5 -0.571428
4061.5 2.57143
4062.5 0.285715
4063.5 4.71429
4064.5 1.71429
4065.5 -1.64286
4066.5 -3.5
4067.5 -0.285714
4068.5 0.5
4069.5 2.64286
4070.5 4.64286
4071.5 2.28571
4072.5 -1.71429
4073.5 11.7857
4074.5 0.285715
4075.5 1.5
4076.5 0.357143
4077.5 5.57143
4078.5 2.92857
4079.5 -2.35714
4080.5 5.71429
4081.5 -1.57143
4082.5 5.78571
4083.5 3.57143
4084.5 5.85714
4085.5 1.64286
4086.5 4.71429
4087.5 1.64286
4088.5 -2.42857
4089.5 -3.57143
4090.5 10.7857
4091.5 3.71429
4092.5 3.92857
4093.5 7.78571
4094.5 2.85714
4095.5 2.78571
4096.5 -3.28571
4097.5 1.64286
4098.5 -2.57143
4099.5 4.85714
4100.5 -2.42857
4101.5 3.85714
4102.5 4.71429
4103.5 1.64286
4104.5 -2.42857
4105.5 -5.64286
4106.5 10.9286
4107.5 4.64286
4108.5 1.64286
4109.5 -0.428571
4110.5 1.57143
4111.5 -2.57143
4112.5 -8.71429
4113.5 -1.64286
4114.5 2.78571
4115.5 -9.85714
4116.5 -14.6429
4117.5 -45.5
4118.5 -41.3571
4119.5 -56.3571
4120.5 -34.7857
4121.5 -16.7857
4122.5 -6.78571
4123.5 -5.78571
4124.5 1.57143
4125.5 1.64286
4126.5 4.35714
4127.5 8.57143
4128.5 4.5
4129.5 13.5714
4130.5 18.5714
4131.5 32.7857
4132.5 22.3571
4133.5 38.8571
4134.5 36.6429
4135.5 34.7143
4136.5 47.4286
4137.5 83.2857
4138.5 115.357
4139.5 147.571
4140.5 165.071
4141.5 139.643
4142.5 139.571
4143.5 143.786
4144.5 145.5
4145.5 101.571
4146.5 34.3571
4147.5 21.5714
4148.5 5.42857
4149.5 7.64286
4150.5 4.57143
4151.5 4.64286
4152.5 1.78571
4153.5 0.714286
4154.5 1.71429
4155.5 -0.428571
4156.5 7.57143
4157.5 -1.28571
4158.5 2.78571
4159.5 0.785714
4160.5 -1.57143
4161.5 -4.64286
4162.5 -27.2857
4163.5 -25.0714
4164.5 -34
4165.5 -54
4166.5 -66.7143
4167.5 -36.2143
4168.5 -9.64286
4169.5 -4.35714
4170.5 -5.35714
4171.5 4.07143
4172.5 2.64286
4173.5 4.92857
4174.5 -7.5
4175.5 1.78571
4176.5 2.78571
4177.5 7.71429
4178.5 -0.285714
4179.5 -0.357143
4180.5 -1.28571
4181.5 6.85714
4182.5 6.92857
4183.5 2.64286
4184.5 1.64286
4185.5 3.85714
4186.5 -3.57143
4187.5 -4.78571
4188.5 -2.42857
4189.5 -3.42857
4190.5 0.571429
4191.5 -4.35714
4192.5 -1.21429
4193.5 -2.42857
4194.5 6.85714
4195.5 1.78571
4196.5 1.78571
4197.5 5.92857
4198.5 -4.42857
4199.5 -2.35714
4200.5 -0.285714
4201.5 1.78571
4202.5 4.78571
4203.5 0.714286
4204.5 -0.357143
4205.5 -1.35714
4206.5 1.64286
4207.5 1.5
4208.5 0.5
4209.5 -2.5
4210.5 -6.57143
4211.5 -7.71429
4212.5 1.85714
4213.5 -1.35714
4214.5 -2.5
4215.5 3.42857
4216.5 -0.285714
4217.5 3.78571
4218.5 -0.428571
4219.5 2.42857
4220.5 0.571429
4221.5 3.71429
4222.5 8
4223.5 3.85714
4224.5 -1.42857
4225.5 4.71429
4226.5 4.92857
4227.5 -1.28571
4228.5 -0.357143
4229.5 -6.64286
4230.5 0.785714
4231.5 4.78571
4232.5 0.857143
4233.5 -3.28571
4234.5 1.85714
4235.5 3.92857
4236.5 2.78571
4237.5 2.71429
4238.5 -3.35714
4239.5 -0.428571
4240.5 1.71429
4241.5 5.78571
4242.5 2.78571
4243.5 2.64286
4244.5 4.85714
4245.5 2.92857
4246.5 -1.28571
4247.5 2.85714
4248.5 8
4249.5 2.57143
4250.5 2.85714
4251.5 -3.64286
4252.5 3.64286
4253.5 -5.5
4254.5 1.71429
4255.5 1.57143
4256.5 -1.35714
4257.5 0.5
4258.5 5.78571
4259.5 -6.85714
4260.5 4.92857
4261.5 -1.21429
4262.5 5.78571
4263.5 1.5
4264.5 -3.57143
4265.5 0.5
4266.5 0.785714
4267.5 -2.42857
4268.5 3.57143
4269.5 -1.28571
4270.5 2.64286
4271.5 1.71429
4272.5 5.78571
4273.5 2.71429
4274.5 7.71429
4275.5 -2.64286
4276.5 0.714286
4277.5 -1.28571
4278.5 0.857143
4279.5 2.85714
4280.5 -2.5
4281.5 -3.42857
4282.5 6.78571
4283.5 2.92857
4284.5 -7.57143
4285.5 -2.42857
4286.5 -4.57143
4287.5 0.714286
4288.5 -0.285714
4289.5 2.64286
4290.5 -3.71429
4291.5 5
4292.5 1.92857
4293.5 -0.285714
4294.5 5.64286
4295.5 1.78571
4296.5 3.64286
4297.5 -1.28571
4298.5 0.642857
4299.5 3.78571
4300.5 0.428572
4301.5 -0.357143
4302.5 -2.5
4303.5 3.71429
4304.5 -3.64286
4305.5 -0.214286
4306.5 -4.42857
4307.5 3.85714
4308.5 -0.285714
4309.5 4.71429
4310.5 3.5
4311.5 1.71429
4312.5 4.78571
4313.5 1.57143
4314.5 5.85714
4315.5 4.92857
4316.5 -4.42857
4317.5 -0.214286
4318.5 -0.5
4319.5 4.78571
4320.5 0.785714
4321.5 5.92857
4322.5 -2.42857
4323.5 -3.5
4324.5 1.78571
4325.5 0.714286
4326.5 6.92857
4327.5 -7.57143
4328.5 2.78571
4329.5 1.78571
4330.5 3.78571
4331.5 4.92857
4332.5 0.857143
4333.5 4.64286
4334.5 -2.5
4335.5 7.71429
4336.5 -2.42857
4337.5 3.78571
4338.5 -1.5
4339.5 -0.357143
4340.5 1.78571
4341.5 1.71429
4342.5 2.78571
4343.5 -1.42857
4344.5 2.71429
4345.5 -3.28571
4346.5 0.785714
4347.5 -2.35714
4348.5 -3.5
4349.5 -3.42857
4350.5 -1.35714
4351.5 2.85714
4352.5 3.85714
4353.5 -1.57143
4354.5 -1.35714
4355.5 3.85714
4356.5 3.64286
4357.5 4.85714
4358.5 -1.64286
4359.5 -0.5
4360.5 -0.285714
4361.5 4.85714
4362.5 1.85714
4363.5 5.85714
4364.5 -0.428571
4365.5 -0.0714285
4366.5 4.57143
4367.5 -3.57143
4368.5 0.642857
4369.5 2.92857
4370.5 -2.57143
4371.5 0.714286
4372.5 0.5
4373.5 6.78571
4374.5 -3.42857
4375.5 1.71429
4376.5 2.64286
4377.5 2.64286
4378.5 -1.42857
4379.5 2.78571
4380.5 2.57143
4381.5 -0.642857
4382.5 7.85714
4383.5 -5.64286
4384.5 1.64286
4385.5 -1.28571
4386.5 -2.28571
4387.5 -0.285714
4388.5 2.64286
4389.5 5.64286
4390.5 -0.571428
4391.5 -0.428571
4392.5 0.428572
4393.5 2.57143
4394.5 -0.428571
4395.5 2.64286
4396.5 -2.5
4397.5 -2.64286
4398.5 -0.5
4399.5 1.85714
4400.5 1.85714
4401.5 0.785714
4402.5 -2.42857
4403.5 -2.42857
4404.5 -0.428571
4405.5 1.71429
4406.5 8.71429
4407.5 2.78571
4408.5 -0.285714
4409.5 3
4410.5 3.78571
4411.5 3.78571
4412.5 -2.35714
4413.5 -0.357143
4414.5 -0.428571
4415.5 -0.285714
4416.5 8.85714
4417.5 -1.28571
4418.5 -3.42857
4419.5 -4.78571
4420.5 -0.285714
4421.5 1.64286
4422.5 0.785714
4423.5 0.928571
4424.5 0.714286
4425.5 -2.35714
4426.5 -2.5
4427.5 3.85714
4428.5 0.642857
4429.5 5.92857
4430.5 0.714286
4431.5 5.85714
4432.5 1.78571
4433.5 -2.42857
4434.5 -0.428571
4435.5 -1.64286
4436.5 2.57143
4437.5 2.57143
4438.5 2.71429
4439.5 3.78571
4440.5 -1.35714
4441.5 2.64286
4442.5 5
4443.5 4.78571
4444.5 -3.35714
4445.5 -1.21429
4446.5 3.78571
4447.5 1.78571
4448.5 0.785714
4449.5 -8.85714
4450.5 8
4451.5 1.71429
4452.5 0.785714
4453.5 -2.28571
4454.5 3.71429
4455.5 0.5
4456.5 2.42857
4457.5 -1.5
4458.5 0.714286
4459.5 1.57143
4460.5 -5.78571
4461.5 4.78571
4462.5 -3.42857
4463.5 4.71429
4464.5 1.78571
4465.5 3.92857
4466.5 -0.285714
4467.5 -0.214286
4468.5 -2.21429
4469.5 -0.357143
4470.5 -3.57143
4471.5 -2.5
4472.5 -0.357143
4473.5 -1.35714
4474.5 -4.42857
4475.5 -0.142857
4476.5 -5.5
4477.5 -0.285714
4478.5 4.71429
4479.5 1.71429
4480.5 -1.35714
4481.5 1.64286
4482.5 -0.428571
4483.5 -2.28571
4484.5 1.85714
4485.5 -3.35714
4486.5 1.85714
4487.5 7.92857
4488.5 -1.35714
4489.5 0.642857
4490.5 4.92857
4491.5 1.71429
4492.5 -1.5
4493.5 -7.85714
4494.5 -3.5
4495.5 -1.28571
4496.5 -0.285714
4497.5 1.78571
4498.5 3.71429
4499.5 8
4500.5 0.714286
4501.5 -2.35714
4502.5 -0.285714
4503.5 -2.57143
4504.5 -8.78571
4505.5 -3.5
4506.5 -7.07143
4507.5 -10.3571
4508.5 -11.0714
4509.5 -6.28571
4510.5 -6.92857
4511.5 -2.5
4512.5 -0.285714
4513.5 2.78571
4514.5 -0.285714
4515.5 -2.28571
4516.5 1.71429
4517.5 4.78571
4518.5 -1.21429
4519.5 -2.35714
4520.5 1.78571
4521.5 1.85714
4522.5 -4.28571
4523.5 1.64286
4524.5 1.78571
4525.5 -0.0714285
4526.5 -1.21429
4527.5 -0.214286
4528.5 -2.35714
4529.5 0.642857
4530.5 5.78571
4531.5 2.78571
4532.5 0.714286
4533.5 0.714286
4534.5 1.85714
4535.5 1.85714
4536.5 4.92857
4537.5 2.92857
4538.5 0.857143
4539.5 3.92857
4540.5 -3.35714
4541.5 -1.14286
4542.5 -1.21429
4543.5 6.85714
4544.5 -2.28571
4545.5 5.85714
4546.5 1.85714
4547.5 -2.28571
4548.5 1.78571
4549.5 1.85714
4550.5 -3.42857
4551.5 -0.285714
4552.5 0.642857
4553.5 -1.21429
4554.5 -1.21429
4555.5 -3.42857
4556.5 6.78571
4557.5 -2.35714
4558.5 4.71429
4559.5 -0.285714
4560.5 5.92857
4561.5 2
4562.5 -1.28571
4563.5 4.92857
4564.5 -0.142857
4565.5 -2.42857
4566.5 5.78571
4567.5 1.85714
4568.5 -0.285714
4569.5 8
4570.5 0.928571
4571.5 1.85714
4572.5 -0.285714
4573.5 1.85714
4574.5 -1.21429
4575.5 3
4576.5 3.85714
4577.5 0.785714
4578.5 -0.142857
4579.5 3.85714
4580.5 -4.42857
4581.5 0.571429
4582.5 -0.214286
4583.5 1.57143
4584.5 0.714286
4585.5 -4.64286
4586.5 -4.42857
4587.5 -2.42857
4588.5 -0.142857
4589.5 -1.28571
4590.5 -0.142857
4591.5 -1.21429
4592.5 -2.35714
4593.5 3.85714
4594.5 1.78571
4595.5 -3.42857
4596.5 -2.5
4597.5 0.785714
4598.5 2.85714
4599.5 0.714286
4600.5 1.85714
4601.5 3.85714
4602.5 0.785714
4603.5 5.92857
4604.5 -3.28571
4605.5 -3.35714
4606.5 3.92857
4607.5 3
4608.5 -0.142857
4609.5 3.92857
4610.5 2.85714
4611.5 -2.28571
4612.5 -1.21429
4613.5 1.71429
4614.5 -1.21429
4615.5 0.857143
4616.5 -6.42857
4617.5 3.85714
4618.5 4.78571
4619.5 2.78571
4620.5 2.85714
4621.5 1.71429
4622.5 -0.285714
4623.5 0.785714
4624.5 0.857143
4625.5 0.714286
4626.5 2.64286
4627.5 -3.42857
4628.5 -1.28571
4629.5 -0.214286
4630.5 -0.214286
4631.5 0.785714
4632.5 -1.28571
4633.5 0.857143
4634.5 0.785714
4635.5 1.85714
4636.5 0.928571
4637.5 -0.357143
4638.5 -0.285714
4639.5 4.92857
4640.5 -0.214286
4641.5 -4.5
4642.5 -1.42857
4643.5 -0.642857
4644.5 8.71429
4645.5 6.78571
4646.5 19.0714
4647.5 5.78572
4648.5 3.78572
4649.5 -3.85714
4650.5 18.5
4651.5 -14.9286
4652.5 -14
4653.5 13.5
4654.5 -1.28571
4655.5 -3.64286
4656.5 -2.57143
4657.5 0.785714
4658.5 2.92857
4659.5 2.64286
4660.5 0.857143
4661.5 -1.14286
4662.5 1
4663.5 1
4664.5 -2.5
4665.5 -3.21429
4666.5 0.928571
4667.5 2
4668.5 1
4669.5 -2.14286
4670.5 0.857143
4671.5 6.92857
4672.5 0.714286
4673.5 0.857143
4674.5 1
4675.5 2.85714
4676.5 -2.28571
4677.5 0.928571
4678.5 2
4679.5 -1.21429
4680.5 1.71429
4681.5 1.92857
4682.5 -0.214286
4683.5 -0.0714285
4684.5 -0.142857
4685.5 0.928571
4686.5 -0.142857
4687.5 0.714286
4688.5 3.92857
4689.5 0.857143
4690.5 2.92857
4691.5 3
4692.5 -2.21429
4693.5 -0.214286
4694.5 -2.21429
4695.5 -2.21429
4696.5 1.85714
4697.5 0.857143
4698.5 -1.28571
4699.5 -1.14286
4700.5 3
4701.5 -0.0714285
4702.5 4
4703.5 -1.21429
4704.5 -1.14286
4705.5 1.92857
4706.5 5
4707.5 -0.0714285
4708.5 1.92857
4709.5 0.928571
4710.5 4
4711.5 0.857143
4712.5 -0.142857
4713.5 4
4714.5 -0.0714285
4715.5 -1.21429
4716.5 0.857143
4717.5 -0.214286
4718.5 6.92857
4719.5 1.92857
4720.5 1.92857
4721.5 -1.21429
4722.5 -0.142857
4723.5 -0.0714285
4724.5 -1.07143
4725.5 2
4726.5 3
4727.5 1
4728.5 0.857143
4729.5 -1.14286
4730.5 1
4731.5 -3.42857
4732.5 0.928571
4733.5 -2.14286
4734.5 1.85714
4735.5 5
4736.5 -2.28571
4737.5 3
4738.5 2
4739.5 -1.14286
4740.5 -0.0714285
4741.5 4
4742.5 2.92857
4743.5 -1.21429
4744.5 2.92857
4745.5 0.857143
4746.5 1.92857
4747.5 0.785714
4748.5 -4.28571
4749.5 1.92857
4750.5 2.78571
4751.5 3.85714
4752.5 -0.142857
4753.5 0.928571
4754.5 2.78571
4755.5 1.92857
4756.5 2
4757.5 5
4758.5 4
4759.5 -2.14286
4760.5 2.92857
4761.5 0
4762.5 0.857143
4763.5 0.928571
4764.5 3
4765.5 -0.0714285
4766.5 2
4767.5 3.85714
4768.5 4.92857
4769.5 1.78571
4770.5 1.92857
4771.5 -0.142857
4772.5 -1.14286
4773.5 1
4774.5 -1.21429
4775.5 1
4776.5 0.857143
4777.5 -2.21429
4778.5 2.78571
4779.5 -0.0714285
4780.5 2.92857
4781.5 1
4782.5 8.78571
4783.5 7.85714
4784.5 5.85714
4785.5 7.92857
4786.5 1.92857
4787.5 4
4788.5 3.85714
4789.5 3.92857
4790.5 0.857143
4791.5 -2.28571
4792.5 -0.285714
4793.5 1.92857
4794.5 0.857143
4795.5 -0.142857
4796.5 -0.142857
4797.5 1.92857
4798.5 2.85714
4799.5 0.857143
4800.5 -2.42857
4801.5 -1.28571
4802.5 0.714286
4803.5 2
4804.5 2.85714
4805.5 4.78571
4806.5 3
4807.5 -0.214286
4808.5 -2.28571
4809.5 2.85714
4810.5 -1.14286
4811.5 -4.35714
4812.5 -1.21429
4813.5 -0.214286
4814.5 -0.357143
4815.5 -3.35714
4816.5 2
4817.5 2.92857
4818.5 0.785714
4819.5 0.857143
4820.5 1.78571
4821.5 5
4822.5 -2.28571
4823.5 1
4824.5 0.928571
4825.5 0.928571
4826.5 -2.28571
4827.5 -1.21429
4828.5 -1.28571
4829.5 -0.0714285
4830.5 -2.14286
4831.5 3
4832.5 1.92857
4833.5 2
4834.5 2.92857
4835.5 -2.28571
4836.5 -0.142857
4837.5 -0.142857
4838.5 0.857143
4839.5 1.85714
4840.5 -0.285714
4841.5 -1.14286
4842.5 -0.357143
4843.5 0.857143
4844.5 0.928571
4845.5 0.857143
4846.5 7
4847.5 1.85714
4848.5 2.85714
4849.5 -0.214286
4850.5 -0.214286
4851.5 0.857143
4852.5 3.85714
4853.5 -0.142857
4854.5 2
4855.5 -2.14286
4856.5 1.85714
4857.5 -2.14286
4858.5 -1.21429
4859.5 -0.0714285
4860.5 -0.142857
4861.5 1.92857
4862.5 -2.14286
4863.5 -1.14286
4864.5 3
4865.5 4.92857
4866.5 1.92857
4867.5 -0.0714285
4868.5 -5.42857
4869.5 -2.21429
4870.5 -1.28571
4871.5 -1.28571
4872.5 -0.142857
4873.5 -0.214286
4874.5 0.857143
4875.5 1.85714
4876.5 -1.14286
4877.5 1.92857
4878.5 2
4879.5 1.92857
4880.5 -0.142857
4881.5 -2.21429
4882.5 1.92857
4883.5 2.78571
4884.5 -0.142857
4885.5 3.85714
4886.5 3.92857
4887.5 6.85714
4888.5 3.85714
4889.5 0.928571
4890.5 4
4891.5 1
4892.5 3.92857
4893.5 -1.07143
4894.5 2.92857
4895.5 -0.142857
4896.5 0.857143
4897.5 -0.214286
4898.5 -2.28571
4899.5 -2.21429
4900.5 -4.35714
4901.5 2.92857
4902.5 4.92857
4903.5 -0.142857
4904.5 2.85714
4905.5 -3.28571
4906.5 0.928571
4907.5 -0.214286
4908.5 4
4909.5 0
4910.5 -0.142857
4911.5 0.857143
4912.5 2.92857
4913.5 2
4914.5 -0.214286
4915.5 2.92857
4916.5 -0.0714285
4917.5 -0.142857
4918.5 1.92857
4919.5 -1.21429
4920.5 0.857143
4921.5 -3.21429
4922.5 -1.14286
4923.5 0.785714
4924.5 1
4925.5 2
4926.5 1
4927.5 4
4928.5 0.857143
4929.5 -1.07143
4930.5 4
4931.5 3
4932.5 -2.21429
4933.5 -1.35714
4934.5 -1.14286
4935.5 -0.142857
4936.5 -3.21429
4937.5 -2.28571
4938.5 1.85714
4939.5 1.92857
4940.5 1
4941.5 1.78571
4942.5 1
4943.5 0.928571
4944.5 0.785714
4945.5 3.78571
4946.5 7.92857
4947.5 0.857143
4948.5 -2.21429
4949.5 3
4950.5 -3.28571
4951.5 -0.0714285
4952.5 2
4953.5 -0.0714285
4954.5 3
4955.5 3
4956.5 4
4957.5 2.92857
4958.5 1
4959.5 0.785714
4960.5 -2.28571
4961.5 -2.21429
4962.5 1.92857
4963.5 0.857143
4964.5 3.85714
4965.5 -2.14286
4966.5 -1.07143
4967.5 -1.21429
4968.5 2
4969.5 -1.07143
4970.5 3.92857
4971.5 -0.214286
4972.5 -1.14286
4973.5 -1.07143
4974.5 2.92857
4975.5 -1.14286
4976.5 -0.0714285
4977.5 1.85714
4978.5 2
4979.5 0.857143
4980.5 4.85714
4981.5 -1.28571
4982.5 1.78571
4983.5 0.857143
4984.5 1.71429
4985.5 -1.35714
4986.5 1.85714
4987.5 0.928571
4988.5 -1.07143
4989.5 2
4990.5 4.92857
4991.5 1.92857
4992.5 0.928571
4993.5 5
4994.5 2.92857
4995.5 3
4996.5 -0.214286
4997.5 6
4998.5 0
4999.5 -0.0714285
5000.5 -2.28571
5001.5 1.92857
5002.5 1.92857
5003.5 2.78571
5004.5 1.85714
5005.5 2.85714
5006.5 -3.42857
5007.5 3
5008.5 3
5009.5 -3.35714
5010.5 -1.21429
5011.5 -0.0714285
5012.5 -0.357143
5013.5 0.928571
5014.5 1.85714
5015.5 1.85714
5016.5 -1.28571
5017.5 0.928571
5018.5 4
5019.5 -0.0714285
5020.5 3
5021.5 -0.0714285
5022.5 0.928571
5023.5 6
5024.5 0.857143
5025.5 0.857143
5026.5 1.92857
5027.5 -1.14286
5028.5 0.928571
5029.5 4.92857
5030.5 -0.142857
5031.5 4
5032.5 6.92857
5033.5 1.78571
5034.5 3
5035.5 3
5036.5 2.92857
5037.5 -6.57143
5038.5 1.85714
5039.5 0.928571
5040.5 0.928571
5041.5 5.92857
5042.5 -1.07143
5043.5 1.92857
5044.5 -1.21429
5045.5 -0.214286
5046.5 2
5047.5 2
5048.5 -0.0714285
5049.5 -1.07143
5050.5 1.92857
5051.5 -1.14286
5052.5 -3.21429
5053.5 0.928571
5054.5 2
5055.5 1
5056.5 -0.0714285
5057.5 1.92857
5058.5 0.857143
5059.5 -1.21429
5060.5 0.785714
5061.5 -1.07143
5062.5 -1.14286
5063.5 2
5064.5 1.92857
5065.5 -2.21429
5066.5 2.92857
5067.5 -0.0714285
5068.5 1.92857
5069.5 -0.142857
5070.5 2.85714
5071.5 1.92857
5072.5 -1.28571
5073.5 -0.142857
5074.5 -0.142857
5075.5 2
5076.5 0.857143
5077.5 -0.0714285
5078.5 -1.35714
5079.5 2
5080.5 3
5081.5 3
5082.5 2.92857
5083.5 0.928571
5084.5 -0.0714285
5085.5 1.78571
5086.5 0.857143
5087.5 2.92857
5088.5 0.928571
5089.5 -1.28571
5090.5 -0.142857
5091.5 4
5092.5 3
5093.5 0.714286
5094.5 -1.07143
5095.5 0
5096.5 -1.28571
5097.5 0.928571
5098.5 -0.142857
5099.5 1
5100.5 0.857143
5101.5 -1.35714
5102.5 4
5103.5 3.92857
5104.5 -1.14286
5105.5 0.785714
5106.5 0.928571
5107.5 3
5108.5 -0.0714285
5109.5 1.92857
5110.5 1.92857
5111.5 0.785714
5112.5 0.857143
5113.5 0.857143
5114.5 -2.21429
5115.5 0.928571
5116.5 -1.21429
5117.5 4
5118.5 1.92857
5119.5 3.92857
5120.5 2
5121.5 0.928571
5122.5 4
5123.5 2.92857
5124.5 -1.14286
5125.5 3.92857
5126.5 -1.14286
5127.5 0.857143
5128.5 3
5129.5 0.857143
5130.5 0.928571
5131.5 0.928571
5132.5 1.92857
5133.5 -0.214286
5134.5 2.85714
5135.5 1.92857
5136.5 -0.285714
5137.5 -0.214286
5138.5 -0.142857
5139.5 1.92857
5140.5 0.928571
5141.5 1.92857
5142.5 1.92857
5143.5 -1.21429
5144.5 -0.0714285
5145.5 5.92857
5146.5 4
5147.5 -3.21429
5148.5 0.928571
5149.5 0.928571
5150.5 -0.142857
5151.5 3.92857
5152.5 -0.214286
5153.5 1.85714
5154.5 3
5155.5 0.857143
5156.5 -1.07143
5157.5 -0.214286
5158.5 -1.21429
5159.5 0.785714
5160.5 -1.28571
5161.5 2.92857
5162.5 -0.357143
5163.5 0.928571
5164.5 -2.28571
5165.5 1.92857
5166.5 -1.07143
5167.5 -1.14286
5168.5 0.928571
5169.5 0.928571
5170.5 0.928571
5171.5 0.928571
5172.5 1.85714
5173.5 1.92857
5174.5 0.857143
5175.5 -2.28571
5176.5 0.857143
5177.5 5.92857
5178.5 0.857143
5179.5 -1.21429
5180.5 2
5181.5 2.92857
5182.5 -0.0714285
5183.5 0.928571
5184.5 -0.0714285
5185.5 -0.0714285
5186.5 0.928571
5187.5 0.928571
5188.5 1.92857
5189.5 -0.142857
5190.5 1.92857
5191.5 -2.21429
5192.5 -2.21429
5193.5 2.92857
5194.5 -2.21429
5195.5 0.928571
5196.5 3
5197.5 2.85714
5198.5 3
5199.5 4
5200.5 1.92857
5201.5 0.857143
5202.5 2.85714
5203.5 -1.28571
5204.5 -0.0714285
5205.5 1.92857
5206.5 0.857143
5207.5 -1.14286
5208.5 3
5209.5 1
5210.5 1.92857
5211.5 1.92857
5212.5 -2.14286
5213.5 0.928571
5214.5 1.92857
5215.5 1.92857
5216.5 -0.142857
5217.5 -0.142857
5218.5 1.85714
5219.5 0
5220.5 0.857143
5221.5 0
5222.5 -3.35714
5223.5 -4.28571
5224.5 1.92857
5225.5 1.85714
5226.5 -1.07143
5227.5 -2.28571
5228.5 -0.142857
5229.5 -2.28571
5230.5 4
5231.5 2.92857
5232.5 -0.0714285
5233.5 -5.35714
5234.5 1
5235.5 -0.0714285
5236.5 0
5237.5 -0.142857
5238.5 5.92857
5239.5 2.92857
5240.5 1.92857
5241.5 1.92857
5242.5 1.92857
5243.5 4
5244.5 -1.21429
5245.5 -1.07143
5246.5 -0.0714285
5247.5 -1.21429
5248.5 -2.14286
5249.5 1.92857
5250.5 0.928571
5251.5 1.92857
5252.5 2
5253.5 -1.14286
5254.5 0.785714
5255.5 0.928571
5256.5 -1.14286
5257.5 0.857143
5258.5 3
5259.5 3
5260.5 -1.14286
5261.5 3
5262.5 -4.35714
5263.5 0.928571
5264.5 0.714286
5265.5 4
5266.5 2
5267.5 0.928571
5268.5 1
5269.5 -1.21429
5270.5 -0.0714285
5271.5 2
5272.5 1.92857
5273.5 0.857143
5274.5 0.928571
5275.5 -0.142857
5276.5 1.92857
5277.5 0.857143
5278.5 0.928571
5279.5 0.928571
5280.5 0
5281.5 -1.14286
5282.5 -2.28571
5283.5 0.785714
5284.5 -0.142857
5285.5 2
5286.5 -0.214286
5287.5 2.85714
5288.5 1
5289.5 1
5290.5 3.92857
5291.5 10
5292.5 6.92857
5293.5 9.92857
5294.5 20.8571
5295.5 24
5296.5 28.8571
5297.5 21
5298.5 17.8571
5299.5 15
5300.5 3.85714
5301.5 1.92857
5302.5 1
5303.5 -1.14286
5304.5 -0.214286
5305.5 -1.14286
5306.5 -2.14286
5307.5 -3.21429
5308.5 -1.14286
5309.5 3
5310.5 -2.28571
5311.5 -1.07143
5312.5 0.928571
5313.5 -0.142857
5314.5 -2.14286
5315.5 -0.285714
5316.5 5.92857
5317.5 0.857143
5318.5 -3.5
5319.5 0.928571
5320.5 -2.35714
5321.5 -3.21429
5322.5 -6.42857
5323.5 -4.28571
5324.5 -8.57143
5325.5 -5.5
5326.5 -5.5
5327.5 -8.64286
5328.5 0.928571
5329.5 1
5330.5 -1.28571
5331.5 -2.21429
5332.5 4
5333.5 1.92857
5334.5 2
5335.5 -0.0714285
5336.5 -0.0714285
5337.5 2.92857
5338.5 -2.14286
5339.5 -2.14286
5340.5 -0.0714285
5341.5 1
5342.5 0.928571
5343.5 -0.0714285
5344.5 -0.0714285
5345.5 -0.0714285
5346.5 -3.28571
5347.5 0.785714
5348.5 2.92857
5349.5 1.85714
5350.5 -1.14286
5351.5 1.78571
5352.5 -3.28571
5353.5 1.42857
5354.5 2.71429
5355.5 1.85714
5356.5 1.78571
5357.5 1.85714
5358.5 -0.214286
5359.5 6
5360.5 -0.0714285
5361.5 0.928571
5362.5 -2.14286
5363.5 3
5364.5 2.92857
5365.5 -0.142857
5366.5 -0.214286
5367.5 1
5368.5 2
5369.5 -0.0714285
5370.5 -0.0714285
5371.5 -0.0714285
5372.5 -0.0714285
5373.5 0.928571
5374.5 1
5375.5 2
5376.5 -1.21429
5377.5 -0.0714285
5378.5 0.857143
5379.5 2
5380.5 3.92857
5381.5 0
5382.5 -3.21429
5383.5 -2.14286
5384.5 0.928571
5385.5 1.85714
5386.5 1
5387.5 2.92857
5388.5 2.78571
5389.5 8.78571
5390.5 -0.142857
5391.5 3.85714
5392.5 0.857143
5393.5 1.85714
5394.5 2.92857
5395.5 8.92857
5396.5 6.71429
5397.5 5.85714
5398.5 -0.5
5399.5 3.85714
5400.5 0.785714
5401.5 -0.0714285
5402.5 -3.28571
5403.5 3
5404.5 3
5405.5 1
5406.5 -0.142857
5407.5 2
5408.5 1
5409.5 -0.0714285
5410.5 0.928571
5411.5 -0.0714285
5412.5 2
5413.5 -1.14286
5414.5 -1.14286
5415.5 -1.07143
5416.5 0.857143
5417.5 0
5418.5 1
5419.5 0.857143
5420.5 1
5421.5 0.928571
5422.5 4
5423.5 2
5424.5 -2.14286
5425.5 -0.0714285
5426.5 3
5427.5 1.85714
5428.5 1
5429.5 -0.0714285
5430.5 1.85714
5431.5 2
5432.5 1.92857
5433.5 -0.0714285
5434.5 -4.35714
5435.5 3
5436.5 1
5437.5 1
5438.5 1
5439.5 -2.21429
5440.5 1
5441.5 3
5442.5 -1.07143
5443.5 1.78571
5444.5 0.928571
5445.5 -2.28571
5446.5 1
5447.5 1
5448.5 0
5449.5 1
5450.5 2
5451.5 -1.28571
5452.5 -1.14286
5453.5 -1.14286
5454.5 1.85714
5455.5 3
5456.5 -0.0714285
5457.5 0.928571
5458.5 -1.07143
5459.5 3.92857
5460.5 0.785714
5461.5 -0.0714285
5462.5 3
5463.5 -0.0714285
5464.5 2
5465.5 2
5466.5 0
5467.5 -1.14286
5468.5 -0.142857
5469.5 -0.0714285
5470.5 1.85714
5471.5 -2.21429
5472.5 0.928571
5473.5 -2.14286
5474.5 2
5475.5 1
5476.5 0
5477.5 -0.142857
5478.5 2
5479.5 -1.28571
5480.5 1
5481.5 -1.14286
5482.5 0
5483.5 1
5484.5 0.928571
5485.5 1.92857
5486.5 -1.14286
5487.5 -2.21429
5488.5 0.714286
5489.5 -4.5
5490.5 0.928571
5491.5 -3.35714
5492.5 0
5493.5 0.857143
5494.5 -2.14286
5495.5 -0.0714285
5496.5 0.857143
5497.5 -1.07143
5498.5 1.85714
5499.5 1.92857
5500.5 0.928571
5501.5 0.857143
5502.5 1
5503.5 1
5504.5 2
5505.5 -0.142857
5506.5 2.92857
5507.5 0.928571
5508.5 -2.28571
5509.5 1.92857
5510.5 -0.142857
5511.5 4
5512.5 -0.214286
5513.5 0.785714
5514.5 0.928571
5515.5 0.785714
5516.5 -1.21429
5517.5 0.928571
5518.5 5
5519.5 -0.0714285
5520.5 -1.14286
5521.5 2.85714
5522.5 1.85714
5523.5 5
5524.5 -0.142857
5525.5 2
5526.5 0.857143
5527.5 0.857143
5528.5 -2.14286
5529.5 3
5530.5 -1.07143
5531.5 -0.0714285
5532.5 0.928571
5533.5 -1.21429
5534.5 4
5535.5 -1.35714
5536.5 2.92857
5537.5 1.85714
5538.5 -1.07143
5539.5 2
5540.5 2
5541.5 1
5542.5 -0.0714285
5543.5 0.857143
5544.5 0
5545.5 2.71429
5546.5 3
5547.5 -0.0714285
5548.5 0.928571
5549.5 -1.07143
5550.5 -0.0714285
5551.5 -0.0714285
5552.5 -1.14286
5553.5 -1.07143
5554.5 1.92857
5555.5 0
5556.5 -0.0714285
5557.5 0.928571
5558.5 1
5559.5 1
5560.5 -0.0714285
5561.5 2
5562.5 0
5563.5 2
5564.5 0.928571
5565.5 -1.07143
5566.5 1
5567.5 -2.28571
5568.5 -1.21429
5569.5 -1.14286
5570.5 1
5571.5 1
5572.5 -1.07143
5573.5 1
5574.5 -1.07143
5575.5 -0.0714285
5576.5 -1.07143
5577.5 -0.0714285
5578.5 -0.142857
5579.5 0.928571
5580.5 4
5581.5 -1.21429
5582.5 2.71429
5583.5 5.92857
5584.5 3
5585.5 -2.21429
5586.5 0.928571
5587.5 2
5588.5 2.92857
5589.5 3
5590.5 0.928571
5591.5 4
5592.5 0.928571
5593.5 2.92857
5594.5 -2.21429
5595.5 -2.21429
5596.5 2.92857
5597.5 0.857143
5598.5 1
5599.5 1.92857
5600.5 1
5601.5 -0.214286
5602.5 1
5603.5 1.92857
5604.5 1
5605.5 -0.0714285
5606.5 4
5607.5 4
5608.5 2
5609.5 2.92857
5610.5 -0.0714285
5611.5 2.92857
5612.5 -0.0714285
5613.5 0.714286
5614.5 1.92857
5615.5 1.92857
5616.5 2.85714
5617.5 -0.142857
5618.5 -0.0714285
5619.5 0.928571
5620.5 -2.14286
5621.5 6
5622.5 0
5623.5 -0.142857
5624.5 -3.21429
5625.5 0.928571
5626.5 0.857143
5627.5 -1.07143
5628.5 0.857143
5629.5 1.85714
5630.5 -0.0714285
5631.5 -0.0714285
5632.5 -0.0714285
5633.5 -1.14286
5634.5 0.857143
5635.5 2
5636.5 0
5637.5 -0.0714285
5638.5 2
5639.5 -0.0714285
5640.5 -2.28571
5641.5 1
5642.5 1.92857
5643.5 -2.14286
5644.5 0.857143
5645.5 1
5646.5 -2.14286
5647.5 0
5648.5 1
5649.5 -1.14286
5650.5 0.928571
5651.5 -1.14286
5652.5 -2.14286
5653.5 0.928571
5654.5 -1.07143
5655.5 2
5656.5 -1.14286
5657.5 -0.0714285
5658.5 1
5659.5 -0.142857
5660.5 -2.14286
5661.5 2.92857
5662.5 -1.14286
5663.5 -2.21429
5664.5 1
5665.5 -2.14286
5666.5 -0.0714285
5667.5 -0.214286
5668.5 -0.0714285
5669.5 0.857143
5670.5 -0.0714285
5671.5 -1.21429
5672.5 -0.142857
5673.5 -0.0714285
5674.5 2.92857
5675.5 -3.28571
5676.5 -1.07143
5677.5 -1.14286
5678.5 2.92857
5679.5 1.92857
5680.5 -2.14286
5681.5 1.92857
5682.5 -0.0714285
5683.5 2
5684.5 0
5685.5 4
5686.5 3
5687.5 2
5688.5 -1.07143
5689.5 -2.14286
5690.5 1
5691.5 1
5692.5 -1.07143
5693.5 -1.14286
5694.5 -2.21429
5695.5 -0.214286
5696.5 -1.14286
5697.5 -1.07143
5698.5 -2.28571
5699.5 -1.14286
5700.5 -1.07143
5701.5 2
5702.5 1
5703.5 -1.14286
5704.5 0.928571
5705.5 0.857143
5706.5 3
5707.5 0
5708.5 0.928571
5709.5 -3.21429
5710.5 -0.142857
5711.5 0.928571
5712.5 1.85714
5713.5 0.857143
5714.5 2
5715.5 -1.21429
5716.5 -3.28571
5717.5 0.928571
5718.5 -2.28571
5719.5 -0.0714285
5720.5 -0.0714285
5721.5 1
5722.5 2
5723.5 1
5724.5 -1.21429
5725.5 -0.0714285
5726.5 -1.07143
5727.5 -1.14286
5728.5 -2.21429
5729.5 5
5730.5 1.92857
5731.5 1
5732.5 -0.0714285
5733.5 -0.142857
5734.5 1.92857
5735.5 -0.0714285
5736.5 -1.07143
5737.5 0.928571
5738.5 1.85714
5739.5 -0.0714285
5740.5 0.928571
5741.5 2
5742.5 -1.14286
5743.5 -0.214286
5744.5 -1.07143
5745.5 5
5746.5 2
5747.5 1
5748.5 1
5749.5 -1.07143
5750.5 2
5751.5 1.92857
5752.5 1.92857
5753.5 2.92857
5754.5 2
5755.5 0.785714
5756.5 -0.142857
5757.5 3
5758.5 2
5759.5 1
5760.5 0.928571
5761.5 -0.0714285
5762.5 3
5763.5 -2.21429
5764.5 -1.07143
5765.5 1
5766.5 1
5767.5 4
5768.5 0
5769.5 3
5770.5 -0.0714285
5771.5 2
5772.5 -2.14286
5773.5 -1.07143
5774.5 1
5775.5 -1.07143
5776.5 -1.07143
5777.5 0
5778.5 0
5779.5 -2.14286
5780.5 -2.14286
5781.5 0
5782.5 4
5783.5 1.92857
5784.5 0.928571
5785.5 0.928571
5786.5 -0.0714285
5787.5 0.928571
5788.5 0.857143
5789.5 -2.14286
5790.5 0
5791.5 1.92857
5792.5 -0.0714285
5793.5 0
5794.5 -1.14286
5795.5 -1.07143
5796.5 1
5797.5 -1.07143
5798.5 -0.0714285
5799.5 -1.14286
5800.5 -1.14286
5801.5 2
5802.5 -1.07143
5803.5 1
5804.5 0
5805.5 1
5806.5 0
5807.5 -0.142857
5808.5 -1.07143
5809.5 2
5810.5 1
5811.5 -0.142857
5812.5 0.928571
5813.5 -0.0714285
5814.5 -2.14286
5815.5 1
5816.5 1.85714
5817.5 1
5818.5 -1.14286
5819.5 0
5820.5 -1.07143
5821.5 0.928571
5822.5 -1.07143
5823.5 0
5824.5 1
5825.5 2
5826.5 3
5827.5 1.92857
5828.5 0.928571
5829.5 0.928571
5830.5 -0.0714285
5831.5 3
5832.5 4
5833.5 -0.142857
5834.5 2.92857
5835.5 0.928571
5836.5 3
5837.5 -1.14286
5838.5 -3.28571
5839.5 -3.28571
5840.5 -1.28571
5841.5 -1.28571
5842.5 3.85714
5843.5 1
5844.5 0.928571
5845.5 0.928571
5846.5 2.92857
5847.5 1
5848.5 3
5849.5 0
5850.5 -0.142857
5851.5 -2.14286
5852.5 0
5853.5 1
5854.5 -2.14286
5855.5 1
5856.5 -0.0714285
5857.5 -2.14286
5858.5 2.92857
5859.5 -1.14286
5860.5 1.92857
5861.5 1
5862.5 -1.14286
5863.5 -0.0714285
5864.5 0
5865.5 -0.0714285
5866.5 -0.0714285
5867.5 2
5868.5 1
5869.5 1
5870.5 1
5871.5 -1.07143
5872.5 -1.07143
5873.5 0.928571
5874.5 -1.14286
5875.5 2.92857
5876.5 1
5877.5 0.857143
5878.5 -1.14286
5879.5 -2.14286
5880.5 1
5881.5 0
5882.5 -0.142857
5883.5 -2.14286
5884.5 -0.0714285
5885.5 3
5886.5 1
5887.5 -0.0714285
5888.5 -2.14286
5889.5 0
5890.5 -1.14286
5891.5 -0.0714285
5892.5 3.92857
5893.5 -0.142857
5894.5 1
5895.5 1.85714
5896.5 2.71429
5897.5 0.714286
5898.5 4.85714
5899.5 -1.71429
5900.5 0.357143
5901.5 4.57143
5902.5 -1.5
5903.5 5.92857
5904.5 -0.214286
5905.5 -2.14286
5906.5 3
5907.5 3
5908.5 -1.07143
5909.5 2.92857
5910.5 1
5911.5 -0.214286
5912.5 -2.21429
5913.5 -0.0714285
5914.5 2
5915.5 0
5916.5 -0.142857
5917.5 -1.07143
5918.5 1
5919.5 2
5920.5 1.92857
5921.5 -0.0714285
5922.5 -1.07143
5923.5 0.928571
5924.5 1
5925.5 -0.0714285
5926.5 -2.14286
5927.5 -0.0714285
5928.5 -0.142857
5929.5 -0.142857
5930.5 -0.0714285
5931.5 1
5932.5 0.928571
5933.5 0
5934.5 0
5935.5 -1.07143
5936.5 -1.07143
5937.5 1
5938.5 1
5939.5 -2.14286
5940.5 0
5941.5 0
5942.5 0.928571
5943.5 0
5944.5 1
5945.5 0
5946.5 -2.21429
5947.5 1
5948.5 1.92857
5949.5 1
5950.5 -1.07143
5951.5 1
5952.5 1
5953.5 0
5954.5 3
5955.5 2
5956.5 2
5957.5 1
5958.5 1
5959.5 1
5960.5 3
5961.5 1
5962.5 -1.14286
5963.5 -2.21429
5964.5 2
5965.5 -0.142857
5966.5 1.92857
5967.5 -0.0714285
5968.5 0.857143
5969.5 -1.07143
5970.5 1
5971.5 3
5972.5 -1.07143
5973.5 -2.14286
5974.5 -3.21429
5975.5 1
5976.5 0
5977.5 0
5978.5 -3.28571
5979.5 -0.142857
5980.5 0.928571
5981.5 1.92857
5982.5 1.85714
5983.5 0
5984.5 0
5985.5 -1.14286
5986.5 0.928571
5987.5 1
5988.5 0.928571
5989.5 -0.0714285
5990.5 -1.14286
5991.5 0
5992.5 -1.07143
5993.5 -1.07143
5994.5 0
5995.5 -1.14286
5996.5 1.92857
5997.5 0.928571
5998.5 -0.214286
5999.5 1
6000.5 1.57143
6001.5 -6.42857
6002.5 3.85714
6003.5 0.928571
6004.5 1.92857
6005.5 0
6006.5 0
6007.5 -0.0714285
6008.5 0
6009.5 -1.14286
6010.5 -0.0714285
6011.5 -0.0714285
6012.5 5
6013.5 2
6014.5 0.928571
6015.5 2
6016.5 4
6017.5 -3.28571
6018.5 -0.0714285
6019.5 -3.21429
6020.5 1
6021.5 -0.0714285
6022.5 1
6023.5 3
6024.5 -2.14286
6025.5 -2.14286
6026.5 2
6027.5 -1.07143
6028.5 -2.14286
6029.5 -2.14286
6030.5 0
6031.5 -0.142857
6032.5 -1.14286
6033.5 1.78571
6034.5 -2.14286
6035.5 -2.14286
6036.5 1.78571
6037.5 1.92857
6038.5 -1.07143
6039.5 -2.14286
6040.5 0
6041.5 0
6042.5 -1.07143
6043.5 -1.07143
6044.5 -1.07143
6045.5 -1.07143
6046.5 0
6047.5 -1.07143
6048.5 -1.07143
6049.5 0
6050.5 -1.07143
6051.5 0
6052.5 -2.14286
6053.5 -0.0714285
6054.5 1
6055.5 3
6056.5 -0.142857
6057.5 1
6058.5 -2.14286
6059.5 -0.142857
6060.5 0
6061.5 -1.14286
6062.5 0
6063.5 0
6064.5 0
6065.5 3
6066.5 -0.0714285
6067.5 0
6068.5 -1.07143
6069.5 3
6070.5 -0.0714285
6071.5 1
6072.5 -0.0714285
6073.5 3
6074.5 -0.0714285
6075.5 0.928571
6076.5 1
6077.5 0
6078.5 -0.0714285
6079.5 -2.14286
6080.5 0
6081.5 -0.0714285
6082.5 -1.07143
6083.5 0
6084.5 2
6085.5 2
6086.5 0
6087.5 0.928571
6088.5 2
6089.5 1.85714
6090.5 0.928571
6091.5 0
6092.5 4
6093.5 1
6094.5 2
6095.5 1.92857
6096.5 0.928571
6097.5 1
6098.5 -2.14286
6099.5 2
6100.5 2
6101.5 -1.21429
6102.5 3
6103.5 1
6104.5 0.857143
6105.5 -0.0714285
6106.5 -0.0714285
6107.5 4
6108.5 3
6109.5 2.92857
6110.5 1
6111.5 1.92857
6112.5 1.92857
6113.5 -1.07143
6114.5 -2.21429
6115.5 0
6116.5 2
6117.5 1
6118.5 -1.07143
6119.5 0.857143
6120.5 1.92857
6121.5 -1.14286
6122.5 4.92857
6123.5 3.85714
6124.5 5.57143
6125.5 -0.214286
6126.5 1.85714
6127.5 -1.14286
6128.5 -1.14286
6129.5 -1.07143
6130.5 -0.0714285
6131.5 1
6132.5 -1.14286
6133.5 0
6134.5 -0.0714285
6135.5 0
6136.5 -0.0714285
6137.5 0
6138.5 0.928571
6139.5 1.92857
6140.5 0
6141.5 1.92857
6142.5 2
6143.5 -1.14286
6144.5 -1.14286
6145.5 2
6146.5 2
6147.5 -0.0714285
6148.5 0.928571
6149.5 2
6150.5 2
6151.5 2
6152.5 -0.0714285
6153.5 3
6154.5 0.928571
6155.5 -1.14286
6156.5 0
6157.5 -1.07143
6158.5 1
6159.5 0
6160.5 0.928571
6161.5 3
6162.5 2
6163.5 0
6164.5 4
6165.5 0
6166.5 0
6167.5 0
6168.5 0.928571
6169.5 -3.21429
6170.5 0.928571
6171.5 0
6172.5 1
6173.5 1
6174.5 -1.07143
6175.5 -3.21429
6176.5 -1.07143
6177.5 1
6178.5 0
6179.5 -1.07143
6180.5 2
6181.5 -0.0714285
6182.5 -0.0714285
6183.5 -1.21429
6184.5 0
6185.5 0.928571
6186.5 1
6187.5 0
6188.5 2
6189.5 -0.0714285
6190.5 0
6191.5 -0.0714285
6192.5 -1.07143
6193.5 1
6194.5 1
6195.5 2
6196.5 -1.07143
6197.5 -0.0714285
6198.5 0
6199.5 2
6200.5 0.928571
6201.5 0
6202.5 -3.21429
6203.5 0
6204.5 0
6205.5 2
6206.5 0.928571
6207.5 1
6208.5 2
6209.5 -0.0714285
6210.5 0
6211.5 -0.0714285
6212.5 -0.142857
6213.5 0.928571
6214.5 1
6215.5 -1.07143
6216.5 2
6217.5 0
6218.5 -1.07143
6219.5 -3.21429
6220.5 -0.0714285
6221.5 2
6222.5 2.92857
6223.5 2.92857
6224.5 -1.07143
6225.5 1
6226.5 0
6227.5 -2.21429
6228.5 0.928571
6229.5 -1.14286
6230.5 0.857143
6231.5 2
6232.5 1
6233.5 -0.0714285
6234.5 1
6235.5 1
6236.5 0
6237.5 2
6238.5 0
6239.5 -0.0714285
6240.5 0
6241.5 -0.0714285
6242.5 1
6243.5 0
6244.5 -1.21429
6245.5 1
6246.5 1
6247.5 1
6248.5 1
6249.5 0.928571
6250.5 1
6251.5 -0.0714285
6252.5 1
6253.5 -0.0714285
6254.5 0.928571
6255.5 -4.35714
6256.5 1
6257.5 -0.142857
6258.5 -1.07143
6259.5 -2.14286
6260.5 2
6261.5 -0.0714285
6262.5 -1.07143
6263.5 0.928571
6264.5 -2.14286
6265.5 1
6266.5 -0.0714285
6267.5 0
6268.5 2
6269.5 1
6270.5 2
6271.5 0
6272.5 1
6273.5 1
6274.5 0.857143
6275.5 -1.07143
6276.5 0
6277.5 -0.142857
6278.5 0.928571
6279.5 0.928571
6280.5 0.928571
6281.5 0
6282.5 1
6283.5 1
6284.5 1
6285.5 -2.14286
6286.5 2
6287.5 -2.14286
6288.5 -1.07143
6289.5 -1.07143
6290.5 0
6291.5 0
6292.5 1
6293.5 0
6294.5 0
6295.5 2
6296.5 1
6297.5 1
6298.5 2
6299.5 -1.07143
6300.5 2
6301.5 -1.07143
6302.5 0
6303.5 1
6304.5 -0.0714285
6305.5 -1.07143
6306.5 -1.14286
6307.5 0
6308.5 -1.07143
6309.5 1
6310.5 1
6311.5 1
6312.5 3.92857
6313.5 1
6314.5 -1.14286
6315.5 1
6316.5 -1.14286
6317.5 0
6318.5 1
6319.5 0
6320.5 1
6321.5 1
6322.5 -0.0714285
6323.5 -1.14286
6324.5 0.928571
6325.5 0
6326.5 -1.07143
6327.5 4
6328.5 -1.21429
6329.5 1
6330.5 -1.07143
6331.5 -2.21429
6332.5 1
6333.5 0
6334.5 -0.0714285
6335.5 1
6336.5 -1.07143
6337.5 0
6338.5 0
6339.5 0
6340.5 2
6341.5 0
6342.5 0
6343.5 0
6344.5 -1.07143
6345.5 -1.07143
6346.5 -0.0714285
6347.5 -5.35714
6348.5 -2.14286
6349.5 0
6350.5 0
6351.5 1
6352.5 0
6353.5 2
6354.5 0.928571
6355.5 0
6356.5 0
6357.5 2
6358.5 -1.14286
6359.5 1
6360.5 1
6361.5 1
6362.5 -0.0714285
6363.5 1
6364.5 -1.07143
6365.5 -1.07143
6366.5 1
6367.5 2
6368.5 0
6369.5 0
6370.5 -3.21429
6371.5 1
6372.5 0
6373.5 1
6374.5 0
6375.5 3
6376.5 2
6377.5 -1.07143
6378.5 0
6379.5 -1.07143
6380.5 -0.0714285
6381.5 1
6382.5 -1.14286
6383.5 0.857143
6384.5 1.92857
6385.5 -2.14286
6386.5 3
6387.5 1
6388.5 0
6389.5 -1.14286
6390.5 -0.0714285
6391.5 -0.0714285
6392.5 2
6393.5 -2.14286
6394.5 1
6395.5 -1.07143
6396.5 -2.14286
6397.5 -2.14286
6398.5 -0.0714285
6399.5 0
6400.5 0
6401.5 -1.07143
6402.5 1
6403.5 0
6404.5 0
6405.5 0
6406.5 0
6407.5 0
6408.5 0
6409.5 1
6410.5 0
6411.5 1
6412.5 0
6413.5 1.92857
6414.5 1
6415.5 -1.14286
6416.5 3.92857
6417.5 0.928571
6418.5 2
6419.5 -0.142857
6420.5 2.92857
6421.5 -1.21429
6422.5 -1.14286
6423.5 0
6424.5 -1.14286
6425.5 1
6426.5 0
6427.5 1
6428.5 -0.0714285
6429.5 -1.07143
6430.5 2
6431.5 0
6432.5 -1.07143
6433.5 1
6434.5 1
6435.5 1
6436.5 0
6437.5 2
6438.5 0
6439.5 0
6440.5 0.857143
6441.5 -0.0714285
6442.5 2
6443.5 0.928571
6444.5 -1.07143
6445.5 0
6446.5 -0.0714285
6447.5 0
6448.5 0
6449.5 0.928571
6450.5 -1.14286
6451.5 0
6452.5 2
6453.5 1
6454.5 0
6455.5 1
6456.5 0
6457.5 0
6458.5 -0.0714285
6459.5 -0.0714285
6460.5 1
6461.5 1
6462.5 0
6463.5 2
6464.5 -2.14286
6465.5 0
6466.5 1
6467.5 -0.0714285
6468.5 -1.07143
6469.5 0
6470.5 -1.07143
6471.5 1
6472.5 -1.07143
6473.5 0.928571
6474.5 -0.0714285
6475.5 2
6476.5 -0.0714285
6477.5 4
6478.5 -2.28571
6479.5 4.92857
6480.5 -0.0714285
6481.5 -3.21429
6482.5 -0.0714285
6483.5 3
6484.5 -1.07143
6485.5 -0.0714285
6486.5 -1.07143
6487.5 -1.07143
6488.5 -1.07143
6489.5 -0.0714285
6490.5 0
6491.5 1
6492.5 1
6493.5 -0.0714285
6494.5 1
6495.5 1
6496.5 1
6497.5 1.92857
6498.5 1
6499.5 1
6500.5 0
6501.5 2
6502.5 0
6503.5 1
6504.5 2
6505.5 -0.0714285
6506.5 0
6507.5 0.928571
6508.5 0
6509.5 0
6510.5 -0.0714285
6511.5 0
6512.5 0
6513.5 0
6514.5 1
6515.5 -1.07143
6516.5 0
6517.5 -0.0714285
6518.5 -1.07143
6519.5 1
6520.5 0
6521.5 -1.07143
6522.5 1
6523.5 1
6524.5 0
6525.5 -0.0714285
6526.5 1
6527.5 -0.0714285
6528.5 -1.07143
6529.5 -1.07143
6530.5 0
6531.5 0
6532.5 -1.07143
6533.5 -0.0714285
6534.5 2
6535.5 4
6536.5 0
6537.5 1
6538.5 -1.07143
6539.5 0
6540.5 -1.07143
6541.5 -0.0714285
6542.5 -0.142857
6543.5 1
6544.5 0.857143
6545.5 -2.21429
6546.5 -0.214286
6547.5 1.78571
6548.5 -2.14286
6549.5 2
6550.5 1
6551.5 -0.0714285
6552.5 0
6553.5 -0.0714285
6554.5 -1.07143
6555.5 0
6556.5 1
6557.5 0
6558.5 -1.07143
6559.5 -2.14286
6560.5 2
6561.5 0
6562.5 2
6563.5 -1.14286
6564.5 1
6565.5 -0.0714285
6566.5 3
6567.5 0.928571
6568.5 0
6569.5 0
6570.5 0
6571.5 0
6572.5 0
6573.5 0.928571
6574.5 -1.14286
6575.5 -1.07143
6576.5 0
6577.5 1
6578.5 1
6579.5 0
6580.5 0
6581.5 0
6582.5 2
6583.5 0
6584.5 -1.07143
6585.5 0
6586.5 0.928571
6587.5 0
6588.5 1
6589.5 -2.14286
6590.5 0
6591.5 2
6592.5 1
6593.5 0
6594.5 -1.07143
6595.5 0
6596.5 2
6597.5 0
6598.5 1
6599.5 -0.0714285
6600.5 0
6601.5 4
6602.5 -0.142857
6603.5 0
6604.5 -1.14286
6605.5 0
6606.5 0
6607.5 -2.14286
6608.5 1
6609.5 0
6610.5 3
6611.5 -2.14286
6612.5 2
6613.5 0
6614.5 0
6615.5 1
6616.5 0
6617.5 -1.07143
6618.5 -0.0714285
6619.5 1
6620.5 0
6621.5 1
6622.5 3
6623.5 -2.14286
6624.5 0
6625.5 1
6626.5 0
6627.5 0.857143
6628.5 0
6629.5 0.928571
6630.5 -2.14286
6631.5 -0.0714285
6632.5 -1.07143
6633.5 2
6634.5 -1.07143
6635.5 1
6636.5 0
6637.5 0
6638.5 1
6639.5 -0.0714285
6640.5 0
6641.5 0
6642.5 1
6643.5 -1.07143
6644.5 2
6645.5 2
6646.5 0
6647.5 -2.14286
6648.5 1
6649.5 -1.07143
6650.5 0.928571
6651.5 -1.07143
6652.5 -1.07143
6653.5 -2.21429
6654.5 0
6655.5 0
6656.5 -1.07143
6657.5 1
6658.5 -0.0714285
6659.5 0
6660.5 0
6661.5 0
6662.5 1
6663.5 -1.07143
6664.5 0.928571
6665.5 -1.07143
6666.5 0
6667.5 1
6668.5 1
6669.5 -1.07143
6670.5 -0.0714285
6671.5 1
6672.5 -1.07143
6673.5 2
6674.5 -1.07143
6675.5 2
6676.5 -1.07143
6677.5 0
6678.5 -0.0714285
6679.5 1
6680.5 0
6681.5 -1.07143
6682.5 0
6683.5 2
6684.5 -0.0714285
6685.5 0
6686.5 0
6687.5 0
6688.5 -1.07143
6689.5 1
6690.5 0
6691.5 0
6692.5 -0.0714285
6693.5 1
6694.5 1
6695.5 -1.07143
6696.5 0
6697.5 -0.0714285
6698.5 0
6699.5 -0.142857
6700.5 1
6701.5 1
6702.5 1
6703.5 1
6704.5 1
6705.5 0
6706.5 0
6707.5 -0.0714285
6708.5 1
6709.5 0
6710.5 1
6711.5 1
6712.5 0
6713.5 0
6714.5 -2.14286
6715.5 -2.14286
6716.5 -1.07143
6717.5 1
6718.5 -0.0714285
6719.5 0
6720.5 0.928571
6721.5 -0.0714285
6722.5 1
6723.5 1
6724.5 -2.14286
6725.5 -2.14286
6726.5 0
6727.5 1
6728.5 1
6729.5 -2.14286
6730.5 0.928571
6731.5 0.928571
6732.5 0
6733.5 -1.07143
6734.5 0.857143
6735.5 0
6736.5 -1.07143
6737.5 -0.0714285
6738.5 1
6739.5 0
6740.5 1
6741.5 1
6742.5 1
6743.5 0
6744.5 0.928571
6745.5 -1.14286
6746.5 0
6747.5 0
6748.5 0
6749.5 1
6750.5 -0.0714285
6751.5 -1.07143
6752.5 1.92857
6753.5 1
6754.5 0
6755.5 0
6756.5 0
6757.5 2
6758.5 1
6759.5 -0.0714285
6760.5 0
6761.5 -1.07143
6762.5 1
6763.5 0
6764.5 -1.07143
6765.5 -0.0714285
6766.5 -0.0714285
6767.5 -1.14286
6768.5 -0.0714285
6769.5 -1.07143
6770.5 4
6771.5 0
6772.5 2
6773.5 -0.0714285
6774.5 1
6775.5 0
6776.5 1
6777.5 -2.14286
6778.5 0
6779.5 0
6780.5 0
6781.5 2
6782.5 -2.14286
6783.5 1
6784.5 0
6785.5 -0.0714285
6786.5 2
6787.5 0
6788.5 0
6789.5 2
6790.5 -1.07143
6791.5 1
6792.5 0
6793.5 1
6794.5 1
6795.5 0
6796.5 0
6797.5 0
6798.5 1
6799.5 1
6800.5 0
6801.5 -1.07143
6802.5 0.928571
6803.5 0
6804.5 -1.07143
6805.5 -1.07143
6806.5 -0.0714285
6807.5 0
6808.5 -0.0714285
6809.5 0
6810.5 0
6811.5 0
6812.5 1
6813.5 1
6814.5 0
6815.5 0
6816.5 0
6817.5 -0.0714285
6818.5 2
6819.5 0
6820.5 0
6821.5 0
6822.5 1
6823.5 1
6824.5 1
6825.5 0
6826.5 0
6827.5 0
6828.5 0
6829.5 -0.0714285
6830.5 0
6831.5 0
6832.5 0
6833.5 0
6834.5 0
6835.5 0
6836.5 0
6837.5 1
6838.5 -1.07143
6839.5 0
6840.5 0
6841.5 0
6842.5 -1.07143
6843.5 1
6844.5 1
6845.5 1
6846.5 0
6847.5 0
6848.5 0
6849.5 0
6850.5 0
6851.5 1
6852.5 1
6853.5 -1.07143
6854.5 -2.14286
6855.5 0
6856.5 0
6857.5 1
6858.5 0
6859.5 0
6860.5 -1.07143
6861.5 0
6862.5 0
6863.5 -1.07143
6864.5 2
6865.5 1
6866.5 -0.0714285
6867.5 1
6868.5 2
6869.5 1
6870.5 1
6871.5 1
6872.5 0
6873.5 -0.0714285
6874.5 -1.07143
6875.5 -2.14286
6876.5 -1.14286
6877.5 0
6878.5 1
6879.5 1
6880.5 -0.0714285
6881.5 1
6882.5 0
6883.5 -2.14286
6884.5 1
6885.5 -1.14286
6886.5 -0.0714285
6887.5 1
6888.5 -0.0714285
6889.5 2
6890.5 0
6891.5 2
6892.5 -1.07143
6893.5 -1.07143
6894.5 0
6895.5 0
6896.5 -0.0714285
6897.5 -0.0714285
6898.5 -0.0714285
6899.5 -2.14286
6900.5 0.928571
6901.5 -0.0714285
6902.5 -0.0714285
6903.5 0
6904.5 0.928571
6905.5 2
6906.5 0
6907.5 0
6908.5 0.928571
6909.5 -0.0714285
6910.5 0
6911.5 -0.0714285
6912.5 2
6913.5 0
6914.5 -0.0714285
6915.5 0
6916.5 0
6917.5 -1.07143
6918.5 -2.14286
6919.5 -0.0714285
6920.5 -1.07143
6921.5 0
6922.5 0
6923.5 2
6924.5 -0.0714285
6925.5 2
6926.5 1
6927.5 0
6928.5 1
6929.5 1
6930.5 -1.07143
6931.5 -1.14286
6932.5 0.928571
6933.5 -1.21429
6934.5 1
6935.5 5
6936.5 -1.07143
6937.5 1
6938.5 -0.0714285
6939.5 0
6940.5 1
6941.5 1
6942.5 2
6943.5 0
6944.5 0
6945.5 -1.07143
6946.5 0
6947.5 -1.07143
6948.5 0
6949.5 -1.07143
6950.5 2
6951.5 0
6952.5 0.928571
6953.5 0
6954.5 0
6955.5 0.928571
6956.5 -2.14286
6957.5 -1.07143
6958.5 0
6959.5 0
6960.5 0
6961.5 0
6962.5 -1.07143
6963.5 0
6964.5 2
6965.5 0
6966.5 0
6967.5 1
6968.5 2
6969.5 0
6970.5 -0.0714285
6971.5 -1.07143
6972.5 1
6973.5 1
6974.5 -0.142857
6975.5 0
6976.5 0
6977.5 0
6978.5 1
6979.5 1
6980.5 0
6981.5 0
6982.5 -1.07143
6983.5 -1.07143
6984.5 0
6985.5 0
6986.5 0
6987.5 2
6988.5 0
6989.5 0
6990.5 0
6991.5 -1.07143
6992.5 -0.0714285
6993.5 -2.14286
6994.5 -1.07143
6995.5 1
6996.5 1
6997.5 0
6998.5 1
6999.5 0
7000.5 -1.07143
7001.5 0
7002.5 0
7003.5 1
7004.5 0
7005.5 1
7006.5 1
7007.5 0
7008.5 1
7009.5 0
7010.5 2
7011.5 -0.0714285
7012.5 0
7013.5 -1.14286
7014.5 0
7015.5 -1.07143
7016.5 -1.07143
7017.5 0
7018.5 -0.0714285
7019.5 -2.14286
7020.5 1
7021.5 2
7022.5 0
7023.5 -1.07143
7024.5 1
7025.5 1
7026.5 1
7027.5 1
7028.5 -1.07143
7029.5 0
7030.5 1
7031.5 1
7032.5 0
7033.5 0
7034.5 0
7035.5 0
7036.5 0
7037.5 -1.07143
7038.5 -1.07143
7039.5 0
7040.5 0
7041.5 0
7042.5 0
7043.5 -1.07143
7044.5 1.92857
7045.5 1
7046.5 0
7047.5 1.92857
7048.5 -1.07143
7049.5 2
7050.5 0
7051.5 0
7052.5 1
7053.5 -1.07143
7054.5 0
7055.5 0
7056.5 1
7057.5 0
7058.5 1
7059.5 0
7060.5 1
7061.5 2
7062.5 0
7063.5 0
7064.5 -1.07143
7065.5 -1.21429
7066.5 -1.07143
7067.5 0
7068.5 1
7069.5 1
7070.5 0
7071.5 1
7072.5 -1.07143
7073.5 0
7074.5 -1.07143
7075.5 0
7076.5 0
7077.5 1
7078.5 0
7079.5 1
7080.5 1
7081.5 0
7082.5 0
7083.5 0
7084.5 0
7085.5 -0.0714285
7086.5 0
7087.5 -1.07143
7088.5 -1.07143
7089.5 0
7090.5 0
7091.5 0
7092.5 0
7093.5 1
7094.5 0
7095.5 0
7096.5 0
7097.5 1
7098.5 0
7099.5 0
7100.5 -2.14286
7101.5 0
7102.5 -1.07143
7103.5 2
7104.5 0
7105.5 1
7106.5 0
7107.5 0
7108.5 -1.07143
7109.5 0
7110.5 -1.07143
7111.5 0
7112.5 0
7113.5 0
7114.5 0
7115.5 0
7116.5 1
7117.5 -1.07143
7118.5 0
7119.5 0
7120.5 0
7121.5 -0.0714285
7122.5 -2.21429
7123.5 -2.14286
7124.5 1
7125.5 0
7126.5 2
7127.5 0.928571
7128.5 -1.07143
7129.5 0
7130.5 0
7131.5 1
7132.5 0
7133.5 0
7134.5 -1.07143
7135.5 0
7136.5 -0.0714285
7137.5 0
7138.5 1
7139.5 0
7140.5 -0.0714285
7141.5 1
7142.5 1
7143.5 1
7144.5 0
7145.5 -1.14286
7146.5 0
7147.5 1
7148.5 0
7149.5 0
7150.5 -0.0714285
7151.5 0
7152.5 0
7153.5 1
7154.5 1
7155.5 0
7156.5 -0.0714285
7157.5 0
7158.5 2
7159.5 1
7160.5 2
7161.5 0
7162.5 0
7163.5 -1.07143
7164.5 -0.0714285
7165.5 0
7166.5 2
7167.5 0
7168.5 0
7169.5 0
7170.5 0
7171.5 0
7172.5 0
7173.5 1
7174.5 -1.07143
7175.5 1.92857
7176.5 0
7177.5 0
7178.5 0
7179.5 0
7180.5 0
7181.5 1
7182.5 0
7183.5 0
7184.5 0
7185.5 1
7186.5 -1.07143
7187.5 1
7188.5 0
7189.5 1
7190.5 -2.14286
7191.5 -1.07143
7192.5 0
7193.5 0
7194.5 0
7195.5 1
7196.5 1
7197.5 1
7198.5 -1.07143
7199.5 1
7200.5 0
7201.5 -2.14286
7202.5 0
7203.5 -1.07143
7204.5 -1.14286
7205.5 1
7206.5 -0.142857
7207.5 0.928571
7208.5 1
7209.5 2
7210.5 1
7211.5 1
7212.5 1
7213.5 2
7214.5 -1.07143
7215.5 -1.07143
7216.5 2
7217.5 -2.14286
7218.5 0
7219.5 0
7220.5 0
7221.5 0
7222.5 0
7223.5 0
7224.5 0
7225.5 -0.0714285
7226.5 1
7227.5 -0.0714285
7228.5 1
7229.5 0
7230.5 0
7231.5 1
7232.5 -1.07143
7233.5 0
7234.5 0
7235.5 0
7236.5 0
7237.5 1
7238.5 0.928571
7239.5 0
7240.5 1
7241.5 -1.07143
7242.5 1
7243.5 1
7244.5 -2.14286
7245.5 -0.0714285
7246.5 -0.0714285
7247.5 0
7248.5 1
7249.5 0
7250.5 -1.07143
7251.5 -1.07143
7252.5 1
7253.5 0
7254.5 -1.07143
7255.5 0
7256.5 0
7257.5 1
7258.5 0.928571
7259.5 -0.0714285
7260.5 2
7261.5 0.928571
7262.5 -2.14286
7263.5 2
7264.5 -1.14286
7265.5 0.928571
7266.5 -2.14286
7267.5 0.928571
7268.5 0
7269.5 0
7270.5 2
7271.5 0
7272.5 -1.14286
7273.5 -1.07143
7274.5 -1.07143
7275.5 1
7276.5 0
7277.5 -1.07143
7278.5 0
7279.5 2
7280.5 -1.07143
7281.5 -0.0714285
7282.5 1
7283.5 1
7284.5 -0.0714285
7285.5 -0.0714285
7286.5 0
7287.5 1
7288.5 -1.07143
7289.5 -1.07143
7290.5 1
7291.5 0
7292.5 0
7293.5 1
7294.5 0
7295.5 0
7296.5 -1.07143
7297.5 1
7298.5 -1.07143
7299.5 0
7300.5 0
7301.5 0
7302.5 -1.07143
7303.5 1
7304.5 -1.07143
7305.5 0
7306.5 0
7307.5 1
7308.5 1
7309.5 1
7310.5 1
7311.5 -1.07143
7312.5 -1.07143
7313.5 0
7314.5 0
7315.5 -1.07143
7316.5 1
7317.5 0
7318.5 -0.0714285
7319.5 -2.14286
7320.5 -2.14286
7321.5 2
7322.5 -1.07143
7323.5 1
7324.5 1
7325.5 -1.07143
7326.5 -0.0714285
7327.5 -1.07143
7328.5 0
7329.5 0
7330.5 0.928571
7331.5 -1.07143
7332.5 -1.07143
7333.5 0
7334.5 1
7335.5 -0.0714285
7336.5 -1.07143
7337.5 1
7338.5 1
7339.5 0
7340.5 0
7341.5 0
7342.5 2
7343.5 0
7344.5 2
7345.5 1
7346.5 0
7347.5 -0.0714285
7348.5 0
7349.5 -1.07143
7350.5 0
7351.5 0
7352.5 3
7353.5 -0.0714285
7354.5 -1.07143
7355.5 0
7356.5 0
7357.5 -1.07143
7358.5 0
7359.5 0
7360.5 0
7361.5 0
7362.5 1
7363.5 -2.14286
7364.5 0
7365.5 0
7366.5 0
7367.5 0
7368.5 0
7369.5 0
7370.5 -2.14286
7371.5 1
7372.5 0
7373.5 1
7374.5 1
7375.5 -1.07143
7376.5 0
7377.5 1
7378.5 0
7379.5 0
7380.5 2
7381.5 0
7382.5 0
7383.5 0
7384.5 1
7385.5 1
7386.5 1
7387.5 1
7388.5 -0.0714285
7389.5 -0.0714285
7390.5 0
7391.5 0
7392.5 -1.07143
7393.5 2
7394.5 -1.07143
7395.5 -1.07143
7396.5 0
7397.5 0
7398.5 -0.0714285
7399.5 0
7400.5 0
7401.5 0
7402.5 0
7403.5 -1.07143
7404.5 0.928571
7405.5 0
7406.5 1
7407.5 -0.0714285
7408.5 -0.0714285
7409.5 0
7410.5 0
7411.5 -1.07143
7412.5 0
7413.5 1
7414.5 -0.0714285
7415.5 -0.142857
7416.5 -1.07143
7417.5 2
7418.5 -0.0714285
7419.5 -0.0714285
7420.5 0
7421.5 0
7422.5 1
7423.5 1
7424.5 0
7425.5 0
7426.5 0
7427.5 0
7428.5 0
7429.5 0
7430.5 0
7431.5 -1.07143
7432.5 1
7433.5 0
7434.5 0
7435.5 0
7436.5 0
7437.5 0
7438.5 1
7439.5 0
7440.5 1
7441.5 1
7442.5 1
7443.5 -1.07143
7444.5 0
7445.5 0
7446.5 -0.0714285
7447.5 0
7448.5 0
7449.5 0
7450.5 -1.07143
7451.5 3
7452.5 0
7453.5 1
7454.5 -1.07143
7455.5 -1.07143
7456.5 -1.07143
7457.5 1
7458.5 1
7459.5 0
7460.5 0
7461.5 0
7462.5 0
7463.5 0
7464.5 1
7465.5 2
7466.5 -0.0714285
7467.5 2
7468.5 0
7469.5 0
7470.5 -0.0714285
7471.5 0
7472.5 0
7473.5 1
7474.5 -1.07143
7475.5 1
7476.5 0
7477.5 0
7478.5 0
7479.5 0
7480.5 -1.07143
7481.5 -1.07143
7482.5 1
7483.5 -1.07143
7484.5 0
7485.5 0
7486.5 1
7487.5 0
7488.5 -1.07143
7489.5 0
7490.5 0
7491.5 1
7492.5 -1.07143
7493.5 0
7494.5 0
7495.5 -1.07143
7496.5 -2.14286
7497.5 0
7498.5 -0.0714285
7499.5 0
7500.5 0
7501.5 0
7502.5 -1.07143
7503.5 0
7504.5 0
7505.5 0
7506.5 0
7507.5 0
7508.5 0
7509.5 0
7510.5 1
7511.5 0
7512.5 0
7513.5 0
7514.5 0
7515.5 -1.07143
7516.5 0
7517.5 1
7518.5 0
7519.5 0
7520.5 0
7521.5 0
7522.5 1
7523.5 0
7524.5 1
7525.5 -1.07143
7526.5 -1.07143
7527.5 0
7528.5 0
7529.5 1
7530.5 0
7531.5 0
7532.5 2
7533.5 1
7534.5 0
7535.5 -1.07143
7536.5 -1.07143
7537.5 0
7538.5 1
7539.5 0
7540.5 0
7541.5 1
7542.5 0
7543.5 0
7544.5 0
7545.5 0
7546.5 0
7547.5 -1.07143
7548.5 0
7549.5 0
7550.5 0
7551.5 1
7552.5 1
7553.5 0
7554.5 3
7555.5 -2.14286
7556.5 -2.14286
7557.5 -1.07143
7558.5 -1.07143
7559.5 0
7560.5 1
7561.5 0
7562.5 0
7563.5 2
7564.5 0
7565.5 0
7566.5 0
7567.5 -1.07143
7568.5 0
7569.5 -1.07143
7570.5 -0.0714285
7571.5 0
7572.5 1
7573.5 0
7574.5 1
7575.5 0
7576.5 0
7577.5 -2.14286
7578.5 1
7579.5 0
7580.5 0
7581.5 0
7582.5 1
7583.5 -0.0714285
7584.5 1
7585.5 -1.07143
7586.5 1
7587.5 0
7588.5 0
7589.5 0
7590.5 0
7591.5 0
7592.5 0
7593.5 0
7594.5 0
7595.5 1
7596.5 -1.07143
7597.5 0
7598.5 0
7599.5 0
7600.5 0
7601.5 1
7602.5 1
7603.5 0
7604.5 0
7605.5 0
7606.5 0
7607.5 1
7608.5 0
7609.5 -2.14286
7610.5 1
7611.5 -2.14286
7612.5 -1.07143
7613.5 0
7614.5 -0.0714285
7615.5 1
7616.5 1
7617.5 1
7618.5 0
7619.5 0
7620.5 0
7621.5 0
7622.5 0
7623.5 0
7624.5 1
7625.5 0
7626.5 0
7627.5 0
7628.5 0
7629.5 0
7630.5 0
7631.5 1
7632.5 1.92857
7633.5 2
7634.5 0.928571
7635.5 0
7636.5 2
7637.5 -1.07143
7638.5 0
7639.5 0
7640.5 -1.07143
7641.5 0
7642.5 0
7643.5 -1.07143
7644.5 0
7645.5 0
7646.5 0
7647.5 0
7648.5 1
7649.5 0
7650.5 0
7651.5 0
7652.5 0
7653.5 -1.07143
7654.5 -2.14286
7655.5 1
7656.5 -1.07143
7657.5 1
7658.5 0
7659.5 0
7660.5 0
7661.5 -1.07143
7662.5 1
7663.5 0
7664.5 1
7665.5 0
7666.5 -1.07143
7667.5 0
7668.5 0
7669.5 -0.0714285
7670.5 0
7671.5 2
7672.5 0
7673.5 0
7674.5 1
7675.5 0
7676.5 1
7677.5 1
7678.5 -1.07143
7679.5 0
7680.5 0
7681.5 0
7682.5 -0.0714285
7683.5 -1.07143
7684.5 0
7685.5 -1.07143
7686.5 0
7687.5 0
7688.5 0
7689.5 1
7690.5 0
7691.5 1
7692.5 0
7693.5 0
7694.5 0
7695.5 0
7696.5 1
7697.5 0
7698.5 0
7699.5 0.928571
7700.5 -0.0714285
7701.5 0
7702.5 0
7703.5 0
7704.5 -1.07143
7705.5 0
7706.5 1
7707.5 0
7708.5 -1.14286
7709.5 0
7710.5 0
7711.5 0
7712.5 0
7713.5 -1.07143
7714.5 0
7715.5 0
7716.5 0
7717.5 0
7718.5 0
7719.5 0
7720.5 0
7721.5 1
7722.5 1
7723.5 -2.14286
7724.5 -0.0714285
7725.5 -1.07143
7726.5 0
7727.5 0
7728.5 0
7729.5 -0.0714285
7730.5 0
7731.5 1
7732.5 1
7733.5 1
7734.5 1
7735.5 0
7736.5 -0.0714285
7737.5 0
7738.5 -0.0714285
7739.5 0
7740.5 0
7741.5 0
7742.5 0
7743.5 1
7744.5 2
7745.5 0
7746.5 0
7747.5 0
7748.5 0
7749.5 0
7750.5 0
7751.5 1
7752.5 1
7753.5 1
7754.5 0
7755.5 0
7756.5 0
7757.5 0
7758.5 0
7759.5 0
7760.5 0
7761.5 0
7762.5 1
7763.5 0
7764.5 0
7765.5 1
7766.5 -0.0714285
7767.5 2
7768.5 2
7769.5 2
7770.5 2
7771.5 -0.0714285
7772.5 -3.28571
7773.5 -3.28571
7774.5 -0.214286
7775.5 0
7776.5 -1.07143
7777.5 1
7778.5 0
7779.5 -0.0714285
7780.5 -2.14286
7781.5 0
7782.5 -1.07143
7783.5 0
7784.5 1
7785.5 0
7786.5 0
7787.5 0
7788.5 -0.0714285
7789.5 1
7790.5 0
7791.5 1
7792.5 -0.0714285
7793.5 -1.14286
7794.5 0.928571
7795.5 1
7796.5 0
7797.5 1
7798.5 -1.07143
7799.5 -1.07143
7800.5 1
7801.5 -0.0714285
7802.5 0
7803.5 0
7804.5 -1.07143
7805.5 1
7806.5 -1.07143
7807.5 -1.07143
7808.5 0
7809.5 1
7810.5 0
7811.5 -1.07143
7812.5 0
7813.5 0
7814.5 0
7815.5 0
7816.5 0
7817.5 1
7818.5 -1.07143
7819.5 0
7820.5 0
7821.5 0
7822.5 -1.07143
7823.5 1
7824.5 0
7825.5 1
7826.5 0
7827.5 0
7828.5 2
7829.5 2
7830.5 -0.0714285
7831.5 0
7832.5 0
7833.5 0
7834.5 0
7835.5 0
7836.5 0
7837.5 0
7838.5 -0.0714285
7839.5 0
7840.5 0
7841.5 0
7842.5 0
7843.5 1
7844.5 0
7845.5 0
7846.5 0
7847.5 0
7848.5 0
7849.5 0
7850.5 0
7851.5 0
7852.5 0
7853.5 1
7854.5 0
7855.5 0
7856.5 0
7857.5 0
7858.5 0
7859.5 1
7860.5 1
7861.5 0
7862.5 0
7863.5 -1.07143
7864.5 0
7865.5 0
7866.5 0
7867.5 2
7868.5 0
7869.5 0
7870.5 0
7871.5 0
7872.5 0
7873.5 0
7874.5 0
7875.5 0
7876.5 0
7877.5 0
7878.5 0
7879.5 0
7880.5 0
7881.5 0
7882.5 -1.07143
7883.5 0
7884.5 0
7885.5 0
7886.5 0
7887.5 0
7888.5 0
7889.5 0
7890.5 0
7891.5 0
7892.5 0
7893.5 0
7894.5 0
7895.5 1
7896.5 0
7897.5 -1.07143
7898.5 -1.07143
7899.5 0
7900.5 0
7901.5 1
7902.5 0
7903.5 0
7904.5 0
7905.5 -1.07143
7906.5 0
7907.5 0
7908.5 0
7909.5 0
7910.5 1
7911.5 1
7912.5 0
7913.5 0
7914.5 0
7915.5 -1.14286
7916.5 0
7917.5 0
7918.5 0
7919.5 0
7920.5 -1.07143
7921.5 -1.07143
7922.5 0
7923.5 0
7924.5 0
7925.5 0
7926.5 0
7927.5 0
7928.5 0
7929.5 0
7930.5 0
7931.5 0
7932.5 0
7933.5 -1.07143
7934.5 0
7935.5 -1.07143
7936.5 0
7937.5 0
7938.5 -1.07143
7939.5 -1.07143
7940.5 0.928571
7941.5 0
7942.5 0
7943.5 0
7944.5 0
7945.5 -1.07143
7946.5 0
7947.5 0
7948.5 0
7949.5 0
7950.5 1
7951.5 -1.07143
7952.5 0
7953.5 0
7954.5 0
7955.5 0
7956.5 0
7957.5 0
7958.5 0
7959.5 2
7960.5 0
7961.5 0
7962.5 0
7963.5 0
7964.5 1
7965.5 0
7966.5 -2.21429
7967.5 1
7968.5 0
7969.5 0
7970.5 -1.07143
7971.5 0
7972.5 2
7973.5 0
7974.5 1
7975.5 1
7976.5 -1.07143
7977.5 0
7978.5 0
7979.5 0
7980.5 0
7981.5 0
7982.5 1
7983.5 1
7984.5 -1.07143
7985.5 1
7986.5 -0.0714285
7987.5 1
7988.5 0
7989.5 0
7990.5 0
7991.5 0
7992.5 1
7993.5 0
7994.5 0
7995.5 0
7996.5 -1.07143
7997.5 -0.0714285
7998.5 0
7999.5 0
8000.5 -0.0714285
8001.5 0
8002.5 0
8003.5 0
8004.5 1
8005.5 0
8006.5 0
8007.5 0
8008.5 -2.14286
8009.5 -1.07143
8010.5 0
8011.5 0
8012.5 1
8013.5 0
8014.5 0
8015.5 0
8016.5 -1.07143
8017.5 0
8018.5 -1.07143
8019.5 0
8020.5 0
8021.5 0
8022.5 0
8023.5 0
8024.5 0
8025.5 0
8026.5 0
8027.5 0
8028.5 -1.07143
8029.5 0
8030.5 0
8031.5 0
8032.5 0
8033.5 0
8034.5 0
8035.5 0
8036.5 0
8037.5 0
8038.5 0
8039.5 0
8040.5 0
8041.5 0
8042.5 0
8043.5 0
8044.5 0
8045.5 0
8046.5 0
8047.5 0
8048.5 0
8049.5 0
8050.5 0
8051.5 0
8052.5 0
8053.5 0
8054.5 0
8055.5 0
8056.5 0
8057.5 0
8058.5 0
8059.5 -1.07143
8060.5 0
8061.5 0
8062.5 1
8063.5 0
8064.5 1
8065.5 0
8066.5 0
8067.5 0
8068.5 1
8069.5 0
8070.5 0
8071.5 0
8072.5 0
8073.5 -1.07143
8074.5 1
8075.5 -1.07143
8076.5 0
8077.5 -1.07143
8078.5 0
8079.5 0
8080.5 0
8081.5 1
8082.5 0
8083.5 0
8084.5 2
8085.5 -1.07143
8086.5 -2.14286
8087.5 0
8088.5 0
8089.5 0
8090.5 0
8091.5 -1.07143
8092.5 0
8093.5 0
8094.5 0
8095.5 0
8096.5 0
8097.5 0
8098.5 0
8099.5 1
8100.5 0
8101.5 0
8102.5 0
8103.5 0
8104.5 0
8105.5 0
8106.5 0
8107.5 0
8108.5 0
8109.5 0
8110.5 -1.07143
8111.5 0
8112.5 1
8113.5 -1.07143
8114.5 0
8115.5 1
8116.5 0
8117.5 0
8118.5 0
8119.5 0
8120.5 0
8121.5 2
8122.5 0.928571
8123.5 0
8124.5 0
8125.5 1
8126.5 0
8127.5 -1.07143
8128.5 0
8129.5 1
8130.5 1
8131.5 0
8132.5 0
8133.5 0
8134.5 0
8135.5 0
8136.5 0
8137.5 0
8138.5 0
8139.5 0
8140.5 0
8141.5 0
8142.5 0
8143.5 0
8144.5 -1.07143
8145.5 0
8146.5 -1.07143
8147.5 0
8148.5 0
8149.5 0
8150.5 0
8151.5 -1.07143
8152.5 0
8153.5 0
8154.5 -0.0714285
8155.5 0
8156.5 -1.07143
8157.5 -1.07143
8158.5 0
8159.5 0
8160.5 1
8161.5 0
8162.5 1
8163.5 -1.07143
8164.5 -2.14286
8165.5 0
8166.5 0
8167.5 0
8168.5 1
8169.5 0
8170.5 -1.07143
8171.5 0
8172.5 1
8173.5 0
8174.5 1
8175.5 0
8176.5 0
8177.5 0
8178.5 0
8179.5 0
8180.5 -0.0714285
8181.5 0
8182.5 1
8183.5 0
8184.5 0
8185.5 -0.0714285
8186.5 0
8187.5 1
8188.5 0
8189.5 0
8190.5 1
8191.5 0
8192.5 0
8193.5 0
8194.5 0
8195.5 0
8196.5 0
8197.5 1
8198.5 0
8199.5 0
8200.5 0
8201.5 -1.07143
8202.5 0
8203.5 0
8204.5 0
8205.5 0
8206.5 -1.07143
8207.5 0
8208.5 0
8209.5 0
8210.5 0
8211.5 0
8212.5 1
8213.5 0
8214.5 0
8215.5 0
8216.5 0
8217.5 0
8218.5 0
8219.5 0
8220.5 0
8221.5 0
8222.5 0
8223.5 0
8224.5 0
8225.5 0
8226.5 0
8227.5 0
8228.5 0
8229.5 0
8230.5 0
8231.5 -1.07143
8232.5 0
8233.5 0
8234.5 0
8235.5 0
8236.5 0
8237.5 0
8238.5 -0.0714285
8239.5 0
8240.5 0
8241.5 0
8242.5 -0.0714285
8243.5 0
8244.5 0
8245.5 0
8246.5 0
8247.5 0
8248.5 0
8249.5 0
8250.5 -1.07143
8251.5 0
8252.5 0
8253.5 0
8254.5 2
8255.5 1
8256.5 0
8257.5 1
8258.5 0
8259.5 0
8260.5 0
8261.5 0
8262.5 -0.0714285
8263.5 0
8264.5 0
8265.5 0
8266.5 1
8267.5 2
8268.5 -1.07143
8269.5 0
8270.5 -1.07143
8271.5 -1.07143
8272.5 0
8273.5 0
8274.5 -1.07143
8275.5 0
8276.5 0
8277.5 1
8278.5 1
8279.5 0
8280.5 0
8281.5 -1.07143
8282.5 0
8283.5 0
8284.5 -1.07143
8285.5 0
8286.5 -1.07143
8287.5 0
8288.5 0
8289.5 0
8290.5 0
8291.5 0
8292.5 0
8293.5 -1.07143
8294.5 0
8295.5 0
8296.5 0
8297.5 -1.07143
8298.5 0
8299.5 1
8300.5 0
8301.5 0
8302.5 -1.07143
8303.5 0
8304.5 0
8305.5 0
8306.5 0
8307.5 0
8308.5 0
8309.5 0
8310.5 -1.07143
8311.5 0
8312.5 0
8313.5 0
8314.5 1
8315.5 0
8316.5 0
8317.5 0
8318.5 0
8319.5 0
8320.5 0
8321.5 -1.07143
8322.5 -1.07143
8323.5 0
8324.5 0
8325.5 -1.07143
8326.5 0
8327.5 0
8328.5 1
8329.5 0
8330.5 0
8331.5 0
8332.5 0
8333.5 -2.14286
8334.5 -1.07143
8335.5 0
8336.5 0
8337.5 0
8338.5 -1.07143
8339.5 0
8340.5 -0.0714285
8341.5 0
8342.5 0
8343.5 0
8344.5 0
8345.5 -1.07143
8346.5 -1.07143
8347.5 0
8348.5 0
8349.5 -1.07143
8350.5 0
8351.5 0
8352.5 -1.07143
8353.5 0
8354.5 0
8355.5 0
8356.5 -1.07143
8357.5 0
8358.5 0
8359.5 0
8360.5 0
8361.5 0
8362.5 0
8363.5 0
8364.5 0
8365.5 0
8366.5 0
8367.5 0
8368.5 -1.07143
8369.5 1
8370.5 0
8371.5 0
8372.5 0
8373.5 0
8374.5 1
8375.5 0
8376.5 0
8377.5 -1.07143
8378.5 -1.07143
8379.5 0
8380.5 -1.07143
8381.5 0
8382.5 -0.0714285
8383.5 0
8384.5 0
8385.5 -1.07143
8386.5 0
8387.5 0
8388.5 0
8389.5 0
8390.5 0
8391.5 0
8392.5 0
8393.5 0
8394.5 0
8395.5 0
8396.5 0
8397.5 -1.07143
8398.5 0
8399.5 0
8400.5 0
8401.5 0
8402.5 0
8403.5 1
8404.5 0
8405.5 -0.0714285
8406.5 0
8407.5 0
8408.5 0
8409.5 0
8410.5 0
8411.5 0
8412.5 1
8413.5 0
8414.5 -1.07143
8415.5 0
8416.5 0
8417.5 0
8418.5 1
8419.5 0
8420.5 0
8421.5 0
8422.5 0
8423.5 -1.07143
8424.5 0
8425.5 1
8426.5 0
8427.5 0
8428.5 0
8429.5 0
8430.5 0
8431.5 0
8432.5 0
8433.5 0
8434.5 0
8435.5 0
8436.5 0
8437.5 -1.07143
8438.5 0
8439.5 0
8440.5 0
8441.5 0
8442.5 -1.07143
8443.5 0
8444.5 0
8445.5 0
8446.5 0
8447.5 1
8448.5 0
8449.5 0
8450.5 0
8451.5 0
8452.5 0
8453.5 0
8454.5 0
8455.5 0
8456.5 0
8457.5 0
8458.5 0
8459.5 0
8460.5 1
8461.5 0
8462.5 0
8463.5 -1.07143
8464.5 0
8465.5 0
8466.5 0
8467.5 0
8468.5 0
8469.5 0
8470.5 0
8471.5 0
8472.5 0
8473.5 0
8474.5 0
8475.5 0
8476.5 0
8477.5 0
8478.5 0
8479.5 0
8480.5 0
8481.5 0
8482.5 0
8483.5 0
8484.5 0
8485.5 0
8486.5 0
8487.5 0
8488.5 0
8489.5 0
8490.5 1
8491.5 0
8492.5 0
8493.5 -1.07143
8494.5 0
8495.5 0
8496.5 0
8497.5 0
8498.5 0
8499.5 0
8500.5 0
8501.5 0
8502.5 0
8503.5 0
8504.5 0
8505.5 0
8506.5 0
8507.5 0
8508.5 0
8509.5 0
8510.5 -1.07143
8511.5 0
8512.5 0
8513.5 0
8514.5 0
8515.5 1
8516.5 0
8517.5 0
8518.5 0
8519.5 0
8520.5 0
8521.5 0
8522.5 0
8523.5 0
8524.5 0
8525.5 0
8526.5 1
8527.5 1
8528.5 0
8529.5 0
8530.5 0
8531.5 -1.07143
8532.5 0
8533.5 0
8534.5 0
8535.5 0
8536.5 1
8537.5 0
8538.5 0
8539.5 -2.14286
8540.5 0
8541.5 0
8542.5 0
8543.5 0
8544.5 1
8545.5 -1.07143
8546.5 0
8547.5 0
8548.5 0
8549.5 0
8550.5 0
8551.5 0
8552.5 0
8553.5 0
8554.5 0
8555.5 0
8556.5 1
8557.5 1
8558.5 1
8559.5 0
8560.5 1
8561.5 0
8562.5 0
8563.5 0
8564.5 1
8565.5 0
8566.5 0
8567.5 0
8568.5 0
8569.5 0
8570.5 0
8571.5 0
8572.5 0
8573.5 0
8574.5 -1.07143
8575.5 0
8576.5 -1.07143
8577.5 0
8578.5 1
8579.5 0
8580.5 0
8581.5 1
8582.5 0
8583.5 1
8584.5 -1.07143
8585.5 0
8586.5 0
8587.5 0
8588.5 1
8589.5 1
8590.5 -1.07143
8591.5 0
8592.5 0
8593.5 0
8594.5 0
8595.5 0
8596.5 0
8597.5 0
8598.5 0
8599.5 -1.07143
8600.5 0
8601.5 1
8602.5 0
8603.5 0
8604.5 0
8605.5 0
8606.5 1
8607.5 0
8608.5 0
8609.5 0
8610.5 1
8611.5 0
8612.5 -1.07143
8613.5 0
8614.5 0
8615.5 0
8616.5 0
8617.5 0
8618.5 0
8619.5 0
8620.5 -1.07143
8621.5 0
8622.5 0
8623.5 0
8624.5 -1.07143
8625.5 0
8626.5 -1.07143
8627.5 -1.07143
8628.5 -0.0714285
8629.5 0
8630.5 0
8631.5 0
8632.5 0
8633.5 0
8634.5 0
8635.5 0
8636.5 0
8637.5 0
8638.5 0
8639.5 0
8640.5 0
8641.5 0
8642.5 0
8643.5 0
8644.5 0
8645.5 0
8646.5 0
8647.5 0
8648.5 0
8649.5 0
8650.5 0
8651.5 0
8652.5 0
8653.5 0
8654.5 0
8655.5 1
8656.5 0
8657.5 0
8658.5 0
8659.5 0
8660.5 0
8661.5 0
8662.5 0
8663.5 0
8664.5 0
8665.5 0
8666.5 0
8667.5 0
8668.5 1
8669.5 0
8670.5 0
8671.5 0
8672.5 0
8673.5 0
8674.5 1
8675.5 -1.07143
8676.5 -1.07143
8677.5 0
8678.5 0
8679.5 0
8680.5 -1.07143
8681.5 0
8682.5 0
8683.5 0
8684.5 0
8685.5 0
8686.5 0
8687.5 0
8688.5 0
8689.5 0
8690.5 -1.07143
8691.5 0
8692.5 0
8693.5 1
8694.5 0
8695.5 0
8696.5 0
8697.5 1
8698.5 0
8699.5 1
8700.5 0
8701.5 0
8702.5 0
8703.5 0
8704.5 0
8705.5 0
8706.5 1
8707.5 0
8708.5 0
8709.5 0
8710.5 0
8711.5 0
8712.5 -1.07143
8713.5 0
8714.5 0
8715.5 0
8716.5 0
8717.5 -1.07143
8718.5 0
8719.5 0
8720.5 1
8721.5 0
8722.5 0
8723.5 0
8724.5 1
8725.5 -1.07143
8726.5 0
8727.5 -1.07143
8728.5 0
8729.5 0
8730.5 0
8731.5 0
8732.5 0
8733.5 0
8734.5 0
8735.5 -1.07143
8736.5 1
8737.5 0
8738.5 0
8739.5 0
8740.5 -1.07143
8741.5 0
8742.5 0
8743.5 0
8744.5 0
8745.5 0
8746.5 -1.07143
8747.5 0
8748.5 0
8749.5 0
8750.5 0
8751.5 0
8752.5 0
8753.5 0
8754.5 0
8755.5 1
8756.5 1
8757.5 0
8758.5 0
8759.5 0
8760.5 0
8761.5 0
8762.5 -1.07143
8763.5 0
8764.5 0
8765.5 0
8766.5 0
8767.5 0
8768.5 0
8769.5 0
8770.5 0
8771.5 0
8772.5 0
8773.5 1
8774.5 1
8775.5 0
8776.5 0
8777.5 0
8778.5 0
8779.5 0
8780.5 0
8781.5 0
8782.5 0
8783.5 0
8784.5 1
8785.5 0
8786.5 0
8787.5 0
8788.5 0
8789.5 0
8790.5 0
8791.5 0
8792.5 0
8793.5 0
8794.5 1
8795.5 1
8796.5 0
8797.5 0
8798.5 0
8799.5 0
8800.5 0
8801.5 0
8802.5 1
8803.5 0
8804.5 0
8805.5 0
8806.5 0
8807.5 0
8808.5 0
8809.5 0
8810.5 -1.07143
8811.5 2
8812.5 0
8813.5 0
8814.5 0
8815.5 0
8816.5 0
8817.5 0
8818.5 0
8819.5 0
8820.5 0
8821.5 0
8822.5 0
8823.5 1
8824.5 0
8825.5 0
8826.5 0
8827.5 1
8828.5 1
8829.5 0
8830.5 0
8831.5 0
8832.5 0
8833.5 0
8834.5 0
8835.5 1
8836.5 0
8837.5 0
8838.5 1
8839.5 -0.0714285
8840.5 0
8841.5 0
8842.5 0
8843.5 0
8844.5 -1.07143
8845.5 0
8846.5 0
8847.5 0
8848.5 0
8849.5 -1.07143
8850.5 -0.0714285
8851.5 0
8852.5 0
8853.5 0
8854.5 0
8855.5 -1.07143
8856.5 0
8857.5 0
8858.5 0
8859.5 0
8860.5 0
8861.5 1
8862.5 0
8863.5 0
8864.5 0
8865.5 0
8866.5 0
8867.5 0
8868.5 0
8869.5 0
8870.5 -1.07143
8871.5 0
8872.5 0
8873.5 0
8874.5 0
8875.5 1
8876.5 -1.07143
8877.5 -1.07143
8878.5 0
8879.5 0
8880.5 0
8881.5 0
8882.5 -1.07143
8883.5 -1.07143
8884.5 0
8885.5 0
8886.5 0
8887.5 1
8888.5 0
8889.5 0
8890.5 0
8891.5 0
8892.5 0
8893.5 0
8894.5 0
8895.5 0
8896.5 -1.07143
8897.5 0
8898.5 0
8899.5 1
8900.5 0
8901.5 0
8902.5 0
8903.5 0
8904.5 0
8905.5 0
8906.5 0
8907.5 0
8908.5 0
8909.5 0
8910.5 0
8911.5 1
8912.5 -1.07143
8913.5 1
8914.5 0
8915.5 0
8916.5 0
8917.5 0
8918.5 0
8919.5 0
8920.5 0
8921.5 0
8922.5 0
8923.5 0
8924.5 0
8925.5 0
8926.5 0
8927.5 0
8928.5 1
8929.5 1
8930.5 0
8931.5 0
8932.5 0
8933.5 0
8934.5 0
8935.5 0
8936.5 0
8937.5 0
8938.5 0
8939.5 0
8940.5 0
8941.5 0
8942.5 0
8943.5 0
8944.5 0
8945.5 0
8946.5 0
8947.5 0
8948.5 0
8949.5 0
8950.5 0
8951.5 0
8952.5 -0.0714285
8953.5 0
8954.5 0
8955.5 0
8956.5 0
8957.5 0
8958.5 1
8959.5 0
8960.5 0
8961.5 -1.07143
8962.5 -1.07143
8963.5 0
8964.5 0
8965.5 0
8966.5 1
8967.5 0
8968.5 0
8969.5 0
8970.5 0
8971.5 0
8972.5 0
8973.5 0
8974.5 1
8975.5 0
8976.5 0
8977.5 0
8978.5 0
8979.5 0
8980.5 0
8981.5 0
8982.5 0
8983.5 1
8984.5 0
8985.5 0
8986.5 0
8987.5 0
8988.5 1
8989.5 -1.07143
8990.5 0
8991.5 0
8992.5 0
8993.5 0
8994.5 0
8995.5 0
8996.5 0
8997.5 0
8998.5 0
8999.5 0
9000.5 0
9001.5 0
9002.5 -1.07143
9003.5 0
9004.5 0
9005.5 0
9006.5 0
9007.5 0
9008.5 0
9009.5 1
9010.5 0
9011.5 0
9012.5 -1.07143
9013.5 0
9014.5 0
9015.5 0
9016.5 0
9017.5 1
9018.5 0
9019.5 0
9020.5 0
9021.5 1
9022.5 0
9023.5 0
9024.5 0
9025.5 0
9026.5 0
9027.5 0
9028.5 0
9029.5 0
9030.5 0
9031.5 0
9032.5 0
9033.5 0
9034.5 0
9035.5 0
9036.5 0
9037.5 -0.0714285
9038.5 -1.07143
9039.5 1
9040.5 0
9041.5 0
9042.5 0
9043.5 0
9044.5 0
9045.5 0
9046.5 0
9047.5 0
9048.5 0
9049.5 0
9050.5 0
9051.5 0
9052.5 0
9053.5 0
9054.5 0
9055.5 0
9056.5 0
9057.5 0
9058.5 0
9059.5 0
9060.5 0
9061.5 0
9062.5 -0.0714285
9063.5 0
9064.5 0
9065.5 0
9066.5 -1.07143
9067.5 0
9068.5 0
9069.5 0
9070.5 0
9071.5 -1.07143
9072.5 1
9073.5 0
9074.5 0
9075.5 0
9076.5 0
9077.5 0
9078.5 0
9079.5 0
9080.5 0
9081.5 -0.0714285
9082.5 0
9083.5 0
9084.5 0
9085.5 0
9086.5 -1.07143
9087.5 0
9088.5 0
9089.5 0
9090.5 -1.07143
9091.5 0
9092.5 0
9093.5 0
9094.5 0
9095.5 0
9096.5 0
9097.5 0
9098.5 -1.07143
9099.5 0
9100.5 0
9101.5 0
9102.5 -1.07143
9103.5 0
9104.5 0
9105.5 0
9106.5 0
9107.5 -1.07143
9108.5 0
9109.5 0
9110.5 1
9111.5 -1.07143
9112.5 0
9113.5 1
9114.5 0
9115.5 0
9116.5 -1.07143
9117.5 0
9118.5 1
9119.5 0
9120.5 0
9121.5 -1.07143
9122.5 0
9123.5 0
9124.5 0
9125.5 0
9126.5 0
9127.5 0
9128.5 0
9129.5 1
9130.5 0
9131.5 0
9132.5 0
9133.5 0
9134.5 1
9135.5 0
9136.5 1
9137.5 -1.07143
9138.5 0
9139.5 0
9140.5 -0.0714285
9141.5 0
9142.5 0
9143.5 0
9144.5 0
9145.5 0
9146.5 -1.07143
9147.5 0
9148.5 0
9149.5 0
9150.5 0
9151.5 1
9152.5 0
9153.5 1
9154.5 1
9155.5 0
9156.5 0
9157.5 0
9158.5 0
9159.5 0
9160.5 0
9161.5 0
9162.5 0
9163.5 0
9164.5 0
9165.5 0
9166.5 0
9167.5 0
9168.5 0
9169.5 0
9170.5 0
9171.5 1
9172.5 0
9173.5 0
9174.5 -1.07143
9175.5 1
9176.5 0
9177.5 1
9178.5 0
9179.5 0
9180.5 2
9181.5 0
9182.5 0
9183.5 0
9184.5 -1.07143
9185.5 0
9186.5 0
9187.5 0
9188.5 0
9189.5 0
9190.5 0
9191.5 1
9192.5 -1.07143
9193.5 -1.07143
9194.5 0
9195.5 1
9196.5 0
9197.5 0
9198.5 0
9199.5 0
9200.5 0
9201.5 -1.07143
9202.5 -1.07143
9203.5 0
9204.5 0
9205.5 0
9206.5 0
9207.5 0
9208.5 0
9209.5 0
9210.5 0
9211.5 0
9212.5 -1.07143
9213.5 0
9214.5 0
9215.5 0
9216.5 0
9217.5 0
9218.5 0
9219.5 0
9220.5 1
9221.5 0
9222.5 0
9223.5 0
9224.5 0
9225.5 0
9226.5 0
9227.5 0
9228.5 0
9229.5 0
9230.5 0
9231.5 0
9232.5 0
9233.5 0
9234.5 0
9235.5 0
9236.5 0
9237.5 0
9238.5 0
9239.5 0
9240.5 0
9241.5 0
9242.5 0
9243.5 0
9244.5 0
9245.5 0
9246.5 0
9247.5 0
9248.5 0
9249.5 0
9250.5 -2.14286
9251.5 0
9252.5 0
9253.5 -1.07143
9254.5 0
9255.5 0
9256.5 0
9257.5 0
9258.5 0
9259.5 0
9260.5 0
9261.5 0
9262.5 1
9263.5 0
9264.5 0
9265.5 0
9266.5 0
9267.5 1
9268.5 0
9269.5 0
9270.5 0
9271.5 -1.07143
9272.5 0
9273.5 0
9274.5 0
9275.5 0
9276.5 0
9277.5 0
9278.5 0
9279.5 0
9280.5 0
9281.5 0
9282.5 -1.07143
9283.5 0
9284.5 0
9285.5 0
9286.5 1
9287.5 0
9288.5 0
9289.5 1
9290.5 0
9291.5 0
9292.5 -1.07143
9293.5 0
9294.5 0
9295.5 0
9296.5 1
9297.5 0
9298.5 0
9299.5 -1.07143
9300.5 0
9301.5 2
9302.5 1
9303.5 0
9304.5 0
9305.5 1
9306.5 0
9307.5 0
9308.5 0
9309.5 -1.07143
9310.5 0
9311.5 1
9312.5 0
9313.5 1
9314.5 -1.07143
9315.5 0
9316.5 0
9317.5 0
9318.5 0
9319.5 0
9320.5 0
9321.5 -1.07143
9322.5 0
9323.5 0
9324.5 0
9325.5 0
9326.5 0
9327.5 0
9328.5 0
9329.5 0
9330.5 0
9331.5 0
9332.5 0
9333.5 0
9334.5 1
9335.5 -1.07143
9336.5 0
9337.5 0
9338.5 0
9339.5 0
9340.5 0
9341.5 -1.07143
9342.5 0
9343.5 0
9344.5 0
9345.5 0
9346.5 1
9347.5 0
9348.5 0
9349.5 0
9350.5 0
9351.5 0
9352.5 0
9353.5 0
9354.5 0
9355.5 0
9356.5 0
9357.5 0
9358.5 0
9359.5 1
9360.5 0
9361.5 0
9362.5 0
9363.5 0
9364.5 1
9365.5 0
9366.5 0
9367.5 0
9368.5 0
9369.5 0
9370.5 0
9371.5 0
9372.5 -1.07143
9373.5 0
9374.5 0
9375.5 0
9376.5 0
9377.5 0
9378.5 0
9379.5 0
9380.5 1
9381.5 0
9382.5 0
9383.5 0
9384.5 0
9385.5 0
9386.5 1
9387.5 0
9388.5 1
9389.5 0
9390.5 0
9391.5 0
9392.5 0
9393.5 0
9394.5 0
9395.5 0
9396.5 0
9397.5 0
9398.5 0
9399.5 -1.07143
9400.5 0
9401.5 0
9402.5 0
9403.5 0
9404.5 0
9405.5 0
9406.5 0
9407.5 0
9408.5 0
9409.5 0
9410.5 0
9411.5 0
9412.5 0
9413.5 0
9414.5 0
9415.5 0
9416.5 0
9417.5 0
9418.5 0
9419.5 0
9420.5 0
9421.5 0
9422.5 0
9423.5 0
9424.5 0
9425.5 0
9426.5 0
9427.5 1
9428.5 0
9429.5 0
9430.5 0
9431.5 0
9432.5 0
9433.5 0
9434.5 1
9435.5 0
9436.5 0
9437.5 0
9438.5 0
9439.5 0
9440.5 0
9441.5 1
9442.5 0
9443.5 0
9444.5 0
9445.5 0
9446.5 -1.07143
9447.5 1
9448.5 0
9449.5 0
9450.5 0
9451.5 0
9452.5 0
9453.5 0
9454.5 0
9455.5 -1.07143
9456.5 0
9457.5 0
9458.5 0
9459.5 0
9460.5 0
9461.5 0
9462.5 0
9463.5 0
9464.5 -1.07143
9465.5 0
9466.5 0
9467.5 0
9468.5 0
9469.5 0
9470.5 0
9471.5 0
9472.5 -1.07143
9473.5 0
9474.5 0
9475.5 0
9476.5 0
9477.5 -1.07143
9478.5 0
9479.5 0
9480.5 0
9481.5 0
9482.5 0
9483.5 0
9484.5 0
9485.5 0
9486.5 -1.07143
9487.5 0
9488.5 0
9489.5 0
9490.5 0
9491.5 -1.07143
9492.5 0
9493.5 0
9494.5 0
9495.5 0
9496.5 0
9497.5 1
9498.5 0
9499.5 0
9500.5 0
9501.5 0
9502.5 0
9503.5 0
9504.5 0
9505.5 0
9506.5 0
9507.5 0
9508.5 0
9509.5 0
9510.5 0
9511.5 0
9512.5 0
9513.5 0
9514.5 0
9515.5 0
9516.5 0
9517.5 0
9518.5 0
9519.5 0
9520.5 0
9521.5 0
9522.5 0
9523.5 0
9524.5 0
9525.5 0
9526.5 0
9527.5 0
9528.5 0
9529.5 0
9530.5 0
9531.5 0
9532.5 0
9533.5 0
9534.5 0
9535.5 -1.07143
9536.5 -1.07143
9537.5 0
9538.5 1
9539.5 0
9540.5 0
9541.5 0
9542.5 0
9543.5 0
9544.5 -1.07143
9545.5 0
9546.5 0
9547.5 0
9548.5 0
9549.5 0
9550.5 0
9551.5 0
9552.5 0
9553.5 0
9554.5 -1.07143
9555.5 0
9556.5 0
9557.5 0
9558.5 0
9559.5 0
9560.5 0
9561.5 0
9562.5 0
9563.5 0
9564.5 0
9565.5 0
9566.5 0
9567.5 0
9568.5 0
9569.5 0
9570.5 0
9571.5 0
9572.5 0
9573.5 -1.07143
9574.5 -1.07143
9575.5 0
9576.5 0
9577.5 0
9578.5 0
9579.5 0
9580.5 0
9581.5 0
9582.5 0
9583.5 0
9584.5 0
9585.5 0
9586.5 0
9587.5 0
9588.5 0
9589.5 0
9590.5 0
9591.5 1
9592.5 -1.07143
9593.5 0
9594.5 0
9595.5 0
9596.5 -1.07143
9597.5 1
9598.5 0
9599.5 0
9600.5 0
9601.5 0
9602.5 0
9603.5 0
9604.5 0
9605.5 0
9606.5 1
9607.5 0
9608.5 0
9609.5 0
9610.5 0
9611.5 0
9612.5 -1.07143
9613.5 0
9614.5 0
9615.5 0
9616.5 0
9617.5 0
9618.5 0
9619.5 0
9620.5 0
9621.5 0
9622.5 0
9623.5 0
9624.5 0
9625.5 0
9626.5 0
9627.5 0
9628.5 0
9629.5 0
9630.5 0
9631.5 0
9632.5 0
9633.5 0
9634.5 0
9635.5 0
9636.5 0
9637.5 0
9638.5 0
9639.5 0
9640.5 0
9641.5 0
9642.5 0
9643.5 1
9644.5 0
9645.5 0
9646.5 0
9647.5 -1.07143
9648.5 -1.07143
9649.5 0
9650.5 0
9651.5 1
9652.5 1
9653.5 0
9654.5 0
9655.5 0
9656.5 0
9657.5 0
9658.5 0
9659.5 0
9660.5 0
9661.5 0
9662.5 0
9663.5 0
9664.5 0
9665.5 0
9666.5 0
9667.5 0
9668.5 0
9669.5 0
9670.5 0
9671.5 0
9672.5 0
9673.5 -1.07143
9674.5 0
9675.5 0
9676.5 0
9677.5 0
9678.5 0
9679.5 0
9680.5 0
9681.5 0
9682.5 0
9683.5 0
9684.5 0
9685.5 0
9686.5 0
9687.5 0
9688.5 0
9689.5 0
9690.5 0
9691.5 0
9692.5 2
9693.5 0
9694.5 1
9695.5 0
9696.5 0
9697.5 0
9698.5 0
9699.5 0
9700.5 0
9701.5 0
9702.5 0
9703.5 -1.07143
9704.5 0
9705.5 0
9706.5 0
9707.5 0
9708.5 0
9709.5 0
9710.5 0
9711.5 0
9712.5 0
9713.5 0
9714.5 0
9715.5 0
9716.5 0
9717.5 0
9718.5 0
9719.5 0
9720.5 0
9721.5 0
9722.5 1
9723.5 0
9724.5 0
9725.5 0
9726.5 0
9727.5 0
9728.5 0
9729.5 0
9730.5 0
9731.5 0
9732.5 0
9733.5 0
9734.5 0
9735.5 -1.07143
9736.5 1
9737.5 0
9738.5 0
9739.5 0
9740.5 0
9741.5 0
9742.5 0
9743.5 0
9744.5 0
9745.5 0
9746.5 0
9747.5 0
9748.5 1
9749.5 0
9750.5 0
9751.5 0
9752.5 0
9753.5 0
9754.5 0
9755.5 0
9756.5 0
9757.5 0
9758.5 0
9759.5 0
9760.5 0
9761.5 0
9762.5 0
9763.5 0
9764.5 0
9765.5 0
9766.5 0
9767.5 0
9768.5 -1.07143
9769.5 0
9770.5 0
9771.5 -1.07143
9772.5 0
9773.5 0
9774.5 0
9775.5 0
9776.5 0
9777.5 0
9778.5 0
9779.5 0
9780.5 0
9781.5 0
9782.5 0
9783.5 0
9784.5 0
9785.5 0
9786.5 0
9787.5 0
9788.5 0
9789.5 0
9790.5 0
9791.5 -1.07143
9792.5 0
9793.5 0
9794.5 0
9795.5 0
9796.5 -0.0714285
9797.5 1
9798.5 0
9799.5 0
9800.5 0
9801.5 0
9802.5 0
9803.5 0
9804.5 0
9805.5 0
9806.5 0
9807.5 0
9808.5 0
9809.5 0
9810.5 0
9811.5 0
9812.5 0
9813.5 0
9814.5 -1.07143
9815.5 0
9816.5 0
9817.5 0
9818.5 0
9819.5 0
9820.5 0
9821.5 0
9822.5 0
9823.5 0
9824.5 0
9825.5 0
9826.5 0
9827.5 0
9828.5 0
9829.5 0
9830.5 0
9831.5 0
9832.5 0
9833.5 1
9834.5 1
9835.5 0
9836.5 0
9837.5 0
9838.5 0
9839.5 0
9840.5 0
9841.5 0
9842.5 1
9843.5 0
9844.5 0
9845.5 0
9846.5 0
9847.5 -1.07143
9848.5 0
9849.5 0
9850.5 0
9851.5 0
9852.5 0
9853.5 0
9854.5 0
9855.5 0
9856.5 0
9857.5 0
9858.5 0
9859.5 0
9860.5 0
9861.5 0
9862.5 0
9863.5 0
9864.5 0
9865.5 0
9866.5 0
9867.5 0
9868.5 0
9869.5 0
9870.5 0
9871.5 0
9872.5 0
9873.5 0
9874.5 0
9875.5 0
9876.5 0
9877.5 0
9878.5 0
9879.5 0
9880.5 0
9881.5 0
9882.5 0
9883.5 0
9884.5 0
9885.5 0
9886.5 0
9887.5 0
9888.5 0
9889.5 0
9890.5 0
9891.5 0
9892.5 0
9893.5 0
9894.5 -1.07143
9895.5 0
9896.5 0
9897.5 0
9898.5 0
9899.5 0
9900.5 0
9901.5 0
9902.5 0
9903.5 0
9904.5 0
9905.5 0
9906.5 0
9907.5 0
9908.5 0
9909.5 0
9910.5 0
9911.5 0
9912.5 0
9913.5 0
9914.5 0
9915.5 0
9916.5 0
9917.5 0
9918.5 0
9919.5 0
9920.5 0
9921.5 0
9922.5 0
9923.5 -1.07143
9924.5 0
9925.5 0
9926.5 0
9927.5 0
9928.5 0
9929.5 0
9930.5 0
9931.5 0
9932.5 0
9933.5 0
9934.5 0
9935.5 0
9936.5 0
9937.5 0
9938.5 0
9939.5 0
9940.5 0
9941.5 0
9942.5 0
9943.5 0
9944.5 0
9945.5 0
9946.5 0
9947.5 0
9948.5 0
9949.5 0
9950.5 0
9951.5 0
9952.5 0
9953.5 1
9954.5 0
9955.5 0
9956.5 0
9957.5 0
9958.5 0
9959.5 0
9960.5 0
9961.5 0
9962.5 0
9963.5 0
9964.5 0
9965.5 0
9966.5 0
9967.5 0
9968.5 0
9969.5 0
9970.5 0
9971.5 0
9972.5 0
9973.5 0
9974.5 0
9975.5 0
9976.5 0
9977.5 0
9978.5 0
9979.5 0
9980.5 0
9981.5 0
9982.5 0
9983.5 0
9984.5 0
9985.5 0
9986.5 0
9987.5 0
9988.5 0
9989.5 0
9990.5 0
9991.5 0
9992.5 0
9993.5 0
9994.5 0
9995.5 0
9996.5 0
9997.5 0
9998.5 0
9999.5 0
10000.5 0
10001.5 0
10002.5 0
10003.5 0
10004.5 0
10005.5 0
10006.5 0
10007.5 0
10008.5 0
10009.5 0
10010.5 0
10011.5 0
10012.5 0
10013.5 0
10014.5 0
10015.5 0
10016.5 0
10017.5 0
10018.5 0
10019.5 0
10020.5 0
10021.5 0
10022.5 0
10023.5 0
10024.5 0
10025.5 0
10026.5 0
10027.5 0
10028.5 0
10029.5 0
10030.5 0
10031.5 0
10032.5 0
10033.5 0
10034.5 1
10035.5 1
10036.5 0
10037.5 0
10038.5 0
10039.5 0
10040.5 0
10041.5 0
10042.5 0
10043.5 0
10044.5 0
10045.5 0
10046.5 0
10047.5 0
10048.5 0
10049.5 0
10050.5 0
10051.5 0
10052.5 0
10053.5 0
10054.5 0
10055.5 0
10056.5 0
10057.5 0
10058.5 0
10059.5 0
10060.5 0
10061.5 0
10062.5 0
10063.5 0
10064.5 0
10065.5 0
10066.5 0
10067.5 0
10068.5 0
10069.5 0
10070.5 0
10071.5 0
10072.5 0
10073.5 0
10074.5 0
10075.5 0
10076.5 0
10077.5 0
10078.5 0
10079.5 0
10080.5 0
10081.5 0
10082.5 0
10083.5 0
10084.5 0
10085.5 0
10086.5 0
10087.5 0
10088.5 0
10089.5 1
10090.5 0
10091.5 0
10092.5 0
10093.5 1
10094.5 0
10095.5 0
10096.5 0
10097.5 0
10098.5 0
10099.5 0
10100.5 0
10101.5 0
10102.5 0
10103.5 0
10104.5 -1.07143
10105.5 0
10106.5 0
10107.5 0
10108.5 0
10109.5 0
10110.5 0
10111.5 0
10112.5 0
10113.5 0
10114.5 0
10115.5 0
10116.5 0
10117.5 0
10118.5 0
10119.5 0
10120.5 0
10121.5 0
10122.5 0
10123.5 0
10124.5 0
10125.5 0
10126.5 0
10127.5 0
10128.5 0
10129.5 0
10130.5 0
10131.5 0
10132.5 0
10133.5 0
10134.5 0
10135.5 0
10136.5 0
10137.5 0
10138.5 0
10139.5 0
10140.5 0
10141.5 0
10142.5 0
10143.5 0
10144.5 0
10145.5 0
10146.5 0
10147.5 0
10148.5 0
10149.5 0
10150.5 0
10151.5 0
10152.5 0
10153.5 0
10154.5 0
10155.5 0
10156.5 0
10157.5 0
10158.5 0
10159.5 0
10160.5 0
10161.5 0
10162.5 0
10163.5 0
10164.5 0
10165.5 0
10166.5 0
10167.5 0
10168.5 0
10169.5 0
10170.5 0
10171.5 0
10172.5 0
10173.5 0
10174.5 0
10175.5 0
10176.5 0
10177.5 0
10178.5 0
10179.5 0
10180.5 0
10181.5 0
10182.5 0
10183.5 0
10184.5 0
10185.5 0
10186.5 0
10187.5 0
10188.5 0
10189.5 0
10190.5 0
10191.5 0
10192.5 0
10193.5 0
10194.5 -1.07143
10195.5 0
10196.5 0
10197.5 0
10198.5 0
10199.5 0
10200.5 0
10201.5 0
10202.5 0
10203.5 0
10204.5 0
10205.5 0
10206.5 0
10207.5 0
10208.5 0
10209.5 0
10210.5 0
10211.5 0
10212.5 0
10213.5 0
10214.5 0
10215.5 0
10216.5 0
10217.5 0
10218.5 0
10219.5 0
10220.5 0
10221.5 0
10222.5 0
10223.5 0
10224.5 0
10225.5 0
10226.5 0
10227.5 0
10228.5 0
10229.5 0
10230.5 0
10231.5 0
10232.5 0
10233.5 0
10234.5 0
10235.5 0
10236.5 0
10237.5 0
10238.5 0
10239.5 0
10240.5 0
10241.5 0
10242.5 0
10243.5 0
10244.5 0
10245.5 0
10246.5 0
10247.5 0
10248.5 0
10249.5 0
10250.5 0
10251.5 0
10252.5 0
10253.5 -1.07143
10254.5 0
10255.5 0
10256.5 0
10257.5 0
10258.5 0
10259.5 0
10260.5 0
10261.5 0
10262.5 0
10263.5 0
10264.5 0
10265.5 0
10266.5 0
10267.5 0
10268.5 0
10269.5 0
10270.5 0
10271.5 0
10272.5 0
10273.5 0
10274.5 0
10275.5 0
10276.5 0
10277.5 0
10278.5 0
10279.5 0
10280.5 0
10281.5 0
10282.5 0
10283.5 0
10284.5 0
10285.5 1
10286.5 0
10287.5 0
10288.5 0
10289.5 0
10290.5 0
10291.5 0
10292.5 0
10293.5 0
10294.5 0
10295.5 0
10296.5 0
10297.5 0
10298.5 0
10299.5 0
10300.5 0
10301.5 0
10302.5 0
10303.5 0
10304.5 0
10305.5 0
10306.5 0
10307.5 0
10308.5 0
10309.5 0
10310.5 -1.07143
10311.5 0
10312.5 0
10313.5 0
10314.5 0
10315.5 0
10316.5 0
10317.5 0
10318.5 0
10319.5 0
10320.5 0
10321.5 0
10322.5 0
10323.5 0
10324.5 0
10325.5 0
10326.5 0
10327.5 0
10328.5 0
10329.5 0
10330.5 0
10331.5 0
10332.5 0
10333.5 0
10334.5 0
10335.5 0
10336.5 0
10337.5 0
10338.5 0
10339.5 0
10340.5 0
10341.5 0
10342.5 0
10343.5 0
10344.5 0
10345.5 0
10346.5 0
10347.5 0
10348.5 0
10349.5 0
10350.5 0
10351.5 0
10352.5 0
10353.5 0
10354.5 0
10355.5 0
10356.5 0
10357.5 0
10358.5 0
10359.5 0
10360.5 0
10361.5 0
10362.5 0
10363.5 0
10364.5 0
10365.5 0
10366.5 0
10367.5 0
10368.5 0
10369.5 0
10370.5 0
10371.5 0
10372.5 0
10373.5 0
10374.5 0
10375.5 0
10376.5 1
10377.5 0
10378.5 0
10379.5 0
10380.5 0
10381.5 0
10382.5 0
10383.5 0
10384.5 0
10385.5 0
10386.5 0
10387.5 0
10388.5 -1.07143
10389.5 0
10390.5 0
10391.5 0
10392.5 -1.07143
10393.5 0
10394.5 0
10395.5 0
10396.5 0
10397.5 0
10398.5 0
10399.5 0
10400.5 0
10401.5 0
10402.5 0
10403.5 0
10404.5 0
10405.5 0
10406.5 0
10407.5 0
10408.5 0
10409.5 0
10410.5 0
10411.5 0
10412.5 0
10413.5 0
10414.5 0
10415.5 0
10416.5 0
10417.5 0
10418.5 0
10419.5 0
10420.5 0
10421.5 0
10422.5 0
10423.5 0
10424.5 0
10425.5 0
10426.5 0
10427.5 0
10428.5 0
10429.5 0
10430.5 0
10431.5 0
10432.5 0
10433.5 0
10434.5 0
10435.5 0
10436.5 0
10437.5 0
10438.5 0
10439.5 0
10440.5 0
10441.5 0
10442.5 0
10443.5 0
10444.5 0
10445.5 0
10446.5 0
10447.5 0
10448.5 0
10449.5 0
10450.5 0
10451.5 0
10452.5 0
10453.5 0
10454.5 0
10455.5 0
10456.5 0
10457.5 0
10458.5 0
10459.5 0
10460.5 0
10461.5 0
10462.5 0
10463.5 0
10464.5 0
10465.5 0
10466.5 0
10467.5 0
10468.5 0
10469.5 0
10470.5 0
10471.5 0
10472.5 0
10473.5 0
10474.5 0
10475.5 0
10476.5 0
10477.5 0
10478.5 0
10479.5 0
10480.5 0
10481.5 0
10482.5 0
10483.5 0
10484.5 0
10485.5 0
10486.5 0
10487.5 0
10488.5 0
10489.5 0
10490.5 0
10491.5 0
10492.5 0
10493.5 0
10494.5 0
10495.5 0
10496.5 0
10497.5 0
10498.5 0
10499.5 0
10500.5 0
10501.5 0
10502.5 0
10503.5 0
10504.5 0
10505.5 0
10506.5 0
10507.5 0
10508.5 0
10509.5 0
10510.5 0
10511.5 0
10512.5 0
10513.5 0
10514.5 0
10515.5 0
10516.5 0
10517.5 0
10518.5 0
10519.5 0
10520.5 0
10521.5 0
10522.5 0
10523.5 0
10524.5 0
10525.5 0
10526.5 0
10527.5 0
10528.5 0
10529.5 0
10530.5 0
10531.5 0
10532.5 0
10533.5 0
10534.5 0
10535.5 0
10536.5 0
10537.5 0
10538.5 0
10539.5 0
10540.5 0
10541.5 0
10542.5 0
10543.5 0
10544.5 0
10545.5 0
10546.5 0
10547.5 0
10548.5 0
10549.5 0
10550.5 0
10551.5 0
10552.5 0
10553.5 0
10554.5 0
10555.5 0
10556.5 0
10557.5 0
10558.5 0
10559.5 0
10560.5 0
10561.5 0
10562.5 0
10563.5 0
10564.5 0
10565.5 0
10566.5 0
10567.5 0
10568.5 0
10569.5 0
10570.5 0
10571.5 0
10572.5 0
10573.5 0
10574.5 0
10575.5 0
10576.5 0
10577.5 0
10578.5 0
10579.5 0
10580.5 0
10581.5 0
10582.5 0
10583.5 0
10584.5 0
10585.5 0
10586.5 0
10587.5 0
10588.5 0
10589.5 0
10590.5 0
10591.5 0
10592.5 0
10593.5 0
10594.5 0
10595.5 0
10596.5 0
10597.5 0
10598.5 0
10599.5 0
10600.5 0
10601.5 0
10602.5 0
10603.5 0
10604.5 0
10605.5 0
10606.5 0
10607.5 0
10608.5 0
10609.5 0
10610.5 0
10611.5 0
10612.5 0
10613.5 0
10614.5 0
10615.5 0
10616.5 0
10617.5 0
10618.5 0
10619.5 0
10620.5 0
10621.5 0
10622.5 0
10623.5 0
10624.5 0
10625.5 0
10626.5 0
10627.5 0
10628.5 0
10629.5 0
10630.5 0
10631.5 0
10632.5 0
10633.5 0
10634.5 0
10635.5 0
10636.5 0
10637.5 0
10638.5 0
10639.5 0
10640.5 0
10641.5 0
10642.5 0
10643.5 0
10644.5 0
10645.5 0
10646.5 0
10647.5 0
10648.5 0
10649.5 0
10650.5 0
10651.5 0
10652.5 0
10653.5 0
10654.5 0
10655.5 0
10656.5 0
10657.5 0
10658.5 0
10659.5 0
10660.5 0
10661.5 1
10662.5 0
10663.5 0
10664.5 0
10665.5 0
10666.5 0
10667.5 0
10668.5 0
10669.5 0
10670.5 0
10671.5 0
10672.5 0
10673.5 0
10674.5 0
10675.5 0
10676.5 0
10677.5 0
10678.5 0
10679.5 0
10680.5 0
10681.5 0
10682.5 0
10683.5 0
10684.5 0
10685.5 0
10686.5 0
10687.5 0
10688.5 0
10689.5 0
10690.5 0
10691.5 0
10692.5 0
10693.5 0
10694.5 0
10695.5 0
10696.5 0
10697.5 0
10698.5 0
10699.5 0
10700.5 0
10701.5 0
10702.5 0
10703.5 0
10704.5 0
10705.5 0
10706.5 0
10707.5 0
10708.5 0
10709.5 0
10710.5 0
10711.5 0
10712.5 0
10713.5 0
10714.5 0
10715.5 0
10716.5 0
10717.5 0
10718.5 0
10719.5 0
10720.5 0
10721.5 0
10722.5 0
10723.5 0
10724.5 0
10725.5 0
10726.5 0
10727.5 0
10728.5 0
10729.5 0
10730.5 0
10731.5 0
10732.5 0
10733.5 0
10734.5 0
10735.5 0
10736.5 0
10737.5 0
10738.5 0
10739.5 0
10740.5 0
10741.5 0
10742.5 0
10743.5 0
10744.5 0
10745.5 0
10746.5 0
10747.5 0
10748.5 0
10749.5 0
10750.5 0
10751.5 0
10752.5 0
10753.5 0
10754.5 0
10755.5 0
10756.5 0
10757.5 0
10758.5 0
10759.5 0
10760.5 0
10761.5 0
10762.5 0
10763.5 0
10764.5 0
10765.5 0
10766.5 0
10767.5 0
10768.5 0
10769.5 0
10770.5 0
10771.5 0
10772.5 0
10773.5 0
10774.5 0
10775.5 0
10776.5 0
10777.5 0
10778.5 0
10779.5 0
10780.5 0
10781.5 0
10782.5 0
10783.5 0
10784.5 0
10785.5 0
10786.5 0
10787.5 0
10788.5 0
10789.5 0
10790.5 0
10791.5 0
10792.5 0
10793.5 0
10794.5 0
10795.5 0
10796.5 0
10797.5 0
10798.5 0
10799.5 0
10800.5 0
10801.5 0
10802.5 0
10803.5 0
10804.5 0
10805.5 0
10806.5 0
10807.5 0
10808.5 0
10809.5 0
10810.5 1
10811.5 0
10812.5 0
10813.5 0
10814.5 0
10815.5 0
10816.5 0
10817.5 0
10818.5 0
10819.5 0
10820.5 -1.07143
10821.5 0
10822.5 0
10823.5 0
10824.5 0
10825.5 0
10826.5 0
10827.5 0
10828.5 0
10829.5 0
10830.5 0
10831.5 0
10832.5 0
10833.5 0
10834.5 0
10835.5 0
10836.5 0
10837.5 0
10838.5 0
10839.5 0
10840.5 0
10841.5 0
10842.5 0
10843.5 0
10844.5 0
10845.5 0
10846.5 0
10847.5 0
10848.5 0
10849.5 0
10850.5 0
10851.5 0
10852.5 0
10853.5 0
10854.5 0
10855.5 0
10856.5 0
10857.5 0
10858.5 0
10859.5 0
10860.5 0
10861.5 0
10862.5 0
10863.5 0
10864.5 0
10865.5 0
10866.5 0
10867.5 0
10868.5 0
10869.5 0
10870.5 0
10871.5 0
10872.5 0
10873.5 0
10874.5 0
10875.5 0
10876.5 0
10877.5 0
10878.5 0
10879.5 0
10880.5 0
10881.5 0
10882.5 0
10883.5 0
10884.5 0
10885.5 0
10886.5 0
10887.5 0
10888.5 0
10889.5 0
10890.5 0
10891.5 0
10892.5 0
10893.5 0
10894.5 0
10895.5 0
10896.5 0
10897.5 0
10898.5 0
10899.5 0
10900.5 0
10901.5 0
10902.5 0
10903.5 0
10904.5 0
10905.5 0
10906.5 0
10907.5 0
10908.5 0
10909.5 0
10910.5 0
10911.5 0
10912.5 0
10913.5 0
10914.5 0
10915.5 0
10916.5 0
10917.5 0
10918.5 0
10919.5 0
10920.5 0
10921.5 0
10922.5 0
10923.5 0
10924.5 0
10925.5 0
10926.5 0
10927.5 0
10928.5 0
10929.5 0
10930.5 0
10931.5 0
10932.5 0
10933.5 0
10934.5 0
10935.5 0
10936.5 0
10937.5 0
10938.5 0
10939.5 0
10940.5 0
10941.5 0
10942.5 0
10943.5 -1.07143
10944.5 0
10945.5 0
10946.5 0
10947.5 0
10948.5 0
10949.5 0
10950.5 0
10951.5 0
10952.5 0
10953.5 0
10954.5 0
10955.5 0
10956.5 0
10957.5 0
10958.5 0
10959.5 0
10960.5 0
10961.5 0
10962.5 0
10963.5 0
10964.5 0
10965.5 0
10966.5 0
10967.5 0
10968.5 0
10969.5 0
10970.5 0
10971.5 0
10972.5 0
10973.5 0
10974.5 0
10975.5 0
10976.5 0
10977.5 0
10978.5 0
10979.5 0
10980.5 0
10981.5 0
10982.5 0
10983.5 0
10984.5 0
10985.5 0
10986.5 0
10987.5 0
10988.5 0
10989.5 0
10990.5 0
10991.5 0
10992.5 0
10993.5 0
10994.5 0
10995.5 0
10996.5 0
10997.5 0
10998.5 0
10999.5 0
11000.5 0
11001.5 0
11002.5 0
11003.5 0
11004.5 0
11005.5 0
11006.5 0
11007.5 0
11008.5 0
11009.5 0
11010.5 0
11011.5 0
11012.5 0
11013.5 0
11014.5 0
11015.5 0
11016.5 0
11017.5 -1.07143
11018.5 0
11019.5 0
11020.5 0
11021.5 0
11022.5 0
11023.5 0
11024.5 0
11025.5 0
11026.5 0
11027.5 0
11028.5 0
11029.5 0
11030.5 0
11031.5 0
11032.5 0
11033.5 0
11034.5 0
11035.5 0
11036.5 0
11037.5 0
11038.5 0
11039.5 0
11040.5 0
11041.5 0
11042.5 0
11043.5 0
11044.5 0
11045.5 0
11046.5 0
11047.5 0
11048.5 0
11049.5 0
11050.5 0
11051.5 0
11052.5 0
11053.5 0
11054.5 0
11055.5 0
11056.5 0
11057.5 0
11058.5 0
11059.5 0
11060.5 0
11061.5 0
11062.5 0
11063.5 0
11064.5 0
11065.5 0
11066.5 0
11067.5 1
11068.5 0
11069.5 0
11070.5 0
11071.5 0
11072.5 0
11073.5 0
11074.5 0
11075.5 0
11076.5 0
11077.5 0
11078.5 0
11079.5 0
11080.5 0
11081.5 0
11082.5 0
11083.5 0
11084.5 0
11085.5 0
11086.5 0
11087.5 0
11088.5 0
11089.5 0
11090.5 0
11091.5 0
11092.5 0
11093.5 0
11094.5 0
11095.5 0
11096.5 0
11097.5 0
11098.5 0
11099.5 0
11100.5 0
11101.5 0
11102.5 0
11103.5 0
11104.5 0
11105.5 0
11106.5 0
11107.5 0
11108.5 0
11109.5 0
11110.5 0
11111.5 0
11112.5 0
11113.5 0
11114.5 0
11115.5 0
11116.5 0
11117.5 0
11118.5 0
11119.5 0
11120.5 0
11121.5 0
11122.5 0
11123.5 0
11124.5 0
11125.5 0
11126.5 0
11127.5 0
11128.5 0
11129.5 0
11130.5 0
11131.5 0
11132.5 0
11133.5 0
11134.5 0
11135.5 0
11136.5 0
11137.5 0
11138.5 0
11139.5 0
11140.5 0
11141.5 0
11142.5 0
11143.5 0
11144.5 0
11145.5 0
11146.5 0
11147.5 0
11148.5 0
11149.5 0
11150.5 0
11151.5 0
11152.5 0
11153.5 0
11154.5 0
11155.5 0
11156.5 0
11157.5 0
11158.5 0
11159.5 0
11160.5 0
11161.5 0
11162.5 0
11163.5 0
11164.5 0
11165.5 0
11166.5 0
11167.5 -1.07143
11168.5 0
11169.5 0
11170.5 0
11171.5 0
11172.5 0
11173.5 0
11174.5 0
11175.5 0
11176.5 0
11177.5 0
11178.5 0
11179.5 0
11180.5 0
11181.5 0
11182.5 0
11183.5 0
11184.5 0
11185.5 0
11186.5 0
11187.5 0
11188.5 0
11189.5 0
11190.5 0
11191.5 0
11192.5 0
11193.5 0
11194.5 0
11195.5 0
11196.5 0
11197.5 0
11198.5 0
11199.5 0
11200.5 0
11201.5 0
11202.5 0
11203.5 0
11204.5 0
11205.5 0
11206.5 0
11207.5 0
11208.5 0
11209.5 0
11210.5 0
11211.5 0
11212.5 0
11213.5 0
11214.5 0
11215.5 0
11216.5 0
11217.5 0
11218.5 0
11219.5 0
11220.5 0
11221.5 0
11222.5 0
11223.5 0
11224.5 0
11225.5 0
11226.5 0
11227.5 0
11228.5 0
11229.5 0
11230.5 0
11231.5 0
11232.5 0
11233.5 0
11234.5 0
11235.5 0
11236.5 0
11237.5 0
11238.5 0
11239.5 0
11240.5 0
11241.5 0
11242.5 0
11243.5 0
11244.5 0
11245.5 0
11246.5 0
11247.5 0
11248.5 0
11249.5 0
11250.5 0
11251.5 0
11252.5 0
11253.5 0
11254.5 0
11255.5 0
11256.5 0
11257.5 0
11258.5 0
11259.5 0
11260.5 0
11261.5 0
11262.5 0
11263.5 0
11264.5 0
11265.5 0
11266.5 0
11267.5 0
11268.5 0
11269.5 0
11270.5 0
11271.5 0
11272.5 0
11273.5 0
11274.5 0
11275.5 0
11276.5 0
11277.5 0
11278.5 0
11279.5 0
11280.5 0
11281.5 0
11282.5 0
11283.5 0
11284.5 0
11285.5 0
11286.5 0
11287.5 0
11288.5 0
11289.5 0
11290.5 0
11291.5 0
11292.5 0
11293.5 0
11294.5 0
11295.5 0
11296.5 0
11297.5 0
11298.5 0
11299.5 0
11300.5 0
11301.5 0
11302.5 0
11303.5 0
11304.5 0
11305.5 0
11306.5 0
11307.5 0
11308.5 0
11309.5 0
11310.5 0
11311.5 0
11312.5 0
11313.5 0
11314.5 0
11315.5 0
11316.5 0
11317.5 0
11318.5 0
11319.5 0
11320.5 0
11321.5 0
11322.5 0
11323.5 0
11324.5 0
11325.5 0
11326.5 0
11327.5 0
11328.5 0
11329.5 0
11330.5 0
11331.5 0
11332.5 0
11333.5 0
11334.5 0
11335.5 0
11336.5 0
11337.5 0
11338.5 0
11339.5 0
11340.5 0
11341.5 0
11342.5 0
11343.5 0
11344.5 0
11345.5 0
11346.5 0
11347.5 0
11348.5 0
11349.5 0
11350.5 0
11351.5 0
11352.5 0
11353.5 0
11354.5 0
11355.5 0
11356.5 0
11357.5 0
11358.5 0
11359.5 0
11360.5 0
11361.5 0
11362.5 0
11363.5 0
11364.5 0
11365.5 0
11366.5 0
11367.5 0
11368.5 0
11369.5 1
11370.5 0
11371.5 0
11372.5 0
11373.5 0
11374.5 0
11375.5 0
11376.5 0
11377.5 0
11378.5 0
11379.5 0
11380.5 0
11381.5 0
11382.5 0
11383.5 0
11384.5 0
11385.5 0
11386.5 0
11387.5 0
11388.5 0
11389.5 0
11390.5 0
11391.5 0
11392.5 0
11393.5 0
11394.5 0
11395.5 0
11396.5 0
11397.5 0
11398.5 0
11399.5 0
11400.5 0
11401.5 0
11402.5 0
11403.5 0
11404.5 0
11405.5 0
11406.5 0
11407.5 0
11408.5 0
11409.5 0
11410.5 0
11411.5 0
11412.5 0
11413.5 0
11414.5 0
11415.5 0
11416.5 0
11417.5 0
11418.5 0
11419.5 0
11420.5 0
11421.5 0
11422.5 0
11423.5 0
11424.5 0
11425.5 0
11426.5 0
11427.5 0
11428.5 0
11429.5 0
11430.5 0
11431.5 0
11432.5 0
11433.5 0
11434.5 0
11435.5 0
11436.5 0
11437.5 0
11438.5 0
11439.5 0
11440.5 0
11441.5 0
11442.5 0
11443.5 0
11444.5 0
11445.5 0
11446.5 0
11447.5 0
11448.5 0
11449.5 0
11450.5 0
11451.5 0
11452.5 0
11453.5 0
11454.5 0
11455.5 0
11456.5 0
11457.5 0
11458.5 0
11459.5 0
11460.5 0
11461.5 0
11462.5 0
11463.5 0
11464.5 0
11465.5 0
11466.5 0
11467.5 0
11468.5 0
11469.5 0
11470.5 0
11471.5 0
11472.5 0
11473.5 0
11474.5 0
11475.5 0
11476.5 0
11477.5 0
11478.5 0
11479.5 0
11480.5 0
11481.5 0
11482.5 0
11483.5 0
11484.5 0
11485.5 0
11486.5 0
11487.5 0
11488.5 0
11489.5 0
11490.5 0
11491.5 0
11492.5 0
11493.5 0
11494.5 0
11495.5 0
11496.5 0
11497.5 0
11498.5 0
11499.5 0
11500.5 0
11501.5 0
11502.5 0
11503.5 0
11504.5 0
11505.5 0
11506.5 0
11507.5 0
11508.5 0
11509.5 0
11510.5 0
11511.5 0
11512.5 0
11513.5 0
11514.5 0
11515.5 0
11516.5 0
11517.5 0
11518.5 0
11519.5 0
11520.5 0
11521.5 0
11522.5 0
11523.5 0
11524.5 0
11525.5 0
11526.5 0
11527.5 0
11528.5 0
11529.5 0
11530.5 0
11531.5 0
11532.5 0
11533.5 0
11534.5 0
11535.5 0
11536.5 0
11537.5 0
11538.5 0
11539.5 0
11540.5 0
11541.5 0
11542.5 0
11543.5 0
11544.5 0
11545.5 0
11546.5 0
11547.5 0
11548.5 0
11549.5 0
11550.5 0
11551.5 0
11552.5 0
11553.5 0
11554.5 0
11555.5 0
11556.5 0
11557.5 0
11558.5 0
11559.5 0
11560.5 0
11561.5 0
11562.5 0
11563.5 0
11564.5 0
11565.5 0
11566.5 0
11567.5 0
11568.5 0
11569.5 0
11570.5 0
11571.5 0
11572.5 0
11573.5 0
11574.5 0
11575.5 0
11576.5 0
11577.5 0
11578.5 0
11579.5 0
11580.5 0
11581.5 0
11582.5 0
11583.5 0
11584.5 0
11585.5 0
11586.5 0
11587.5 0
11588.5 0
11589.5 0
11590.5 0
11591.5 0
11592.5 0
11593.5 0
11594.5 0
11595.5 0
11596.5 0
11597.5 0
11598.5 0
11599.5 0
11600.5 0
11601.5 0
11602.5 0
11603.5 0
11604.5 0
11605.5 0
11606.5 0
11607.5 0
11608.5 0
11609.5 0
11610.5 0
11611.5 0
11612.5 0
11613.5 0
11614.5 0
11615.5 0
11616.5 0
11617.5 0
11618.5 0
11619.5 0
11620.5 0
11621.5 0
11622.5 0
11623.5 0
11624.5 0
11625.5 0
11626.5 0
11627.5 0
11628.5 0
11629.5 0
11630.5 0
11631.5 0
11632.5 0
11633.5 0
11634.5 0
11635.5 0
11636.5 0
11637.5 0
11638.5 0
11639.5 0
11640.5 0
11641.5 0
11642.5 0
11643.5 0
11644.5 0
11645.5 0
11646.5 0
11647.5 0
11648.5 0
11649.5 0
11650.5 0
11651.5 0
11652.5 0
11653.5 0
11654.5 0
11655.5 0
11656.5 0
11657.5 0
11658.5 0
11659.5 0
11660.5 0
11661.5 0
11662.5 0
11663.5 0
11664.5 0
11665.5 0
11666.5 0
11667.5 0
11668.5 0
11669.5 0
11670.5 0
11671.5 0
11672.5 0
11673.5 0
11674.5 0
11675.5 0
11676.5 0
11677.5 0
11678.5 0
11679.5 0
11680.5 0
11681.5 0
11682.5 0
11683.5 0
11684.5 0
11685.5 0
11686.5 0
11687.5 0
11688.5 0
11689.5 0
11690.5 0
11691.5 0
11692.5 0
11693.5 0
11694.5 0
11695.5 0
11696.5 0
11697.5 0
11698.5 0
11699.5 0
11700.5 0
11701.5 0
11702.5 0
11703.5 0
11704.5 0
11705.5 0
11706.5 0
11707.5 0
11708.5 0
11709.5 0
11710.5 0
11711.5 0
11712.5 0
11713.5 0
11714.5 0
11715.5 0
11716.5 0
11717.5 0
11718.5 0
11719.5 0
11720.5 0
11721.5 0
11722.5 0
11723.5 0
11724.5 0
11725.5 0
11726.5 0
11727.5 0
11728.5 0
11729.5 0
11730.5 0
11731.5 0
11732.5 0
11733.5 0
11734.5 0
11735.5 0
11736.5 0
11737.5 0
11738.5 0
11739.5 0
11740.5 0
11741.5 0
11742.5 0
11743.5 0
11744.5 0
11745.5 0
11746.5 0
11747.5 0
11748.5 0
11749.5 0
11750.5 0
11751.5 0
11752.5 0
11753.5 0
11754.5 0
11755.5 0
11756.5 0
11757.5 0
11758.5 0
11759.5 0
11760.5 0
11761.5 0
11762.5 0
11763.5 0
11764.5 0
11765.5 0
11766.5 0
11767.5 0
11768.5 0
11769.5 0
11770.5 0
11771.5 0
11772.5 0
11773.5 0
11774.5 0
11775.5 0
11776.5 0
11777.5 0
11778.5 0
11779.5 0
11780.5 0
11781.5 0
11782.5 0
11783.5 0
11784.5 0
11785.5 0
11786.5 0
11787.5 0
11788.5 0
11789.5 0
11790.5 0
11791.5 0
11792.5 0
11793.5 0
11794.5 0
11795.5 0
11796.5 0
11797.5 0
11798.5 0
11799.5 0
11800.5 0
11801.5 0
11802.5 0
11803.5 0
11804.5 0
11805.5 0
11806.5 0
11807.5 0
11808.5 0
11809.5 0
11810.5 0
11811.5 0
11812.5 0
11813.5 0
11814.5 0
11815.5 0
11816.5 0
11817.5 0
11818.5 0
11819.5 0
11820.5 0
11821.5 0
11822.5 0
11823.5 0
11824.5 0
11825.5 0
11826.5 0
11827.5 0
11828.5 0
11829.5 0
11830.5 0
11831.5 0
11832.5 0
11833.5 0
11834.5 0
11835.5 0
11836.5 0
11837.5 0
11838.5 0
11839.5 0
11840.5 0
11841.5 0
11842.5 0
11843.5 0
11844.5 0
11845.5 0
11846.5 0
11847.5 0
11848.5 0
11849.5 0
11850.5 0
11851.5 0
11852.5 0
11853.5 0
11854.5 0
11855.5 0
11856.5 0
11857.5 0
11858.5 0
11859.5 0
11860.5 0
11861.5 0
11862.5 0
11863.5 0
11864.5 0
11865.5 0
11866.5 0
11867.5 0
11868.5 0
11869.5 0
11870.5 0
11871.5 0
11872.5 1
11873.5 0
11874.5 0
11875.5 0
11876.5 0
11877.5 0
11878.5 0
11879.5 0
11880.5 0
11881.5 0
11882.5 0
11883.5 0
11884.5 0
11885.5 0
11886.5 0
11887.5 0
11888.5 0
11889.5 0
11890.5 0
11891.5 0
11892.5 0
11893.5 0
11894.5 0
11895.5 0
11896.5 0
11897.5 0
11898.5 0
11899.5 0
11900.5 0
11901.5 0
11902.5 0
11903.5 0
11904.5 0
11905.5 0
11906.5 0
11907.5 0
11908.5 0
11909.5 0
11910.5 0
11911.5 0
11912.5 0
11913.5 0
11914.5 0
11915.5 0
11916.5 0
11917.5 0
11918.5 0
11919.5 0
11920.5 0
11921.5 0
11922.5 0
11923.5 0
11924.5 0
11925.5 0
11926.5 0
11927.5 0
11928.5 0
11929.5 0
11930.5 0
11931.5 0
11932.5 0
11933.5 0
11934.5 0
11935.5 0
11936.5 0
11937.5 0
11938.5 0
11939.5 0
11940.5 0
11941.5 0
11942.5 0
11943.5 0
11944.5 0
11945.5 0
11946.5 0
11947.5 0
11948.5 0
11949.5 0
11950.5 0
11951.5 0
11952.5 0
11953.5 0
11954.5 0
11955.5 0
11956.5 0
11957.5 0
11958.5 0
11959.5 0
11960.5 0
11961.5 0
11962.5 0
11963.5 0
11964.5 0
11965.5 0
11966.5 0
11967.5 0
11968.5 0
11969.5 0
11970.5 0
11971.5 0
11972.5 0
11973.5 0
11974.5 0
11975.5 0
11976.5 0
11977.5 0
11978.5 0
11979.5 0
11980.5 0
11981.5 0
11982.5 0
11983.5 0
11984.5 0
11985.5 0
11986.5 0
11987.5 0
11988.5 0
11989.5 0
11990.5 0
11991.5 0
11992.5 0
11993.5 0
11994.5 0
11995.5 0
11996.5 0
11997.5 0
11998.5 0
11999.5 0
