# EGG_ProjY_E876.5(2.5)_B860.5(2.5)_B882.5(1.5)_B890.5(1.5)
# X axis : Energy (keV) [Y axis]
# Y axis : Counts/1 keV
# N Bins : 12000
# X Min : 0
# X Max : 12000
# X value at the center of the bins
0.5 0
1.5 0
2.5 0
3.5 0
4.5 0
5.5 62.7273
6.5 54.6364
7.5 80.3636
8.5 94.0909
9.5 63.8182
10.5 29.2727
11.5 36.5454
12.5 70.8182
13.5 131.455
14.5 117.545
15.5 211.545
16.5 209.545
17.5 260.273
18.5 314.091
19.5 429.727
20.5 481.364
21.5 658.182
22.5 678.818
23.5 896.273
24.5 1119.73
25.5 892.727
26.5 1314.36
27.5 1551.91
28.5 1347.36
29.5 1733.45
30.5 1738.64
31.5 1996
32.5 2299.82
33.5 2256
34.5 2079.64
35.5 2243.09
36.5 2343.45
37.5 2321.91
38.5 2557.64
39.5 2541.36
40.5 2689.18
41.5 2795.09
42.5 3257.82
43.5 3393.73
44.5 3095.18
45.5 2887.45
46.5 2820.73
47.5 2874.36
48.5 2918.27
49.5 3013
50.5 2764
51.5 2356.18
52.5 2918.82
53.5 2720.36
54.5 2979.36
55.5 2759.64
56.5 3073.55
57.5 3316.09
58.5 4106.54
59.5 4541.36
60.5 3412.54
61.5 3329.27
62.5 3045.82
63.5 3021.09
64.5 3035
65.5 2678.09
66.5 3137.27
67.5 3596.91
68.5 3834.27
69.5 3239.18
70.5 3486.45
71.5 3139
72.5 2996.91
73.5 3761.82
74.5 5439.45
75.5 6218.54
76.5 6599.82
77.5 7045.18
78.5 4802.54
79.5 3410.91
80.5 3359.54
81.5 3041.82
82.5 3000.55
83.5 3158.18
84.5 3288.73
85.5 3589.27
86.5 4268.54
87.5 4960.91
88.5 4349.36
89.5 3971
90.5 3414.73
91.5 3397.55
92.5 3108.18
93.5 3091.36
94.5 2557.82
95.5 2984
96.5 3115.73
97.5 3205.64
98.5 3279.18
99.5 3115.64
100.5 3175.91
101.5 3193.18
102.5 3205.73
103.5 3510.64
104.5 3341.45
105.5 3250.45
106.5 3527.64
107.5 3528.73
108.5 3345.45
109.5 3266.27
110.5 3323.54
111.5 3207.54
112.5 3281.54
113.5 3574.45
114.5 3555.18
115.5 3738
116.5 3405.09
117.5 3337
118.5 3206.73
119.5 3346.73
120.5 3498.54
121.5 4016.54
122.5 4468
123.5 4834.64
124.5 5119.91
125.5 4847.45
126.5 4816.09
127.5 4460.18
128.5 4346.82
129.5 4324.73
130.5 4213.36
131.5 3524.82
132.5 3525.82
133.5 3831.45
134.5 4004.64
135.5 4279.54
136.5 4171.54
137.5 4126.73
138.5 4271.91
139.5 3495.64
140.5 3489.73
141.5 3048.36
142.5 2942
143.5 3772.27
144.5 4314.64
145.5 4824.73
146.5 4640.91
147.5 4697.36
148.5 4328.73
149.5 4572.64
150.5 4175.36
151.5 3780.36
152.5 3944.54
153.5 3712
154.5 3394.27
155.5 3694.36
156.5 3878.09
157.5 3993.18
158.5 4117.91
159.5 4144
160.5 3311.82
161.5 3764
162.5 3893.54
163.5 3501.09
164.5 3711
165.5 3610.18
166.5 3697.36
167.5 3697.73
168.5 4053.64
169.5 3987.36
170.5 4343.36
171.5 4279.73
172.5 4440.73
173.5 4587.54
174.5 4294.82
175.5 4474.18
176.5 4272.54
177.5 4710.18
178.5 4824
179.5 4542.18
180.5 4270
181.5 5086.18
182.5 4559.45
183.5 2989.09
184.5 2694.64
185.5 3278
186.5 4016.36
187.5 4022.27
188.5 3611.09
189.5 3007.09
190.5 2561.73
191.5 2137.27
192.5 3125.91
193.5 4895.27
194.5 7137.82
195.5 9002.82
196.5 10346.5
197.5 10686.5
198.5 10987.5
199.5 9689.91
200.5 7181.36
201.5 5406.64
202.5 4722.64
203.5 4474.64
204.5 4242.27
205.5 3760.36
206.5 4232.36
207.5 4066.64
208.5 4362.09
209.5 3605.09
210.5 2499.54
211.5 874.363
212.5 -29.4552
213.5 -363.728
214.5 278.454
215.5 2053.91
216.5 3424.09
217.5 4688.18
218.5 5098.82
219.5 5560.54
220.5 5735.91
221.5 5481.36
222.5 5481.73
223.5 5259.45
224.5 5132.64
225.5 5006.36
226.5 4925.27
227.5 5493
228.5 4766.73
229.5 4766
230.5 4275.09
231.5 3521.27
232.5 1564.64
233.5 -2185.27
234.5 -6442.46
235.5 -7118.91
236.5 -4391.09
237.5 -124.364
238.5 2793.82
239.5 2792.36
240.5 1850.64
241.5 -1726.18
242.5 -5227.55
243.5 -5479.09
244.5 -762.364
245.5 7870.82
246.5 19515.5
247.5 30055.3
248.5 35915.8
249.5 36923.4
250.5 32620.3
251.5 23558.5
252.5 14239.5
253.5 7864.45
254.5 4792.64
255.5 4218.27
256.5 3908.82
257.5 3470.55
258.5 3562.45
259.5 3190.45
260.5 2357.27
261.5 -261.182
262.5 -5947.36
263.5 -14586.7
264.5 -23776.5
265.5 -30017.1
266.5 -28260.3
267.5 -18769.5
268.5 -7453.09
269.5 -871.182
270.5 896.545
271.5 -2507.09
272.5 -9126.46
273.5 -14778.7
274.5 -13826.3
275.5 -4073.09
276.5 12718.2
277.5 33566.1
278.5 50846.8
279.5 60920.3
280.5 60971.1
281.5 52510.2
282.5 35589.1
283.5 19654.3
284.5 9370.73
285.5 5363.36
286.5 4161.55
287.5 4145.82
288.5 3428.45
289.5 3288.36
290.5 2734.82
291.5 666.272
292.5 -4016.18
293.5 -11536.8
294.5 -18616.8
295.5 -22544.3
296.5 -22209.3
297.5 -18611.5
298.5 -11064.2
299.5 -3894.09
300.5 810.545
301.5 2545.91
302.5 2994
303.5 3396.27
304.5 3517.55
305.5 3857.64
306.5 3776.27
307.5 4077.82
308.5 4043.82
309.5 3822.64
310.5 4017.55
311.5 3483.82
312.5 3614.45
313.5 3337.27
314.5 3583
315.5 3465.45
316.5 3465.91
317.5 3500.18
318.5 3229
319.5 3551.27
320.5 3280.73
321.5 3071.09
322.5 3175.73
323.5 3267
324.5 3118.73
325.5 3460.64
326.5 3487.91
327.5 3413
328.5 3663.36
329.5 3541.45
330.5 3895
331.5 3678
332.5 3289.82
333.5 3038
334.5 3336.55
335.5 3476.27
336.5 3229.55
337.5 3317.18
338.5 3388.18
339.5 3144.18
340.5 2924.64
341.5 3372.73
342.5 3070.36
343.5 3215.45
344.5 3237.73
345.5 3251.55
346.5 3090.91
347.5 3081.73
348.5 3194.82
349.5 3336.09
350.5 3317
351.5 3423.18
352.5 3147.27
353.5 3345.73
354.5 2966.27
355.5 3003.09
356.5 2985.82
357.5 3165.91
358.5 3080.73
359.5 2848.82
360.5 3180.55
361.5 2875.73
362.5 3002.73
363.5 2870.45
364.5 2752.73
365.5 3188.55
366.5 3672.91
367.5 5394
368.5 7269.73
369.5 4717.18
370.5 3248.09
371.5 2847.45
372.5 3121.27
373.5 3064.36
374.5 3140.09
375.5 2808.45
376.5 2756.45
377.5 2589.91
378.5 2756.82
379.5 2681.73
380.5 2913.18
381.5 3198.73
382.5 2996.45
383.5 3252.36
384.5 3583.18
385.5 3272
386.5 3104
387.5 3119.55
388.5 3234.82
389.5 3006.91
390.5 2974.64
391.5 2887.82
392.5 2697.91
393.5 2781
394.5 2809.73
395.5 2723.18
396.5 2755.73
397.5 2507.73
398.5 2607.18
399.5 2474.91
400.5 2653.55
401.5 2486.64
402.5 2296.09
403.5 2706.45
404.5 3077.36
405.5 2999.27
406.5 3018.82
407.5 2759
408.5 2571.55
409.5 2749.73
410.5 2664.55
411.5 2556.36
412.5 2665.45
413.5 2706.45
414.5 2925.09
415.5 3026.73
416.5 2965
417.5 2953.91
418.5 2669
419.5 2768.09
420.5 2831.18
421.5 2879.27
422.5 2693.82
423.5 2698.27
424.5 2693.36
425.5 2625.27
426.5 2458.82
427.5 2723.82
428.5 2843.09
429.5 2702.36
430.5 2466.73
431.5 2767.73
432.5 2824.18
433.5 2752.27
434.5 2541.55
435.5 2803.91
436.5 2477.55
437.5 2731.91
438.5 2432.36
439.5 2574.64
440.5 2681.73
441.5 2579.82
442.5 2728.27
443.5 2779.36
444.5 2707.45
445.5 2778.82
446.5 2448.36
447.5 2499.55
448.5 2441.18
449.5 2550.27
450.5 2519.36
451.5 2617.91
452.5 2642.73
453.5 2693.91
454.5 2378.45
455.5 2685.73
456.5 2601
457.5 2446.55
458.5 2544
459.5 2300.91
460.5 2835.45
461.5 2812.73
462.5 2428.27
463.5 2624.09
464.5 2467
465.5 2739.73
466.5 2213.91
467.5 2665.36
468.5 2506.27
469.5 2625.18
470.5 2665.09
471.5 2641.64
472.5 3134.82
473.5 3800.27
474.5 3912.64
475.5 3313.91
476.5 3083.45
477.5 2839.64
478.5 2820.73
479.5 2813.36
480.5 2771.55
481.5 2842.18
482.5 2660.82
483.5 2635.45
484.5 2458.55
485.5 2697.64
486.5 2388.27
487.5 2544.36
488.5 2551.55
489.5 2291.64
490.5 2364.73
491.5 2410.55
492.5 2633.64
493.5 2506.27
494.5 2493.82
495.5 2558.18
496.5 2671
497.5 2713.36
498.5 2809.91
499.5 2897.73
500.5 3045
501.5 2821.27
502.5 2629.64
503.5 2666.55
504.5 2521.18
505.5 2658.82
506.5 3399.27
507.5 4433.45
508.5 7530.09
509.5 11954.2
510.5 17047.5
511.5 16373
512.5 10857.7
513.5 5973.09
514.5 3678.45
515.5 2737.18
516.5 2499.36
517.5 2402.36
518.5 2262
519.5 2320.27
520.5 2348
521.5 2427.18
522.5 2364.09
523.5 2298.64
524.5 2288.27
525.5 2152.73
526.5 2511.73
527.5 2310.18
528.5 2237.55
529.5 2214.82
530.5 2324.55
531.5 2426.55
532.5 2405.27
533.5 2386.91
534.5 2401.45
535.5 2381.91
536.5 2315.27
537.5 2287.27
538.5 2371.18
539.5 2351.64
540.5 2564.55
541.5 2400.73
542.5 2477.91
543.5 2309.18
544.5 2514.45
545.5 2304.18
546.5 2411.64
547.5 2589.18
548.5 2489.91
549.5 2684.55
550.5 2690
551.5 2929.82
552.5 2906.73
553.5 2683.27
554.5 2599.45
555.5 2825.45
556.5 2538.45
557.5 2586.55
558.5 2737.64
559.5 2827
560.5 2882.91
561.5 2851.91
562.5 2774.64
563.5 2526.64
564.5 2551.36
565.5 2363.27
566.5 2551
567.5 2506.73
568.5 2412.55
569.5 2317.91
570.5 2483.27
571.5 2391.18
572.5 2511.45
573.5 2566.91
574.5 2534.18
575.5 2395.45
576.5 2192.73
577.5 2350.45
578.5 2044.73
579.5 2084.55
580.5 2248.18
581.5 2186.91
582.5 2253.91
583.5 2357.73
584.5 2347.18
585.5 2251.91
586.5 2174.18
587.5 2157.73
588.5 2287.55
589.5 2093.73
590.5 2046.55
591.5 1920
592.5 2026.64
593.5 2144
594.5 2449.27
595.5 2257.36
596.5 2256.18
597.5 1787.36
598.5 2067.73
599.5 2063.36
600.5 2080.18
601.5 1759.91
602.5 2028.91
603.5 2050.91
604.5 1945.18
605.5 1884.91
606.5 2010
607.5 1956.18
608.5 2051.55
609.5 1806.18
610.5 1855.27
611.5 1941.27
612.5 1994.45
613.5 2115
614.5 1957.91
615.5 1878
616.5 1845
617.5 1885
618.5 2104.09
619.5 2348.36
620.5 2484.45
621.5 2644.09
622.5 2528.91
623.5 2608
624.5 2524
625.5 2299.36
626.5 2007.09
627.5 2005.64
628.5 2119.09
629.5 2037
630.5 1944.64
631.5 2123.45
632.5 1990.55
633.5 1979.55
634.5 1883.36
635.5 1698
636.5 1668
637.5 1491.45
638.5 1624.55
639.5 1580.09
640.5 1873.82
641.5 2250.27
642.5 2244.82
643.5 1846.73
644.5 2118.09
645.5 1820.82
646.5 1954.09
647.5 1734.82
648.5 1923.18
649.5 1817.45
650.5 1873.55
651.5 2006.09
652.5 2019.91
653.5 1690
654.5 1720.18
655.5 1893.64
656.5 1951.18
657.5 1770.36
658.5 1823
659.5 1822.36
660.5 1983.36
661.5 1905.55
662.5 1946.64
663.5 1925.27
664.5 1921.09
665.5 1934.91
666.5 1929.18
667.5 1905.73
668.5 1830.82
669.5 1912.45
670.5 1788
671.5 2031
672.5 1768
673.5 1686.18
674.5 1812.27
675.5 1885.18
676.5 1706
677.5 1802.64
678.5 1844.45
679.5 1840.18
680.5 1749
681.5 1690.82
682.5 1703.36
683.5 1601.09
684.5 1835.09
685.5 1709
686.5 1678.27
687.5 1828.09
688.5 1779.82
689.5 1816.36
690.5 1925.91
691.5 1858.82
692.5 1983.64
693.5 1818.91
694.5 2034.64
695.5 1810.64
696.5 1884
697.5 1843
698.5 1864
699.5 1736.09
700.5 1914.18
701.5 1897.73
702.5 1614.18
703.5 1729.82
704.5 1719.09
705.5 1784.27
706.5 1668.91
707.5 1689.09
708.5 1787
709.5 1807.45
710.5 1819.09
711.5 1786.36
712.5 1878.73
713.5 1568
714.5 1904.64
715.5 1875.64
716.5 1750.09
717.5 1748.36
718.5 1731.27
719.5 1848
720.5 1728.27
721.5 1815
722.5 1810.45
723.5 1927.09
724.5 1818.27
725.5 1612.91
726.5 1819.36
727.5 1636.36
728.5 1745.64
729.5 1655.82
730.5 1779.18
731.5 1791.82
732.5 1916.36
733.5 1899.91
734.5 1789.82
735.5 1795.82
736.5 1683.27
737.5 1854.82
738.5 1719.55
739.5 1724.73
740.5 1665.64
741.5 1482.36
742.5 1561.73
743.5 1590.45
744.5 1701.18
745.5 1771.36
746.5 1820.09
747.5 2111.45
748.5 1849.45
749.5 1740.45
750.5 1720.45
751.5 1833.27
752.5 2062.64
753.5 2102.73
754.5 2305.82
755.5 2318.27
756.5 2568.09
757.5 2702.73
758.5 5616.09
759.5 23869.7
760.5 66330.9
761.5 73631.1
762.5 31479.1
763.5 8290.91
764.5 2880.18
765.5 1907.18
766.5 1740.82
767.5 1575.55
768.5 1701.55
769.5 1520.73
770.5 1438.45
771.5 1479.27
772.5 1342.36
773.5 1412.55
774.5 1535.45
775.5 1452.64
776.5 1375
777.5 1427.91
778.5 1542.27
779.5 1471
780.5 1654.18
781.5 1561.36
782.5 1543.18
783.5 1431.45
784.5 1695.18
785.5 1447.55
786.5 1600.27
787.5 1430.64
788.5 1555.45
789.5 1494.18
790.5 1555.09
791.5 1638.18
792.5 1798.64
793.5 1583
794.5 1479.36
795.5 1706.36
796.5 1472.82
797.5 1722
798.5 1505.36
799.5 1747.55
800.5 1672.27
801.5 1644.36
802.5 1504.64
803.5 1729.36
804.5 1635.45
805.5 1669.45
806.5 1808.45
807.5 1747.73
808.5 1607.18
809.5 1569.73
810.5 1678.18
811.5 1694
812.5 1790.09
813.5 1597.91
814.5 1685
815.5 1892.64
816.5 1698.73
817.5 1728
818.5 1572.64
819.5 1899.73
820.5 1754.45
821.5 1718.64
822.5 1876.73
823.5 1722.27
824.5 1599.09
825.5 1670.64
826.5 1614.55
827.5 1741.18
828.5 1713.91
829.5 1826.18
830.5 1705.91
831.5 1667.36
832.5 1654.27
833.5 1710.18
834.5 1616.82
835.5 1636.55
836.5 1562.73
837.5 1659.18
838.5 1600.36
839.5 1683.73
840.5 1767.45
841.5 1759.18
842.5 1832.09
843.5 1867.45
844.5 1775.27
845.5 2056.27
846.5 1912
847.5 2040.55
848.5 1985.36
849.5 1798.45
850.5 1842.82
851.5 1878.64
852.5 1821.27
853.5 1951.91
854.5 1888.73
855.5 1815.36
856.5 1940.91
857.5 1923.64
858.5 1845.18
859.5 1767.82
860.5 1721.91
861.5 1715.45
862.5 1695.73
863.5 1990.27
864.5 2228.73
865.5 1985.45
866.5 1857.91
867.5 1969.09
868.5 1736.55
869.5 1809.82
870.5 2038
871.5 1843.36
872.5 1933.45
873.5 1853.73
874.5 1812.55
875.5 1851.82
876.5 1847.27
877.5 1804.09
878.5 1771.45
879.5 1932.55
880.5 1912.36
881.5 1877.27
882.5 2033.64
883.5 1867.18
884.5 1870.64
885.5 2001.55
886.5 1985.73
887.5 2116.09
888.5 1880.73
889.5 1990.09
890.5 2013.45
891.5 2090.18
892.5 2211.73
893.5 2235.64
894.5 2053.64
895.5 2402.27
896.5 3245.09
897.5 3690.82
898.5 3340.09
899.5 2710.73
900.5 2442.55
901.5 2630.36
902.5 2488.73
903.5 2555.27
904.5 2382.09
905.5 2312.73
906.5 2241.82
907.5 2438.73
908.5 2032.64
909.5 2479.82
910.5 2308.09
911.5 2580.36
912.5 2249.36
913.5 2376.64
914.5 2126.91
915.5 2206.82
916.5 2071.45
917.5 2247.64
918.5 1941.09
919.5 2148.45
920.5 2024.73
921.5 2307.36
922.5 2368.18
923.5 2144.73
924.5 2364.64
925.5 2292.45
926.5 2230.64
927.5 2248.82
928.5 2403
929.5 2424.91
930.5 2316.36
931.5 2466.27
932.5 2386.64
933.5 2439.82
934.5 2327.82
935.5 2494.18
936.5 2436
937.5 2314.82
938.5 2382.36
939.5 2404
940.5 2357.09
941.5 2310.82
942.5 2420.91
943.5 2347.55
944.5 2586.91
945.5 2156.45
946.5 2243.09
947.5 2107.36
948.5 2208.45
949.5 2193.73
950.5 1818
951.5 1923.55
952.5 1919
953.5 1883.27
954.5 1881.73
955.5 1835.27
956.5 1749.91
957.5 1821.73
958.5 1814.36
959.5 1633.18
960.5 1513.91
961.5 1627.36
962.5 1807.45
963.5 1581.64
964.5 1702.36
965.5 1722.27
966.5 1615.09
967.5 1621
968.5 1641.73
969.5 1726
970.5 1488.18
971.5 1634.55
972.5 1593.27
973.5 1662.91
974.5 1746.18
975.5 1689.45
976.5 1825.91
977.5 1984.64
978.5 1639.64
979.5 1522.45
980.5 1428.82
981.5 1578.18
982.5 1374.55
983.5 1661.55
984.5 1477.27
985.5 1437.18
986.5 1676.18
987.5 1520.09
988.5 1456.18
989.5 1409.91
990.5 1589.82
991.5 1618.73
992.5 1573.09
993.5 1564.27
994.5 1605
995.5 1538.18
996.5 1718.18
997.5 1449.09
998.5 1540.91
999.5 1356.36
1000.5 1379.91
1001.5 1160.36
1002.5 1136.45
1003.5 1305.73
1004.5 1284.73
1005.5 1293
1006.5 1399.09
1007.5 1555.73
1008.5 1667.45
1009.5 1590.45
1010.5 1646.91
1011.5 1599.82
1012.5 1299.91
1013.5 1331.91
1014.5 1387.82
1015.5 1118.18
1016.5 1377.09
1017.5 1408.27
1018.5 1524
1019.5 2069.45
1020.5 1845.18
1021.5 1462.36
1022.5 1336.91
1023.5 1409.91
1024.5 1661.55
1025.5 1372.45
1026.5 1158.27
1027.5 1239.18
1028.5 1101.18
1029.5 1122.64
1030.5 1217.36
1031.5 1077.36
1032.5 1252
1033.5 1207.91
1034.5 1032.64
1035.5 1072.73
1036.5 1214.18
1037.5 1234.64
1038.5 1150.27
1039.5 1219.82
1040.5 1247.64
1041.5 1049.36
1042.5 1133.82
1043.5 1087.18
1044.5 1019.36
1045.5 1077.36
1046.5 1026.91
1047.5 1109.91
1048.5 960.636
1049.5 906.545
1050.5 1008.82
1051.5 955.909
1052.5 1007.18
1053.5 1111.18
1054.5 1203.36
1055.5 1401.36
1056.5 1397.18
1057.5 1143.82
1058.5 1070.27
1059.5 965.636
1060.5 949.636
1061.5 962.909
1062.5 1031
1063.5 1104.55
1064.5 1101.36
1065.5 1195.91
1066.5 1154.27
1067.5 1025.18
1068.5 1018.18
1069.5 1060.73
1070.5 812.636
1071.5 914.091
1072.5 942.181
1073.5 1118.36
1074.5 451.181
1075.5 817.999
1076.5 827.909
1077.5 1107
1078.5 989.545
1079.5 869.818
1080.5 884.636
1081.5 1002
1082.5 1201.09
1083.5 1137.73
1084.5 1059.45
1085.5 913.636
1086.5 1023.55
1087.5 850.818
1088.5 929.273
1089.5 881.454
1090.5 943.454
1091.5 838.091
1092.5 946.545
1093.5 844.091
1094.5 874.273
1095.5 897.818
1096.5 798.091
1097.5 821.545
1098.5 810
1099.5 826.454
1100.5 985.091
1101.5 1018.64
1102.5 914.636
1103.5 850.182
1104.5 918.364
1105.5 928.091
1106.5 872.091
1107.5 980.909
1108.5 881.454
1109.5 808.273
1110.5 902.182
1111.5 909.545
1112.5 851.273
1113.5 1034.27
1114.5 952.454
1115.5 962.545
1116.5 1002.82
1117.5 1055.09
1118.5 980.364
1119.5 1116.09
1120.5 1176.91
1121.5 1280.91
1122.5 1888.73
1123.5 5858.64
1124.5 20152.8
1125.5 46787
1126.5 52023.1
1127.5 24463.7
1128.5 5838.91
1129.5 1700.91
1130.5 1037.45
1131.5 835.818
1132.5 866.727
1133.5 800.182
1134.5 808.182
1135.5 835.091
1136.5 666.545
1137.5 768.273
1138.5 850.454
1139.5 805.091
1140.5 754.636
1141.5 879.182
1142.5 701.818
1143.5 781.182
1144.5 722.182
1145.5 854.182
1146.5 893.091
1147.5 832.909
1148.5 849.636
1149.5 1025.64
1150.5 950.545
1151.5 939.909
1152.5 1349.45
1153.5 3581.27
1154.5 13899
1155.5 48458.8
1156.5 104981
1157.5 104665
1158.5 43688.5
1159.5 9321.55
1160.5 2223.18
1161.5 986.182
1162.5 545.545
1163.5 593.182
1164.5 570.636
1165.5 619.091
1166.5 598.545
1167.5 551.364
1168.5 548.364
1169.5 547.454
1170.5 683
1171.5 1132.45
1172.5 2494.45
1173.5 5203.91
1174.5 5126.18
1175.5 2392.91
1176.5 903.545
1177.5 556.727
1178.5 489.727
1179.5 536.091
1180.5 600.727
1181.5 592.182
1182.5 480
1183.5 476.364
1184.5 466.454
1185.5 480
1186.5 533.636
1187.5 439.818
1188.5 474.636
1189.5 481.818
1190.5 558.182
1191.5 404.364
1192.5 499.818
1193.5 471
1194.5 445
1195.5 455.909
1196.5 556.545
1197.5 541.091
1198.5 476.454
1199.5 565.545
1200.5 571.273
1201.5 492.818
1202.5 458.454
1203.5 527.454
1204.5 455.182
1205.5 432.364
1206.5 481.182
1207.5 472.727
1208.5 451.364
1209.5 552.364
1210.5 509.454
1211.5 524.636
1212.5 488.727
1213.5 651.818
1214.5 581.727
1215.5 656.818
1216.5 585.636
1217.5 448.636
1218.5 503.636
1219.5 440.909
1220.5 474.545
1221.5 821.909
1222.5 846.273
1223.5 891.636
1224.5 690.636
1225.5 601
1226.5 391.364
1227.5 446.454
1228.5 514.364
1229.5 439.182
1230.5 502.545
1231.5 460
1232.5 519.545
1233.5 603
1234.5 622
1235.5 521.909
1236.5 471.545
1237.5 463.091
1238.5 520.454
1239.5 476
1240.5 507.818
1241.5 596.909
1242.5 518.727
1243.5 432.818
1244.5 507.182
1245.5 452.636
1246.5 481.364
1247.5 550
1248.5 528.364
1249.5 459.909
1250.5 459.909
1251.5 421.909
1252.5 462.091
1253.5 449.182
1254.5 489.364
1255.5 497.273
1256.5 473.909
1257.5 419.545
1258.5 402.182
1259.5 352.454
1260.5 529.818
1261.5 394.091
1262.5 429
1263.5 478.545
1264.5 514.545
1265.5 517.636
1266.5 493.273
1267.5 584.909
1268.5 565.454
1269.5 661.273
1270.5 581.091
1271.5 692.545
1272.5 710.364
1273.5 739.545
1274.5 715.182
1275.5 702.818
1276.5 558.364
1277.5 525.545
1278.5 561.636
1279.5 426.818
1280.5 451.909
1281.5 462.454
1282.5 446.909
1283.5 478.454
1284.5 433.818
1285.5 567.545
1286.5 568.818
1287.5 482.727
1288.5 407.091
1289.5 438.091
1290.5 449.636
1291.5 398.909
1292.5 500.454
1293.5 487.545
1294.5 438.909
1295.5 526.364
1296.5 520.455
1297.5 572.545
1298.5 458.455
1299.5 504.545
1300.5 430.818
1301.5 448.273
1302.5 509.091
1303.5 506.909
1304.5 510.545
1305.5 656.364
1306.5 888
1307.5 933.182
1308.5 858.091
1309.5 627.818
1310.5 532
1311.5 460.182
1312.5 474.545
1313.5 558.727
1314.5 483.454
1315.5 478.636
1316.5 543.454
1317.5 537.091
1318.5 483.727
1319.5 404.182
1320.5 477.455
1321.5 511.182
1322.5 572.727
1323.5 552.091
1324.5 579.636
1325.5 485.818
1326.5 507.818
1327.5 416.455
1328.5 434.364
1329.5 335.454
1330.5 206
1331.5 143.182
1332.5 123.182
1333.5 99.6363
1334.5 226.364
1335.5 415
1336.5 385.091
1337.5 289.454
1338.5 146.091
1339.5 104.818
1340.5 67.7272
1341.5 279.727
1342.5 773
1343.5 1258.27
1344.5 1419.18
1345.5 1636.82
1346.5 1701.64
1347.5 1410.27
1348.5 1252.73
1349.5 911.454
1350.5 643.091
1351.5 583.273
1352.5 531.364
1353.5 457.454
1354.5 603.545
1355.5 497.091
1356.5 385
1357.5 431.182
1358.5 321.364
1359.5 179.091
1360.5 13.9999
1361.5 -75.6364
1362.5 -81.1819
1363.5 230.182
1364.5 892.182
1365.5 2011.45
1366.5 2266.36
1367.5 1317.18
1368.5 692.636
1369.5 575.727
1370.5 530.273
1371.5 558.091
1372.5 556.091
1373.5 655.364
1374.5 775.545
1375.5 1025.64
1376.5 870.909
1377.5 778
1378.5 590.455
1379.5 513.909
1380.5 559.273
1381.5 616.545
1382.5 681.182
1383.5 590.727
1384.5 545.182
1385.5 454.455
1386.5 449.818
1387.5 405.909
1388.5 511.454
1389.5 548.727
1390.5 544.273
1391.5 499.273
1392.5 483.091
1393.5 481.364
1394.5 433.182
1395.5 370.545
1396.5 461.636
1397.5 499.818
1398.5 489.091
1399.5 463
1400.5 445.182
1401.5 446.818
1402.5 517.818
1403.5 499.455
1404.5 485.545
1405.5 460.636
1406.5 576.545
1407.5 486.273
1408.5 469.091
1409.5 499.182
1410.5 553
1411.5 516.273
1412.5 505.545
1413.5 454.182
1414.5 439.454
1415.5 442
1416.5 546.091
1417.5 682.545
1418.5 1026.91
1419.5 1065.64
1420.5 876.818
1421.5 555.182
1422.5 522.636
1423.5 423.364
1424.5 463.818
1425.5 475.636
1426.5 477.545
1427.5 579.545
1428.5 594.545
1429.5 537.363
1430.5 509.818
1431.5 504.364
1432.5 491.545
1433.5 463.818
1434.5 470.909
1435.5 327.455
1436.5 461.909
1437.5 528
1438.5 543.091
1439.5 478.909
1440.5 509.273
1441.5 485.364
1442.5 376.454
1443.5 448.909
1444.5 369.273
1445.5 409.545
1446.5 499.182
1447.5 477.091
1448.5 468.364
1449.5 338.909
1450.5 479.455
1451.5 533.636
1452.5 430
1453.5 506.818
1454.5 498.091
1455.5 518.727
1456.5 378.182
1457.5 465.909
1458.5 477.091
1459.5 523.364
1460.5 448.455
1461.5 532.364
1462.5 481.818
1463.5 539.455
1464.5 634.727
1465.5 760.727
1466.5 692.818
1467.5 543.273
1468.5 627.364
1469.5 643.818
1470.5 528
1471.5 710.909
1472.5 932.273
1473.5 866.182
1474.5 688.455
1475.5 552.636
1476.5 479.909
1477.5 486.091
1478.5 550.364
1479.5 387.727
1480.5 572.455
1481.5 456.364
1482.5 404.727
1483.5 484.727
1484.5 392.818
1485.5 472.727
1486.5 485.727
1487.5 638.636
1488.5 521.818
1489.5 562.727
1490.5 510.182
1491.5 480.273
1492.5 527.909
1493.5 521
1494.5 509.364
1495.5 463.364
1496.5 656.545
1497.5 728.727
1498.5 824.273
1499.5 1450.64
1500.5 1128.73
1501.5 464.182
1502.5 530.273
1503.5 474.364
1504.5 477.909
1505.5 543.091
1506.5 534.182
1507.5 543.636
1508.5 704.545
1509.5 1031.45
1510.5 1941.64
1511.5 2345.36
1512.5 1736.18
1513.5 867.818
1514.5 558
1515.5 593.182
1516.5 608.818
1517.5 534.182
1518.5 500.364
1519.5 526.273
1520.5 455.545
1521.5 487.545
1522.5 481.636
1523.5 590.091
1524.5 620.636
1525.5 522.091
1526.5 528.818
1527.5 543.455
1528.5 495.909
1529.5 444.818
1530.5 413.636
1531.5 579
1532.5 435
1533.5 487.455
1534.5 520.636
1535.5 478.909
1536.5 451.273
1537.5 438.727
1538.5 484.545
1539.5 388.909
1540.5 397.545
1541.5 622.636
1542.5 484.818
1543.5 484.273
1544.5 470.636
1545.5 493.455
1546.5 636.091
1547.5 524.273
1548.5 456.909
1549.5 576
1550.5 528.182
1551.5 583
1552.5 551.636
1553.5 489.818
1554.5 545.273
1555.5 617
1556.5 552.182
1557.5 537.818
1558.5 537.909
1559.5 597.091
1560.5 628.636
1561.5 504.273
1562.5 639.182
1563.5 474.818
1564.5 631.273
1565.5 521.727
1566.5 605.909
1567.5 494.364
1568.5 607
1569.5 487.545
1570.5 638.455
1571.5 679.364
1572.5 690.818
1573.5 559.818
1574.5 567.818
1575.5 538.818
1576.5 360.909
1577.5 494
1578.5 578.364
1579.5 534
1580.5 599.364
1581.5 585
1582.5 507.727
1583.5 629.545
1584.5 567.909
1585.5 586.273
1586.5 513.818
1587.5 603
1588.5 498.182
1589.5 492.454
1590.5 564.182
1591.5 578
1592.5 468.455
1593.5 543.273
1594.5 677.273
1595.5 689.818
1596.5 696.182
1597.5 598.909
1598.5 570.273
1599.5 563.909
1600.5 535.727
1601.5 536.727
1602.5 584.909
1603.5 550.455
1604.5 562.909
1605.5 520.909
1606.5 466.636
1607.5 598.909
1608.5 485
1609.5 550.091
1610.5 506.273
1611.5 605.636
1612.5 598.545
1613.5 627.455
1614.5 519.545
1615.5 454.545
1616.5 619.273
1617.5 625.091
1618.5 591.273
1619.5 712.545
1620.5 633.364
1621.5 667.454
1622.5 686.364
1623.5 685.182
1624.5 631.727
1625.5 625.273
1626.5 678.727
1627.5 594.182
1628.5 593.545
1629.5 638.364
1630.5 659.545
1631.5 680.273
1632.5 637.454
1633.5 829.273
1634.5 833.727
1635.5 649
1636.5 651.545
1637.5 746
1638.5 670.273
1639.5 661.273
1640.5 724.727
1641.5 875.818
1642.5 647.636
1643.5 707.182
1644.5 774.727
1645.5 732.454
1646.5 492.545
1647.5 514.182
1648.5 824.363
1649.5 1143.18
1650.5 1387.64
1651.5 1109.73
1652.5 842.909
1653.5 545.091
1654.5 634.545
1655.5 726.636
1656.5 685.545
1657.5 731.182
1658.5 721.636
1659.5 615.545
1660.5 647.455
1661.5 683.091
1662.5 577.636
1663.5 549.636
1664.5 665.182
1665.5 573.636
1666.5 630.818
1667.5 561.818
1668.5 514.273
1669.5 519.182
1670.5 524.727
1671.5 668.455
1672.5 634.364
1673.5 572.727
1674.5 538.091
1675.5 531
1676.5 561.909
1677.5 524.545
1678.5 511.273
1679.5 529.455
1680.5 510.182
1681.5 498.909
1682.5 470.364
1683.5 545.182
1684.5 505.182
1685.5 583
1686.5 504.364
1687.5 518.364
1688.5 565.273
1689.5 569.545
1690.5 516.091
1691.5 484.545
1692.5 572.455
1693.5 457.455
1694.5 378.364
1695.5 467
1696.5 648.818
1697.5 823.818
1698.5 791
1699.5 762.727
1700.5 618.364
1701.5 540.364
1702.5 550.273
1703.5 519.273
1704.5 502.818
1705.5 454.364
1706.5 568.455
1707.5 402.273
1708.5 379.545
1709.5 502.364
1710.5 475
1711.5 537.818
1712.5 466.636
1713.5 478.364
1714.5 582.818
1715.5 510.545
1716.5 556.818
1717.5 540.273
1718.5 472.091
1719.5 492.182
1720.5 540.091
1721.5 487.455
1722.5 564.909
1723.5 507.909
1724.5 549.273
1725.5 603.364
1726.5 558.727
1727.5 541.364
1728.5 445.364
1729.5 494.545
1730.5 471
1731.5 444.455
1732.5 484.364
1733.5 435.818
1734.5 560
1735.5 509.455
1736.5 491
1737.5 560.545
1738.5 490.091
1739.5 515.636
1740.5 455.727
1741.5 554.091
1742.5 557.182
1743.5 511.091
1744.5 478.182
1745.5 445.364
1746.5 358.182
1747.5 491.909
1748.5 453.273
1749.5 436.364
1750.5 360.455
1751.5 442.909
1752.5 458.455
1753.5 386.818
1754.5 378.182
1755.5 352.455
1756.5 307.273
1757.5 372.545
1758.5 445.364
1759.5 369
1760.5 377.182
1761.5 378.727
1762.5 370
1763.5 433.455
1764.5 473.636
1765.5 398.273
1766.5 379.727
1767.5 450.636
1768.5 394.636
1769.5 376.818
1770.5 410.091
1771.5 294.727
1772.5 366.091
1773.5 313.091
1774.5 417.091
1775.5 391.818
1776.5 359.727
1777.5 377.364
1778.5 424.364
1779.5 359.364
1780.5 376.727
1781.5 519.636
1782.5 480.364
1783.5 402.636
1784.5 387
1785.5 310.182
1786.5 366.727
1787.5 396.545
1788.5 365.545
1789.5 357.909
1790.5 325.818
1791.5 400.818
1792.5 346.727
1793.5 439.091
1794.5 465
1795.5 424.636
1796.5 368.545
1797.5 340
1798.5 323.727
1799.5 334.091
1800.5 326.182
1801.5 397.182
1802.5 394.455
1803.5 378.636
1804.5 413.909
1805.5 409.909
1806.5 330.364
1807.5 568.727
1808.5 797.818
1809.5 1394
1810.5 1740.27
1811.5 1219.27
1812.5 476.273
1813.5 425.273
1814.5 434.182
1815.5 389.545
1816.5 367
1817.5 390.636
1818.5 436.727
1819.5 316.364
1820.5 336.545
1821.5 318.091
1822.5 236.455
1823.5 432.636
1824.5 297.091
1825.5 385.909
1826.5 373.909
1827.5 391.818
1828.5 392.455
1829.5 282.818
1830.5 352
1831.5 345.636
1832.5 275.636
1833.5 373.273
1834.5 388.364
1835.5 333.273
1836.5 347.364
1837.5 363.273
1838.5 320.182
1839.5 423.273
1840.5 325
1841.5 312.364
1842.5 386.727
1843.5 323.545
1844.5 351.545
1845.5 384.455
1846.5 366.636
1847.5 369.818
1848.5 357.909
1849.5 411.545
1850.5 645.273
1851.5 907.636
1852.5 973.091
1853.5 718.091
1854.5 499.818
1855.5 403.818
1856.5 299.545
1857.5 326.909
1858.5 370.727
1859.5 281.909
1860.5 308.273
1861.5 309.364
1862.5 167.182
1863.5 376.091
1864.5 370.545
1865.5 405
1866.5 312.273
1867.5 371.182
1868.5 371.273
1869.5 301.091
1870.5 101.545
1871.5 -42.3638
1872.5 -147.818
1873.5 -10.0911
1874.5 278
1875.5 351.727
1876.5 406.273
1877.5 343.636
1878.5 309.727
1879.5 361.455
1880.5 398.818
1881.5 451.545
1882.5 738.818
1883.5 1830.36
1884.5 5849.73
1885.5 16370.7
1886.5 30113.3
1887.5 31203.5
1888.5 16505.9
1889.5 4915.45
1890.5 1366.18
1891.5 604.182
1892.5 359.364
1893.5 415.182
1894.5 301.091
1895.5 213.818
1896.5 261.364
1897.5 285.091
1898.5 239.364
1899.5 302.455
1900.5 389.636
1901.5 362.909
1902.5 363.273
1903.5 318.364
1904.5 285.182
1905.5 257.091
1906.5 344.818
1907.5 300.909
1908.5 283.636
1909.5 250.545
1910.5 338.091
1911.5 312.091
1912.5 299.182
1913.5 203.545
1914.5 256.182
1915.5 214.818
1916.5 344.091
1917.5 483.818
1918.5 446.909
1919.5 376.545
1920.5 271.455
1921.5 305.909
1922.5 274.818
1923.5 323.364
1924.5 347
1925.5 368.455
1926.5 295.545
1927.5 324.636
1928.5 325.273
1929.5 296.455
1930.5 212.727
1931.5 246
1932.5 298.091
1933.5 262.909
1934.5 314.091
1935.5 263.091
1936.5 275.364
1937.5 309.636
1938.5 276.727
1939.5 281.273
1940.5 376.364
1941.5 376.727
1942.5 427
1943.5 420.545
1944.5 348.091
1945.5 279.273
1946.5 314.273
1947.5 292.364
1948.5 294.091
1949.5 315.091
1950.5 198.182
1951.5 222.818
1952.5 223.727
1953.5 252.364
1954.5 282.182
1955.5 271.636
1956.5 184.818
1957.5 196.455
1958.5 210.636
1959.5 310.727
1960.5 276.182
1961.5 336.909
1962.5 280.636
1963.5 277.545
1964.5 369.273
1965.5 290.909
1966.5 307.182
1967.5 370.091
1968.5 276.545
1969.5 318.182
1970.5 364
1971.5 241.273
1972.5 194.182
1973.5 229.182
1974.5 228.727
1975.5 214.909
1976.5 269.455
1977.5 261.182
1978.5 281.455
1979.5 263.909
1980.5 321.636
1981.5 439.364
1982.5 1052.18
1983.5 1873.18
1984.5 2015.73
1985.5 1326.82
1986.5 589.273
1987.5 342.455
1988.5 351.727
1989.5 303.636
1990.5 334.273
1991.5 195.091
1992.5 216.636
1993.5 328.727
1994.5 371.636
1995.5 285
1996.5 246.455
1997.5 228.273
1998.5 212.091
1999.5 267.818
2000.5 328.636
2001.5 189.636
2002.5 263.636
2003.5 216.727
2004.5 258.364
2005.5 327.091
2006.5 384.545
2007.5 421.545
2008.5 427.455
2009.5 389.455
2010.5 271.364
2011.5 268.273
2012.5 340.727
2013.5 324.545
2014.5 212.818
2015.5 355.545
2016.5 277.909
2017.5 295.455
2018.5 212
2019.5 219.909
2020.5 202.727
2021.5 246.636
2022.5 251.364
2023.5 284.727
2024.5 346
2025.5 314.545
2026.5 345.909
2027.5 214.545
2028.5 224.818
2029.5 181.182
2030.5 148
2031.5 285.818
2032.5 271.727
2033.5 300.909
2034.5 227
2035.5 319.455
2036.5 329.636
2037.5 308.545
2038.5 205.636
2039.5 174.727
2040.5 205.273
2041.5 228.818
2042.5 241.182
2043.5 195.364
2044.5 201.273
2045.5 211.727
2046.5 304.273
2047.5 228.636
2048.5 295
2049.5 318.091
2050.5 408.455
2051.5 383
2052.5 298.909
2053.5 330.182
2054.5 191.545
2055.5 234.545
2056.5 252.273
2057.5 245.273
2058.5 218.818
2059.5 228.455
2060.5 250.636
2061.5 165.636
2062.5 178.818
2063.5 265.727
2064.5 216.909
2065.5 199.727
2066.5 321.545
2067.5 363.545
2068.5 382.636
2069.5 519.818
2070.5 631.364
2071.5 748.727
2072.5 681.727
2073.5 488.455
2074.5 251
2075.5 305.273
2076.5 307.909
2077.5 328.636
2078.5 335.455
2079.5 289.727
2080.5 230.091
2081.5 233.909
2082.5 252.364
2083.5 263
2084.5 225.273
2085.5 164
2086.5 251.364
2087.5 253.091
2088.5 292.091
2089.5 205.455
2090.5 200.545
2091.5 225.818
2092.5 277.455
2093.5 275
2094.5 231.727
2095.5 248.727
2096.5 282.091
2097.5 280.273
2098.5 334.091
2099.5 186.818
2100.5 246.364
2101.5 176.909
2102.5 243.273
2103.5 270.091
2104.5 200.818
2105.5 221.909
2106.5 291.091
2107.5 264.818
2108.5 332.273
2109.5 332
2110.5 276.545
2111.5 161.273
2112.5 234
2113.5 192.545
2114.5 173.091
2115.5 317.545
2116.5 230.545
2117.5 371
2118.5 386.455
2119.5 282.364
2120.5 306.455
2121.5 242.455
2122.5 230
2123.5 212.182
2124.5 218.636
2125.5 307.091
2126.5 248.273
2127.5 247.273
2128.5 332.455
2129.5 334.636
2130.5 303.636
2131.5 410.455
2132.5 406.455
2133.5 255.545
2134.5 263.364
2135.5 199.545
2136.5 262.273
2137.5 174.091
2138.5 241.364
2139.5 225
2140.5 261.909
2141.5 312.182
2142.5 195
2143.5 381.727
2144.5 290
2145.5 352.091
2146.5 268.091
2147.5 280.182
2148.5 382.091
2149.5 649.636
2150.5 811.727
2151.5 760.818
2152.5 412.091
2153.5 341.909
2154.5 322.091
2155.5 278.818
2156.5 277.818
2157.5 291.455
2158.5 278.182
2159.5 299.636
2160.5 296.364
2161.5 351.909
2162.5 335.818
2163.5 310.636
2164.5 270.273
2165.5 273.636
2166.5 279.545
2167.5 360.545
2168.5 358.818
2169.5 328.273
2170.5 320.636
2171.5 234.364
2172.5 303.182
2173.5 170.273
2174.5 183.364
2175.5 232.636
2176.5 188.273
2177.5 175.182
2178.5 173.273
2179.5 279.182
2180.5 251.545
2181.5 261.818
2182.5 309.818
2183.5 207.273
2184.5 332.909
2185.5 275.636
2186.5 264.636
2187.5 285
2188.5 271.545
2189.5 282.909
2190.5 300
2191.5 354.818
2192.5 325.455
2193.5 324.182
2194.5 302.818
2195.5 320.091
2196.5 261.727
2197.5 256.545
2198.5 293.727
2199.5 249.909
2200.5 111.273
2201.5 300.182
2202.5 246.091
2203.5 332.909
2204.5 353.636
2205.5 287.727
2206.5 257.636
2207.5 285.091
2208.5 290.545
2209.5 199.273
2210.5 195.818
2211.5 285.909
2212.5 210.545
2213.5 247.455
2214.5 255
2215.5 201
2216.5 254.636
2217.5 290.455
2218.5 238.545
2219.5 241.909
2220.5 314.545
2221.5 559.818
2222.5 849.545
2223.5 1024.27
2224.5 933.818
2225.5 514.909
2226.5 424.091
2227.5 332
2228.5 307.636
2229.5 260.091
2230.5 274.091
2231.5 291.182
2232.5 325.273
2233.5 482.545
2234.5 427.364
2235.5 483.273
2236.5 402
2237.5 411.182
2238.5 281.727
2239.5 240.545
2240.5 284.273
2241.5 268.818
2242.5 246.636
2243.5 253.545
2244.5 299.636
2245.5 247.364
2246.5 275.455
2247.5 300.091
2248.5 201.545
2249.5 234.818
2250.5 229.273
2251.5 195.818
2252.5 258.727
2253.5 342.909
2254.5 266.455
2255.5 345.818
2256.5 289.818
2257.5 223.182
2258.5 260.182
2259.5 347.364
2260.5 286.455
2261.5 333.727
2262.5 312
2263.5 336.727
2264.5 257.636
2265.5 274.909
2266.5 285.636
2267.5 249.818
2268.5 256
2269.5 293.455
2270.5 270.273
2271.5 241.182
2272.5 232.818
2273.5 306.909
2274.5 276.455
2275.5 226.091
2276.5 249.091
2277.5 219.727
2278.5 227.273
2279.5 308.818
2280.5 264.182
2281.5 294.455
2282.5 372.636
2283.5 366.727
2284.5 261.818
2285.5 294.273
2286.5 397.545
2287.5 334.909
2288.5 356.273
2289.5 303.455
2290.5 354.273
2291.5 372.909
2292.5 399.182
2293.5 359.455
2294.5 216.818
2295.5 239
2296.5 344.727
2297.5 287.545
2298.5 364.545
2299.5 327.182
2300.5 340.727
2301.5 351.636
2302.5 265.909
2303.5 346.364
2304.5 288.273
2305.5 304.636
2306.5 298
2307.5 322.909
2308.5 434.909
2309.5 451.636
2310.5 465.364
2311.5 330.182
2312.5 264.909
2313.5 243.182
2314.5 256.364
2315.5 307.636
2316.5 278.364
2317.5 231.182
2318.5 283.182
2319.5 267.273
2320.5 177.091
2321.5 327.636
2322.5 268.727
2323.5 284.091
2324.5 237.364
2325.5 242.091
2326.5 242.273
2327.5 235.364
2328.5 309.909
2329.5 286
2330.5 278.182
2331.5 283.727
2332.5 441.273
2333.5 539.818
2334.5 377.818
2335.5 294.182
2336.5 214.909
2337.5 222.182
2338.5 244.818
2339.5 270.545
2340.5 197.455
2341.5 237.455
2342.5 249.909
2343.5 234.727
2344.5 225.182
2345.5 229.636
2346.5 297.182
2347.5 212
2348.5 239.545
2349.5 284.818
2350.5 207.364
2351.5 125.273
2352.5 216.636
2353.5 216.091
2354.5 169.455
2355.5 250.545
2356.5 339
2357.5 312.727
2358.5 266.909
2359.5 204.818
2360.5 240.091
2361.5 217.182
2362.5 164.273
2363.5 184.273
2364.5 226.182
2365.5 226.727
2366.5 324.364
2367.5 284.364
2368.5 277.636
2369.5 172
2370.5 261.545
2371.5 231.455
2372.5 236.182
2373.5 323.091
2374.5 186.818
2375.5 238
2376.5 175.727
2377.5 367
2378.5 386.182
2379.5 395.182
2380.5 333.182
2381.5 174.818
2382.5 288.364
2383.5 319.364
2384.5 207.182
2385.5 290.091
2386.5 261.091
2387.5 211.091
2388.5 310.364
2389.5 278
2390.5 276.636
2391.5 246.455
2392.5 309.727
2393.5 214.273
2394.5 233.364
2395.5 255
2396.5 300.545
2397.5 293.636
2398.5 311.273
2399.5 203.364
2400.5 218
2401.5 236.364
2402.5 346.727
2403.5 281.364
2404.5 279.909
2405.5 322.545
2406.5 241.818
2407.5 265.545
2408.5 178.091
2409.5 227.091
2410.5 190.364
2411.5 192
2412.5 124.182
2413.5 209.727
2414.5 341.091
2415.5 274.455
2416.5 400.909
2417.5 317.818
2418.5 238.364
2419.5 271.091
2420.5 217.636
2421.5 287.636
2422.5 228.818
2423.5 193
2424.5 257.727
2425.5 225.273
2426.5 338.364
2427.5 288.091
2428.5 349.273
2429.5 246.727
2430.5 248.455
2431.5 257.091
2432.5 283.909
2433.5 337
2434.5 261.909
2435.5 250.545
2436.5 173.182
2437.5 272.909
2438.5 208.909
2439.5 288.091
2440.5 160.091
2441.5 235.727
2442.5 204.364
2443.5 252.273
2444.5 245.364
2445.5 259.364
2446.5 331.455
2447.5 293.273
2448.5 304.727
2449.5 204
2450.5 180.091
2451.5 225.455
2452.5 231
2453.5 188.364
2454.5 204.636
2455.5 156.091
2456.5 261
2457.5 360.455
2458.5 348.182
2459.5 489.455
2460.5 389.545
2461.5 327.273
2462.5 226.818
2463.5 230.455
2464.5 270.455
2465.5 250.364
2466.5 262.091
2467.5 197
2468.5 222.091
2469.5 174.455
2470.5 245.091
2471.5 231.182
2472.5 225.364
2473.5 286.636
2474.5 218.182
2475.5 260.091
2476.5 242.909
2477.5 209.818
2478.5 272.091
2479.5 268.909
2480.5 265.818
2481.5 289.364
2482.5 210.273
2483.5 233.545
2484.5 236
2485.5 241.909
2486.5 308.636
2487.5 280.455
2488.5 292.182
2489.5 318.364
2490.5 286.727
2491.5 294.818
2492.5 215
2493.5 258.364
2494.5 280
2495.5 211.636
2496.5 268.182
2497.5 248.727
2498.5 269.455
2499.5 227.727
2500.5 291.727
2501.5 306.091
2502.5 240
2503.5 223.636
2504.5 270.818
2505.5 240
2506.5 183.909
2507.5 203.636
2508.5 224
2509.5 250.545
2510.5 301.091
2511.5 240.182
2512.5 212
2513.5 352
2514.5 364.909
2515.5 544.545
2516.5 1051.09
2517.5 1938.73
2518.5 3266.45
2519.5 3628.45
2520.5 2344.82
2521.5 1017.09
2522.5 408.727
2523.5 255.636
2524.5 223.636
2525.5 207.182
2526.5 268.545
2527.5 228.364
2528.5 275.364
2529.5 194.636
2530.5 227
2531.5 236.455
2532.5 221.273
2533.5 224
2534.5 166.455
2535.5 198.909
2536.5 226.091
2537.5 111.818
2538.5 180.818
2539.5 259.636
2540.5 141.091
2541.5 284.909
2542.5 326.091
2543.5 241.364
2544.5 289.364
2545.5 337.273
2546.5 261.273
2547.5 288
2548.5 328.636
2549.5 320.727
2550.5 249
2551.5 195.091
2552.5 311.091
2553.5 207.364
2554.5 228.636
2555.5 210.727
2556.5 191.636
2557.5 232.545
2558.5 148.091
2559.5 136.636
2560.5 249.909
2561.5 300.909
2562.5 176.636
2563.5 199.273
2564.5 166.273
2565.5 113.727
2566.5 225
2567.5 318.727
2568.5 302.364
2569.5 325.364
2570.5 283.636
2571.5 257.909
2572.5 183.636
2573.5 220.273
2574.5 296.545
2575.5 336.727
2576.5 266.545
2577.5 308.909
2578.5 212.364
2579.5 221.273
2580.5 255.909
2581.5 241.636
2582.5 306.909
2583.5 275.909
2584.5 191.364
2585.5 149.909
2586.5 169.545
2587.5 219.273
2588.5 198.818
2589.5 205.364
2590.5 233.455
2591.5 243.909
2592.5 204.727
2593.5 148.909
2594.5 227.545
2595.5 215.818
2596.5 133.273
2597.5 209.818
2598.5 178.545
2599.5 191.727
2600.5 215.727
2601.5 191.091
2602.5 192.091
2603.5 182.636
2604.5 181.727
2605.5 332.727
2606.5 226.545
2607.5 210.545
2608.5 191.273
2609.5 294.182
2610.5 228.636
2611.5 258.545
2612.5 217.091
2613.5 212.909
2614.5 225.364
2615.5 272.455
2616.5 398.636
2617.5 584.636
2618.5 759.273
2619.5 1011.18
2620.5 907.636
2621.5 503.636
2622.5 309.091
2623.5 193.909
2624.5 209.182
2625.5 124.364
2626.5 190.182
2627.5 200.364
2628.5 200.273
2629.5 176.273
2630.5 163.364
2631.5 223
2632.5 192.636
2633.5 188.545
2634.5 191.273
2635.5 135.273
2636.5 159.182
2637.5 221.636
2638.5 301.182
2639.5 414.545
2640.5 745.545
2641.5 1275
2642.5 1703.82
2643.5 1593.73
2644.5 1042.45
2645.5 482.091
2646.5 255.091
2647.5 224
2648.5 268.273
2649.5 174.909
2650.5 179.727
2651.5 121.455
2652.5 195.909
2653.5 214
2654.5 264.909
2655.5 311.091
2656.5 276.545
2657.5 283.818
2658.5 210.091
2659.5 180.636
2660.5 217.545
2661.5 197.636
2662.5 139.182
2663.5 194.091
2664.5 192.273
2665.5 235.091
2666.5 245.364
2667.5 266.636
2668.5 161.909
2669.5 251
2670.5 278.273
2671.5 206
2672.5 209
2673.5 230
2674.5 295.909
2675.5 273.727
2676.5 315.909
2677.5 292
2678.5 171.182
2679.5 169.091
2680.5 129.091
2681.5 159.818
2682.5 152.455
2683.5 189
2684.5 178.273
2685.5 186.545
2686.5 228.727
2687.5 161.455
2688.5 241.091
2689.5 158.182
2690.5 188.909
2691.5 97.6363
2692.5 122.545
2693.5 141.364
2694.5 195.273
2695.5 163.636
2696.5 192.455
2697.5 163.182
2698.5 193.364
2699.5 112.909
2700.5 159.545
2701.5 162.727
2702.5 261.545
2703.5 249.091
2704.5 125
2705.5 164.818
2706.5 265.545
2707.5 231.818
2708.5 214.182
2709.5 167.182
2710.5 230.545
2711.5 221.182
2712.5 229.273
2713.5 205.455
2714.5 188.364
2715.5 174.182
2716.5 150.455
2717.5 172.273
2718.5 279.182
2719.5 231.182
2720.5 106.364
2721.5 227.454
2722.5 143.909
2723.5 96.1817
2724.5 140
2725.5 123.545
2726.5 145
2727.5 172.091
2728.5 183.091
2729.5 220.909
2730.5 264
2731.5 189.909
2732.5 173
2733.5 195.182
2734.5 195.727
2735.5 135.364
2736.5 178.909
2737.5 150.909
2738.5 172.909
2739.5 168.909
2740.5 199.727
2741.5 176.182
2742.5 387.455
2743.5 703.455
2744.5 1466.82
2745.5 2427
2746.5 3189.27
2747.5 2776.45
2748.5 1509.27
2749.5 693.455
2750.5 486.727
2751.5 263
2752.5 285.273
2753.5 180.727
2754.5 132.091
2755.5 117.636
2756.5 161.273
2757.5 239.273
2758.5 181.273
2759.5 203.545
2760.5 110.636
2761.5 101.818
2762.5 164.364
2763.5 202.455
2764.5 138.727
2765.5 111.182
2766.5 192
2767.5 266.636
2768.5 225.091
2769.5 276.818
2770.5 294.545
2771.5 226.545
2772.5 180.545
2773.5 201
2774.5 204.818
2775.5 175.727
2776.5 202.909
2777.5 226.636
2778.5 199.636
2779.5 191.364
2780.5 172.818
2781.5 130
2782.5 150.818
2783.5 149
2784.5 150.364
2785.5 197.091
2786.5 173.727
2787.5 174.727
2788.5 167.455
2789.5 147.727
2790.5 177.091
2791.5 179.727
2792.5 202.909
2793.5 197.818
2794.5 211
2795.5 206.909
2796.5 255.182
2797.5 265
2798.5 190.455
2799.5 169.455
2800.5 189
2801.5 67.2727
2802.5 133.364
2803.5 183.273
2804.5 204.182
2805.5 222.182
2806.5 209.545
2807.5 185.091
2808.5 274.455
2809.5 232.636
2810.5 226.364
2811.5 201.273
2812.5 248.545
2813.5 365.636
2814.5 542
2815.5 649
2816.5 693.091
2817.5 497.364
2818.5 326.636
2819.5 152.727
2820.5 123.727
2821.5 177.636
2822.5 165.364
2823.5 185.818
2824.5 168.727
2825.5 206.364
2826.5 208
2827.5 181
2828.5 199.545
2829.5 225.818
2830.5 173.909
2831.5 221.273
2832.5 248.455
2833.5 156.364
2834.5 146.909
2835.5 123.091
2836.5 132.455
2837.5 115.636
2838.5 152.455
2839.5 129.818
2840.5 220.182
2841.5 167.545
2842.5 224.909
2843.5 199.364
2844.5 234.091
2845.5 251
2846.5 275.182
2847.5 256.909
2848.5 222.818
2849.5 176.636
2850.5 89.6363
2851.5 167
2852.5 199.909
2853.5 153.909
2854.5 220.636
2855.5 151
2856.5 116.364
2857.5 167
2858.5 141.545
2859.5 161.545
2860.5 125.364
2861.5 198.091
2862.5 190.182
2863.5 153.455
2864.5 132.636
2865.5 103.091
2866.5 189.091
2867.5 173.818
2868.5 176.364
2869.5 265.364
2870.5 255.182
2871.5 186.818
2872.5 175.545
2873.5 191.818
2874.5 188.545
2875.5 126.909
2876.5 200.727
2877.5 162
2878.5 96.1818
2879.5 181
2880.5 131.636
2881.5 157.818
2882.5 108.545
2883.5 101.273
2884.5 161.273
2885.5 122.091
2886.5 140.182
2887.5 148.364
2888.5 263.636
2889.5 286.545
2890.5 306.818
2891.5 423.091
2892.5 249
2893.5 205.091
2894.5 227.636
2895.5 138.273
2896.5 142.182
2897.5 200.636
2898.5 137.909
2899.5 182.364
2900.5 138
2901.5 111.727
2902.5 129.818
2903.5 60.0909
2904.5 119.182
2905.5 158.364
2906.5 153.182
2907.5 123.091
2908.5 127.636
2909.5 125
2910.5 157.545
2911.5 176.182
2912.5 142.182
2913.5 101.182
2914.5 168.182
2915.5 208.909
2916.5 216.091
2917.5 168
2918.5 149.545
2919.5 114.909
2920.5 198.545
2921.5 208.182
2922.5 160.545
2923.5 200
2924.5 211
2925.5 240.909
2926.5 191.727
2927.5 241.909
2928.5 315.818
2929.5 333.545
2930.5 356.636
2931.5 452.364
2932.5 499.818
2933.5 387.091
2934.5 250.091
2935.5 228.182
2936.5 250
2937.5 153
2938.5 158.091
2939.5 132.727
2940.5 140.273
2941.5 147
2942.5 125.545
2943.5 152.182
2944.5 110.818
2945.5 165.273
2946.5 156.818
2947.5 177.364
2948.5 179
2949.5 94.0909
2950.5 128.636
2951.5 250.909
2952.5 186.364
2953.5 166.545
2954.5 149
2955.5 255.182
2956.5 134.909
2957.5 203.636
2958.5 75.5454
2959.5 141.818
2960.5 119
2961.5 145.727
2962.5 179.818
2963.5 120.545
2964.5 156.636
2965.5 101.727
2966.5 142.818
2967.5 110.273
2968.5 179.455
2969.5 220.727
2970.5 214.273
2971.5 289.455
2972.5 276.364
2973.5 214.818
2974.5 180.636
2975.5 168.545
2976.5 133.636
2977.5 164.273
2978.5 198.545
2979.5 183.545
2980.5 180.727
2981.5 209.455
2982.5 165.455
2983.5 108.182
2984.5 109.273
2985.5 150.091
2986.5 148.091
2987.5 221.273
2988.5 211.455
2989.5 185.182
2990.5 201.818
2991.5 156.364
2992.5 222.182
2993.5 125.636
2994.5 179.273
2995.5 228
2996.5 259.091
2997.5 380.455
2998.5 428.364
2999.5 540.545
3000.5 603.455
3001.5 557.818
3002.5 291.727
3003.5 160.364
3004.5 116
3005.5 17.909
3006.5 5.81813
3007.5 127.909
3008.5 103.727
3009.5 133.818
3010.5 103.455
3011.5 163.182
3012.5 144.545
3013.5 150.182
3014.5 142.909
3015.5 165.455
3016.5 165.091
3017.5 177.273
3018.5 195.909
3019.5 152.545
3020.5 133.818
3021.5 117.273
3022.5 146.455
3023.5 144.545
3024.5 126.273
3025.5 190.545
3026.5 112.909
3027.5 178.818
3028.5 246.364
3029.5 164
3030.5 172.909
3031.5 130.091
3032.5 174.364
3033.5 162
3034.5 99.4545
3035.5 149.273
3036.5 140.909
3037.5 111.273
3038.5 162.909
3039.5 215.273
3040.5 267.182
3041.5 192
3042.5 235.455
3043.5 338.909
3044.5 392.182
3045.5 380
3046.5 341.273
3047.5 247
3048.5 324.455
3049.5 277.364
3050.5 223.545
3051.5 233.455
3052.5 251.818
3053.5 246.091
3054.5 269.818
3055.5 204.545
3056.5 439.182
3057.5 601.364
3058.5 581.636
3059.5 450.727
3060.5 281.909
3061.5 227.636
3062.5 181.545
3063.5 177.727
3064.5 146.273
3065.5 143.273
3066.5 102.364
3067.5 173.818
3068.5 174
3069.5 109.455
3070.5 145.455
3071.5 206.909
3072.5 173.818
3073.5 86.3636
3074.5 117.636
3075.5 118.364
3076.5 102.364
3077.5 172.727
3078.5 156
3079.5 89.3636
3080.5 75.9091
3081.5 146.182
3082.5 75.7273
3083.5 108.182
3084.5 103.182
3085.5 65.1818
3086.5 153
3087.5 84.5454
3088.5 72.9091
3089.5 158.636
3090.5 126.727
3091.5 154.909
3092.5 197.909
3093.5 214.091
3094.5 145.455
3095.5 121.818
3096.5 168.182
3097.5 101.273
3098.5 204.636
3099.5 100.727
3100.5 202.273
3101.5 173.455
3102.5 167.273
3103.5 238.273
3104.5 94.8182
3105.5 99.1818
3106.5 134.636
3107.5 175.545
3108.5 154.273
3109.5 144.455
3110.5 192.636
3111.5 124
3112.5 152.818
3113.5 154
3114.5 156.273
3115.5 181.182
3116.5 148.182
3117.5 148.909
3118.5 59
3119.5 135.455
3120.5 138.636
3121.5 154.273
3122.5 124.273
3123.5 125
3124.5 144.727
3125.5 113.909
3126.5 178.364
3127.5 161.545
3128.5 191
3129.5 179.091
3130.5 139.273
3131.5 117.091
3132.5 181.545
3133.5 118.909
3134.5 134.545
3135.5 149.455
3136.5 215
3137.5 204.273
3138.5 145.727
3139.5 174.909
3140.5 107.636
3141.5 127.727
3142.5 102.182
3143.5 77.0909
3144.5 195.455
3145.5 133
3146.5 166.545
3147.5 118.364
3148.5 170.273
3149.5 172.182
3150.5 157.364
3151.5 166.364
3152.5 187.818
3153.5 138
3154.5 161.636
3155.5 124.545
3156.5 82.0909
3157.5 189.636
3158.5 135
3159.5 119.545
3160.5 122.091
3161.5 120
3162.5 80.6363
3163.5 185.545
3164.5 138.364
3165.5 156.273
3166.5 159.636
3167.5 195.636
3168.5 161.182
3169.5 166.909
3170.5 150.636
3171.5 151.455
3172.5 172.273
3173.5 265
3174.5 265.545
3175.5 419.545
3176.5 401.273
3177.5 344.818
3178.5 243.545
3179.5 303.182
3180.5 387.727
3181.5 529.636
3182.5 619
3183.5 400
3184.5 393.545
3185.5 230
3186.5 204.091
3187.5 229.182
3188.5 81.4545
3189.5 148.364
3190.5 115.909
3191.5 138.909
3192.5 105.091
3193.5 81.0909
3194.5 145.273
3195.5 77.0909
3196.5 160.727
3197.5 125.818
3198.5 154.727
3199.5 141.545
3200.5 142.364
3201.5 148.545
3202.5 223.545
3203.5 135
3204.5 179.909
3205.5 150.545
3206.5 166.545
3207.5 184.273
3208.5 156.818
3209.5 148.455
3210.5 209.273
3211.5 193.909
3212.5 154.636
3213.5 97.1818
3214.5 138.545
3215.5 137.364
3216.5 105.545
3217.5 132.909
3218.5 144.636
3219.5 77.7273
3220.5 163.273
3221.5 219.364
3222.5 235.455
3223.5 226.182
3224.5 208.727
3225.5 214.727
3226.5 161.364
3227.5 165.636
3228.5 229.091
3229.5 345.909
3230.5 362
3231.5 368
3232.5 344.727
3233.5 198.182
3234.5 167.545
3235.5 118.273
3236.5 121.182
3237.5 131.727
3238.5 138.091
3239.5 155.727
3240.5 173.909
3241.5 128.727
3242.5 189.727
3243.5 126.909
3244.5 106.818
3245.5 122.273
3246.5 146
3247.5 93
3248.5 114.182
3249.5 166.182
3250.5 257.636
3251.5 194.818
3252.5 253.364
3253.5 172.182
3254.5 154.818
3255.5 188.727
3256.5 87.1818
3257.5 150.545
3258.5 136.455
3259.5 227.091
3260.5 203.818
3261.5 146.636
3262.5 201.727
3263.5 161.182
3264.5 187.273
3265.5 197.636
3266.5 118
3267.5 206.818
3268.5 118.364
3269.5 117.909
3270.5 111.091
3271.5 141.545
3272.5 136.727
3273.5 134.455
3274.5 97.5454
3275.5 93.8182
3276.5 110.273
3277.5 127.818
3278.5 156.455
3279.5 110.818
3280.5 170.818
3281.5 111.091
3282.5 181.818
3283.5 88.9091
3284.5 145.364
3285.5 145.364
3286.5 108.182
3287.5 106.636
3288.5 159.727
3289.5 195.909
3290.5 152.727
3291.5 129.091
3292.5 135.818
3293.5 225.182
3294.5 166.727
3295.5 148.636
3296.5 169.818
3297.5 145.364
3298.5 163.364
3299.5 134.182
3300.5 74.5454
3301.5 142
3302.5 156.909
3303.5 152.364
3304.5 223.455
3305.5 166.818
3306.5 201.182
3307.5 178.636
3308.5 143.364
3309.5 189.545
3310.5 151.091
3311.5 109.182
3312.5 195.818
3313.5 181.545
3314.5 227.545
3315.5 214.909
3316.5 234
3317.5 159.545
3318.5 153.636
3319.5 128.727
3320.5 176
3321.5 294.273
3322.5 296.455
3323.5 219.182
3324.5 207
3325.5 147.545
3326.5 146.545
3327.5 151.455
3328.5 201.727
3329.5 120.909
3330.5 85.4545
3331.5 170.818
3332.5 150.727
3333.5 120.182
3334.5 106.727
3335.5 174.182
3336.5 134.182
3337.5 163.545
3338.5 152.545
3339.5 93.2727
3340.5 179.818
3341.5 123.273
3342.5 181.727
3343.5 177.455
3344.5 199.818
3345.5 139.364
3346.5 107.909
3347.5 113.636
3348.5 141.273
3349.5 113.091
3350.5 121.545
3351.5 187.273
3352.5 182.455
3353.5 186.909
3354.5 294.727
3355.5 204.818
3356.5 263.182
3357.5 177.818
3358.5 192.273
3359.5 165.182
3360.5 175.818
3361.5 115.182
3362.5 129.182
3363.5 196.091
3364.5 89.9091
3365.5 109.636
3366.5 130.545
3367.5 163.091
3368.5 198.364
3369.5 152.091
3370.5 168.636
3371.5 201.273
3372.5 211.727
3373.5 185.636
3374.5 136.364
3375.5 141.182
3376.5 122.636
3377.5 188.636
3378.5 105.818
3379.5 167.545
3380.5 159.455
3381.5 129.727
3382.5 78.8182
3383.5 98.3636
3384.5 114.364
3385.5 140.636
3386.5 56.0909
3387.5 164.364
3388.5 122.364
3389.5 133
3390.5 161.818
3391.5 137.636
3392.5 167.364
3393.5 136.545
3394.5 129.273
3395.5 167.727
3396.5 111.727
3397.5 130.455
3398.5 128.273
3399.5 136
3400.5 47.6363
3401.5 80.4545
3402.5 111.909
3403.5 102.273
3404.5 140.909
3405.5 135.091
3406.5 103.636
3407.5 106.455
3408.5 62.5454
3409.5 101.364
3410.5 119.455
3411.5 102.909
3412.5 65.2727
3413.5 108.364
3414.5 109.636
3415.5 76.4545
3416.5 149.545
3417.5 43.0909
3418.5 94.8182
3419.5 112
3420.5 58.2727
3421.5 82.8182
3422.5 95.2727
3423.5 104.909
3424.5 142.455
3425.5 262.818
3426.5 279.455
3427.5 383.455
3428.5 291.909
3429.5 293.182
3430.5 181.273
3431.5 162.091
3432.5 130.364
3433.5 93.6363
3434.5 124.818
3435.5 152.455
3436.5 143.636
3437.5 188.091
3438.5 271.364
3439.5 276.091
3440.5 222.636
3441.5 169.636
3442.5 187
3443.5 111.091
3444.5 132.364
3445.5 146
3446.5 197.273
3447.5 98
3448.5 164.727
3449.5 191.909
3450.5 88.6363
3451.5 113.818
3452.5 165
3453.5 148.909
3454.5 96.9091
3455.5 27.9091
3456.5 128
3457.5 126.909
3458.5 162.364
3459.5 207.273
3460.5 139.818
3461.5 163.364
3462.5 215.455
3463.5 188.273
3464.5 174.909
3465.5 156
3466.5 121.636
3467.5 129.818
3468.5 127.818
3469.5 152.818
3470.5 122.455
3471.5 110
3472.5 133.091
3473.5 81.1818
3474.5 132.182
3475.5 111.182
3476.5 175.545
3477.5 124.727
3478.5 101.545
3479.5 94.1818
3480.5 158.182
3481.5 138.727
3482.5 157.455
3483.5 125.818
3484.5 95.4545
3485.5 88.1818
3486.5 122.545
3487.5 103.364
3488.5 106.818
3489.5 113.182
3490.5 179.636
3491.5 167.182
3492.5 189.636
3493.5 161.636
3494.5 118.091
3495.5 174.545
3496.5 112.273
3497.5 83.0909
3498.5 159.455
3499.5 123.909
3500.5 94.6363
3501.5 104.182
3502.5 149.909
3503.5 112.364
3504.5 125.545
3505.5 173.364
3506.5 184.545
3507.5 163.455
3508.5 188.545
3509.5 149.364
3510.5 135.091
3511.5 211.636
3512.5 263.364
3513.5 241.636
3514.5 226.364
3515.5 180.091
3516.5 187
3517.5 168.273
3518.5 130.818
3519.5 100.909
3520.5 85.6363
3521.5 192.909
3522.5 148.545
3523.5 193.727
3524.5 136.818
3525.5 186.273
3526.5 129.636
3527.5 101.364
3528.5 111.727
3529.5 123.091
3530.5 186.455
3531.5 270.636
3532.5 221.182
3533.5 193.636
3534.5 222.636
3535.5 215
3536.5 124.091
3537.5 137.636
3538.5 101.455
3539.5 145.091
3540.5 138.909
3541.5 214.818
3542.5 240.545
3543.5 237
3544.5 187.091
3545.5 137.273
3546.5 112.455
3547.5 72
3548.5 71.9091
3549.5 106.818
3550.5 171
3551.5 146.091
3552.5 149.909
3553.5 110.455
3554.5 188
3555.5 235.091
3556.5 246.455
3557.5 283.909
3558.5 315.364
3559.5 261.545
3560.5 200.727
3561.5 200.182
3562.5 244.818
3563.5 180.909
3564.5 141.545
3565.5 87.7273
3566.5 79.9091
3567.5 93.8182
3568.5 69.3636
3569.5 134.636
3570.5 98.7273
3571.5 118.636
3572.5 90.7273
3573.5 119.636
3574.5 90.3636
3575.5 72.7273
3576.5 151.091
3577.5 130.455
3578.5 202.091
3579.5 181.364
3580.5 171.455
3581.5 195.455
3582.5 164.091
3583.5 188.182
3584.5 133.364
3585.5 173.636
3586.5 118.818
3587.5 162.091
3588.5 142
3589.5 119.182
3590.5 78.9091
3591.5 128.182
3592.5 116.818
3593.5 66.1818
3594.5 129.818
3595.5 109.273
3596.5 166.273
3597.5 136.545
3598.5 113.091
3599.5 154.091
3600.5 72
3601.5 140.091
3602.5 112.818
3603.5 85.2727
3604.5 121.545
3605.5 91.5454
3606.5 100.364
3607.5 144.273
3608.5 136.636
3609.5 146.636
3610.5 96.1818
3611.5 117.273
3612.5 128.545
3613.5 110.364
3614.5 94.1818
3615.5 161.091
3616.5 107.182
3617.5 117.455
3618.5 124.273
3619.5 138.818
3620.5 188
3621.5 184
3622.5 113.273
3623.5 198.182
3624.5 135.909
3625.5 155
3626.5 132.364
3627.5 64.2727
3628.5 108.273
3629.5 84.4545
3630.5 100
3631.5 74.1818
3632.5 98.1818
3633.5 128.636
3634.5 123.455
3635.5 148.636
3636.5 118
3637.5 151.727
3638.5 178.364
3639.5 185.909
3640.5 133
3641.5 59.8182
3642.5 123.273
3643.5 133
3644.5 150.636
3645.5 193.182
3646.5 241.545
3647.5 287.636
3648.5 380.273
3649.5 291.727
3650.5 354.818
3651.5 246.545
3652.5 207.727
3653.5 111.364
3654.5 93.2727
3655.5 130.636
3656.5 90.9091
3657.5 101.091
3658.5 128.545
3659.5 100.545
3660.5 52.1818
3661.5 72.7273
3662.5 65.5454
3663.5 79.1818
3664.5 109.909
3665.5 59.0909
3666.5 203.636
3667.5 91.2727
3668.5 81.5454
3669.5 179.182
3670.5 180.455
3671.5 199.455
3672.5 172
3673.5 196
3674.5 154.636
3675.5 141.727
3676.5 86.4545
3677.5 123.364
3678.5 184.455
3679.5 127.182
3680.5 123.273
3681.5 192.364
3682.5 204.545
3683.5 174.909
3684.5 185.273
3685.5 99
3686.5 104.091
3687.5 122.909
3688.5 145.091
3689.5 101.182
3690.5 93.5454
3691.5 135.636
3692.5 151.545
3693.5 158.364
3694.5 192.636
3695.5 187.909
3696.5 169.545
3697.5 153.545
3698.5 156.182
3699.5 88.8182
3700.5 81.6363
3701.5 115
3702.5 104.364
3703.5 78.4545
3704.5 91.2727
3705.5 103.909
3706.5 148.364
3707.5 123.091
3708.5 138.727
3709.5 108.091
3710.5 61.6363
3711.5 152.909
3712.5 200.909
3713.5 217.545
3714.5 197.091
3715.5 167.091
3716.5 118
3717.5 118.727
3718.5 131.364
3719.5 110.636
3720.5 169.091
3721.5 120.727
3722.5 173.818
3723.5 146.909
3724.5 116.727
3725.5 148.091
3726.5 129.455
3727.5 147.727
3728.5 102.545
3729.5 96
3730.5 80.3636
3731.5 107.727
3732.5 107
3733.5 158.273
3734.5 124.273
3735.5 109.727
3736.5 128.364
3737.5 79.7273
3738.5 90.6364
3739.5 148.909
3740.5 120.818
3741.5 103.455
3742.5 133.455
3743.5 131.273
3744.5 135.364
3745.5 172
3746.5 209.727
3747.5 193.364
3748.5 184.182
3749.5 131.909
3750.5 245.545
3751.5 161.455
3752.5 111.364
3753.5 152.818
3754.5 139.182
3755.5 122.545
3756.5 103.909
3757.5 106.636
3758.5 115.818
3759.5 70.2727
3760.5 121.364
3761.5 182.273
3762.5 206.364
3763.5 193.364
3764.5 166.727
3765.5 136.273
3766.5 208.727
3767.5 153.182
3768.5 203.273
3769.5 150.091
3770.5 159.545
3771.5 167.091
3772.5 186.909
3773.5 137.727
3774.5 115.273
3775.5 109.545
3776.5 146
3777.5 197.727
3778.5 249.364
3779.5 247.455
3780.5 244.818
3781.5 282.636
3782.5 187.364
3783.5 158.273
3784.5 106.455
3785.5 137.455
3786.5 67.5454
3787.5 88.2727
3788.5 140
3789.5 82.8182
3790.5 75.7273
3791.5 73.3636
3792.5 45.1818
3793.5 63.3636
3794.5 122.182
3795.5 109.364
3796.5 98.0909
3797.5 138.545
3798.5 94.6364
3799.5 87.4545
3800.5 95.7273
3801.5 123.091
3802.5 139.273
3803.5 86.3636
3804.5 106.455
3805.5 136
3806.5 98.8182
3807.5 198.091
3808.5 200.091
3809.5 176.727
3810.5 145
3811.5 128.727
3812.5 112.364
3813.5 133.455
3814.5 89.3636
3815.5 118.364
3816.5 112.636
3817.5 118.364
3818.5 122.727
3819.5 101
3820.5 122.364
3821.5 64.8182
3822.5 111.182
3823.5 65.9091
3824.5 108.636
3825.5 109.545
3826.5 162.455
3827.5 118.818
3828.5 83.7273
3829.5 136.727
3830.5 136.455
3831.5 126.364
3832.5 121.455
3833.5 114.727
3834.5 156.182
3835.5 222.364
3836.5 189.727
3837.5 174.545
3838.5 111.545
3839.5 105.636
3840.5 121.273
3841.5 126.545
3842.5 139.364
3843.5 66.2727
3844.5 123
3845.5 77.9091
3846.5 155.545
3847.5 168.273
3848.5 135.455
3849.5 145.818
3850.5 106.909
3851.5 123.636
3852.5 153.273
3853.5 119.909
3854.5 86.5454
3855.5 169.818
3856.5 131.545
3857.5 178.636
3858.5 105.455
3859.5 183.273
3860.5 121.182
3861.5 85.7273
3862.5 139.818
3863.5 184.091
3864.5 87.6363
3865.5 113.909
3866.5 128.818
3867.5 99.0909
3868.5 82.0909
3869.5 109.182
3870.5 175.364
3871.5 135.636
3872.5 140.091
3873.5 117
3874.5 211.273
3875.5 127.091
3876.5 116.091
3877.5 140.091
3878.5 85.3636
3879.5 130.182
3880.5 181
3881.5 156.182
3882.5 166.364
3883.5 150.545
3884.5 136.727
3885.5 148.909
3886.5 174.182
3887.5 132.727
3888.5 128.273
3889.5 143.727
3890.5 114.636
3891.5 172.273
3892.5 231.909
3893.5 208.455
3894.5 145.364
3895.5 154.545
3896.5 97.9091
3897.5 124.818
3898.5 110.455
3899.5 117.182
3900.5 150.182
3901.5 175.636
3902.5 133
3903.5 181.909
3904.5 176.818
3905.5 148.273
3906.5 153.909
3907.5 118.364
3908.5 111.273
3909.5 118.545
3910.5 113
3911.5 130.636
3912.5 124.727
3913.5 94.6364
3914.5 133.364
3915.5 88.5454
3916.5 117.727
3917.5 90.9091
3918.5 144.727
3919.5 116.091
3920.5 116.364
3921.5 103.182
3922.5 155.909
3923.5 128.273
3924.5 47.7273
3925.5 85.6363
3926.5 54.1818
3927.5 97.8182
3928.5 110.273
3929.5 92.7273
3930.5 79.4545
3931.5 145.273
3932.5 49.7273
3933.5 140.182
3934.5 155
3935.5 114.636
3936.5 98.4545
3937.5 135.636
3938.5 73.1818
3939.5 125.636
3940.5 111.818
3941.5 124.364
3942.5 37.2727
3943.5 78.4545
3944.5 134.727
3945.5 187.182
3946.5 179.818
3947.5 236.455
3948.5 311.545
3949.5 441.545
3950.5 373.273
3951.5 308.818
3952.5 241.636
3953.5 234.455
3954.5 226.909
3955.5 222.364
3956.5 192.364
3957.5 208.818
3958.5 151.545
3959.5 149.727
3960.5 174.545
3961.5 139.545
3962.5 148
3963.5 126.364
3964.5 100.727
3965.5 108.636
3966.5 114.909
3967.5 87.0909
3968.5 120.909
3969.5 143.818
3970.5 145.364
3971.5 174.182
3972.5 178
3973.5 165.364
3974.5 272.909
3975.5 316.727
3976.5 217.364
3977.5 274.818
3978.5 210
3979.5 111.909
3980.5 150.364
3981.5 110.182
3982.5 111.364
3983.5 69
3984.5 102.545
3985.5 64
3986.5 116.909
3987.5 80.2727
3988.5 154.091
3989.5 131.273
3990.5 106.273
3991.5 124.545
3992.5 115.909
3993.5 92.5454
3994.5 50.5454
3995.5 84.0909
3996.5 55.7273
3997.5 141.091
3998.5 137.545
3999.5 75.0909
4000.5 153.727
4001.5 132.727
4002.5 63.1818
4003.5 121.091
4004.5 108.091
4005.5 101.364
4006.5 104.727
4007.5 83.3636
4008.5 76.9091
4009.5 134.909
4010.5 99.6364
4011.5 113.455
4012.5 93.6364
4013.5 86.3636
4014.5 76.2727
4015.5 121.273
4016.5 92
4017.5 93
4018.5 134.182
4019.5 153.455
4020.5 133.636
4021.5 217.909
4022.5 186.909
4023.5 315.909
4024.5 386.455
4025.5 455
4026.5 352.727
4027.5 327.727
4028.5 246.909
4029.5 136.273
4030.5 266.455
4031.5 250.091
4032.5 256.636
4033.5 201.545
4034.5 163.273
4035.5 137.818
4036.5 161.455
4037.5 99.1818
4038.5 84.3636
4039.5 121.909
4040.5 129.182
4041.5 164.182
4042.5 98.3636
4043.5 123.909
4044.5 113.182
4045.5 120
4046.5 124.818
4047.5 138.364
4048.5 124.273
4049.5 154
4050.5 144.182
4051.5 213.091
4052.5 230
4053.5 202.091
4054.5 317.636
4055.5 245.182
4056.5 187.273
4057.5 187
4058.5 129.909
4059.5 100.636
4060.5 89.6364
4061.5 90.0909
4062.5 76.0909
4063.5 101.909
4064.5 136.273
4065.5 128.818
4066.5 113.182
4067.5 153.909
4068.5 158.364
4069.5 132
4070.5 94
4071.5 94.2727
4072.5 99.0909
4073.5 111.545
4074.5 95.1818
4075.5 106.182
4076.5 96.3636
4077.5 79.2727
4078.5 88
4079.5 88.5454
4080.5 90.1818
4081.5 104.818
4082.5 117.727
4083.5 88.3636
4084.5 97.9091
4085.5 82.0909
4086.5 108.636
4087.5 128
4088.5 94.6364
4089.5 94.0909
4090.5 131.273
4091.5 97.0909
4092.5 75.6364
4093.5 87.9091
4094.5 107.909
4095.5 75.6364
4096.5 61.8182
4097.5 86.4545
4098.5 137.727
4099.5 77.0909
4100.5 127.273
4101.5 142.636
4102.5 115.091
4103.5 110.455
4104.5 145
4105.5 132.455
4106.5 85.0909
4107.5 151.727
4108.5 119.182
4109.5 72.6364
4110.5 61.0909
4111.5 98.0909
4112.5 96.7273
4113.5 112.455
4114.5 121.091
4115.5 96.9091
4116.5 143.727
4117.5 88.2727
4118.5 92.6364
4119.5 155.273
4120.5 131
4121.5 134.818
4122.5 54.5454
4123.5 100.091
4124.5 97.5454
4125.5 148.364
4126.5 116.545
4127.5 80.0909
4128.5 94
4129.5 105.091
4130.5 130.273
4131.5 103.455
4132.5 110.182
4133.5 137.545
4134.5 114.636
4135.5 106.182
4136.5 131.909
4137.5 99.4545
4138.5 76.5454
4139.5 78.1818
4140.5 102.909
4141.5 129.455
4142.5 115.091
4143.5 65.1818
4144.5 149.273
4145.5 112.455
4146.5 151.364
4147.5 230.545
4148.5 305.545
4149.5 346.818
4150.5 416.091
4151.5 258
4152.5 206.364
4153.5 144.909
4154.5 117.636
4155.5 80.6364
4156.5 160.636
4157.5 220.636
4158.5 101.182
4159.5 167.455
4160.5 126.545
4161.5 128.364
4162.5 88.6364
4163.5 137.727
4164.5 171.636
4165.5 82.8182
4166.5 108
4167.5 152.909
4168.5 100.727
4169.5 86.1818
4170.5 116.364
4171.5 121.091
4172.5 84.7273
4173.5 130.091
4174.5 126.182
4175.5 78
4176.5 124.545
4177.5 122.727
4178.5 90.4545
4179.5 89.5454
4180.5 90.3636
4181.5 29.2727
4182.5 96.2727
4183.5 95.6364
4184.5 79.4545
4185.5 79.2727
4186.5 123.727
4187.5 100
4188.5 76.2727
4189.5 122.455
4190.5 116.727
4191.5 80.6364
4192.5 103.273
4193.5 119.909
4194.5 99.8182
4195.5 126.091
4196.5 110.636
4197.5 124.545
4198.5 124.636
4199.5 111.273
4200.5 113.727
4201.5 125.545
4202.5 176.909
4203.5 182.364
4204.5 180.455
4205.5 325.182
4206.5 329.636
4207.5 379.182
4208.5 400.273
4209.5 282.091
4210.5 244.909
4211.5 151.727
4212.5 164.909
4213.5 133.727
4214.5 99.1818
4215.5 86.7273
4216.5 148.273
4217.5 119.727
4218.5 58
4219.5 45.9091
4220.5 153.727
4221.5 98
4222.5 99.8182
4223.5 77.7273
4224.5 116.091
4225.5 112.364
4226.5 103.909
4227.5 25.7273
4228.5 93.6364
4229.5 92
4230.5 64.3636
4231.5 88
4232.5 61.3636
4233.5 104.636
4234.5 136.909
4235.5 185.273
4236.5 129.636
4237.5 158.545
4238.5 100.455
4239.5 124.636
4240.5 106
4241.5 122.545
4242.5 96.9091
4243.5 142.818
4244.5 64.5454
4245.5 100.909
4246.5 102.182
4247.5 58.9091
4248.5 45.7273
4249.5 52.1818
4250.5 76.4545
4251.5 53.2727
4252.5 66.9091
4253.5 82
4254.5 111.727
4255.5 126.545
4256.5 94.2727
4257.5 108.909
4258.5 158.727
4259.5 143.636
4260.5 123.455
4261.5 113.818
4262.5 78.8182
4263.5 126.727
4264.5 103.273
4265.5 88.6363
4266.5 95.4545
4267.5 104.364
4268.5 78.6364
4269.5 75.3636
4270.5 81
4271.5 131.818
4272.5 152.545
4273.5 213
4274.5 246.818
4275.5 249.455
4276.5 266.636
4277.5 216.182
4278.5 87.2727
4279.5 129.273
4280.5 129.727
4281.5 105.273
4282.5 164
4283.5 126.818
4284.5 127.636
4285.5 150.182
4286.5 99.2727
4287.5 109.727
4288.5 161
4289.5 62
4290.5 84.8182
4291.5 72
4292.5 86.5454
4293.5 55.4545
4294.5 94.8182
4295.5 115.545
4296.5 100.818
4297.5 75.0909
4298.5 92
4299.5 93.6364
4300.5 114.182
4301.5 69.0909
4302.5 44.3636
4303.5 82.5454
4304.5 87
4305.5 73.2727
4306.5 40.2727
4307.5 87.6364
4308.5 56.8182
4309.5 124.909
4310.5 68
4311.5 116.091
4312.5 127.909
4313.5 57.1818
4314.5 160.455
4315.5 138.455
4316.5 182.636
4317.5 260.364
4318.5 200.545
4319.5 119.182
4320.5 121.364
4321.5 142.727
4322.5 91.3636
4323.5 61.3636
4324.5 106.091
4325.5 82.1818
4326.5 61.2727
4327.5 105.091
4328.5 82.4545
4329.5 120
4330.5 47.1818
4331.5 109.455
4332.5 107.545
4333.5 81.6364
4334.5 88
4335.5 85.0909
4336.5 145.182
4337.5 106.545
4338.5 101
4339.5 97.3636
4340.5 54.2727
4341.5 56.1818
4342.5 87.2727
4343.5 102.636
4344.5 88
4345.5 77.1818
4346.5 97.9091
4347.5 47.7273
4348.5 73.0909
4349.5 97.2727
4350.5 109.909
4351.5 98.3636
4352.5 85.9091
4353.5 43.3636
4354.5 79.3636
4355.5 109.909
4356.5 102.182
4357.5 86.3636
4358.5 94.6364
4359.5 83.5454
4360.5 146.818
4361.5 133
4362.5 93.7273
4363.5 110.545
4364.5 111
4365.5 85.1818
4366.5 83.4545
4367.5 93.2727
4368.5 41.4545
4369.5 127
4370.5 101.727
4371.5 62.4545
4372.5 92
4373.5 107.727
4374.5 62.5454
4375.5 146.364
4376.5 97.3636
4377.5 102.182
4378.5 59.0909
4379.5 131.273
4380.5 195.455
4381.5 79.8182
4382.5 122.545
4383.5 135.364
4384.5 83.6363
4385.5 42.4545
4386.5 131.273
4387.5 104.909
4388.5 151.091
4389.5 291.545
4390.5 201.545
4391.5 270.091
4392.5 284.273
4393.5 195.545
4394.5 141.818
4395.5 87.1818
4396.5 74.4545
4397.5 81
4398.5 61.1818
4399.5 59
4400.5 81.3636
4401.5 42.2727
4402.5 66.8182
4403.5 101.818
4404.5 62.9091
4405.5 64.3636
4406.5 71
4407.5 53
4408.5 86
4409.5 79.5454
4410.5 96.8182
4411.5 76.8182
4412.5 102.455
4413.5 63.9091
4414.5 126
4415.5 122.727
4416.5 125.091
4417.5 98.4545
4418.5 77.9091
4419.5 81.5454
4420.5 36.6364
4421.5 19.2727
4422.5 97.6364
4423.5 84.2727
4424.5 37.8182
4425.5 45.1818
4426.5 62.9091
4427.5 46.2727
4428.5 100.455
4429.5 83
4430.5 66.0909
4431.5 107.273
4432.5 103.636
4433.5 96.4545
4434.5 111.636
4435.5 94.4545
4436.5 120.545
4437.5 99.5454
4438.5 74.0909
4439.5 57.9091
4440.5 48.8182
4441.5 69.0909
4442.5 50.9091
4443.5 99.7273
4444.5 61.3636
4445.5 82.0909
4446.5 51.9091
4447.5 30.8182
4448.5 98.0909
4449.5 89.9091
4450.5 40.9091
4451.5 57.4545
4452.5 34.7273
4453.5 114.636
4454.5 125.455
4455.5 210.364
4456.5 290.727
4457.5 475.455
4458.5 767.455
4459.5 1020.73
4460.5 1353.27
4461.5 1421.36
4462.5 1075.64
4463.5 659.455
4464.5 266.636
4465.5 158.636
4466.5 117.636
4467.5 67.7273
4468.5 60.8182
4469.5 97.6364
4470.5 63.2727
4471.5 137.636
4472.5 92.3636
4473.5 100.909
4474.5 155.636
4475.5 84.7273
4476.5 122.818
4477.5 119.364
4478.5 126.818
4479.5 114.818
4480.5 32.9091
4481.5 94.8182
4482.5 68.5454
4483.5 69.5454
4484.5 10.2727
4485.5 50.3636
4486.5 80.6364
4487.5 81.3636
4488.5 43.9091
4489.5 73.3636
4490.5 71
4491.5 57.6364
4492.5 66.0909
4493.5 56.8182
4494.5 87.9091
4495.5 54.8182
4496.5 21.3636
4497.5 68.7273
4498.5 51.4545
4499.5 77.5454
4500.5 50.2727
4501.5 48.6364
4502.5 31.8182
4503.5 118.909
4504.5 40.5454
4505.5 39
4506.5 40.4545
4507.5 60
4508.5 87.7273
4509.5 46
4510.5 87.7273
4511.5 49.6364
4512.5 51.0909
4513.5 31.5454
4514.5 29.7273
4515.5 76.7273
4516.5 108.636
4517.5 121.909
4518.5 109.273
4519.5 109.455
4520.5 103.091
4521.5 90.9091
4522.5 96.6364
4523.5 97.6364
4524.5 98.3636
4525.5 99.6364
4526.5 79.4545
4527.5 54.1818
4528.5 121.455
4529.5 44.8182
4530.5 88.1818
4531.5 108.455
4532.5 97.6364
4533.5 84.7273
4534.5 71.5454
4535.5 55.8182
4536.5 34.4545
4537.5 62
4538.5 56.6364
4539.5 44.0909
4540.5 73.1818
4541.5 16.9091
4542.5 60.0909
4543.5 43.1818
4544.5 76.4545
4545.5 64.6364
4546.5 88.7273
4547.5 106.818
4548.5 92.9091
4549.5 135.273
4550.5 92.7273
4551.5 121.727
4552.5 115.273
4553.5 117.364
4554.5 126.273
4555.5 101.455
4556.5 68.1818
4557.5 148.091
4558.5 167.273
4559.5 126.182
4560.5 179.636
4561.5 225.727
4562.5 440.364
4563.5 596.091
4564.5 695.182
4565.5 737.545
4566.5 467.909
4567.5 297.818
4568.5 178.182
4569.5 137.273
4570.5 85.7273
4571.5 76.2727
4572.5 96.7273
4573.5 79.6364
4574.5 55.9091
4575.5 7.18181
4576.5 35.9091
4577.5 90.8182
4578.5 69.8182
4579.5 43.2727
4580.5 53.2727
4581.5 54.9091
4582.5 121.727
4583.5 101
4584.5 39.4545
4585.5 42.3636
4586.5 78.6364
4587.5 89.1818
4588.5 62.4545
4589.5 41
4590.5 64.6364
4591.5 124
4592.5 61.8182
4593.5 67.1818
4594.5 82.4545
4595.5 38.4545
4596.5 103.364
4597.5 92.5454
4598.5 64.1818
4599.5 58
4600.5 22.9091
4601.5 60
4602.5 39.4545
4603.5 37.9091
4604.5 28
4605.5 79.6364
4606.5 77
4607.5 66.0909
4608.5 47.1818
4609.5 50.6364
4610.5 70.3636
4611.5 48.6364
4612.5 78.7273
4613.5 43.5454
4614.5 94.6364
4615.5 61.7273
4616.5 3.63635
4617.5 32.6363
4618.5 118.182
4619.5 96.2727
4620.5 77.5454
4621.5 50.0909
4622.5 60.8182
4623.5 157.091
4624.5 94.8182
4625.5 123
4626.5 117.273
4627.5 66.8182
4628.5 123.909
4629.5 74.1818
4630.5 85.2727
4631.5 89.6364
4632.5 125.091
4633.5 131.364
4634.5 130
4635.5 138.545
4636.5 118
4637.5 107.636
4638.5 108.818
4639.5 100.636
4640.5 111
4641.5 96.5454
4642.5 62.3636
4643.5 69.7273
4644.5 82.9091
4645.5 74.0909
4646.5 83.2727
4647.5 81.5454
4648.5 61.2727
4649.5 48.6364
4650.5 64.3636
4651.5 65.8182
4652.5 26.9091
4653.5 37.5454
4654.5 81.1818
4655.5 101.727
4656.5 118.091
4657.5 87.4545
4658.5 82.2727
4659.5 118.636
4660.5 78.6364
4661.5 52.5454
4662.5 90.5454
4663.5 69.0909
4664.5 65.9091
4665.5 38.9091
4666.5 49.1818
4667.5 67.8182
4668.5 61.3636
4669.5 60.6364
4670.5 87.5454
4671.5 41.5454
4672.5 68.8182
4673.5 15.8182
4674.5 69.7273
4675.5 68.3636
4676.5 74.6364
4677.5 59.0909
4678.5 22.1818
4679.5 111.455
4680.5 36.2727
4681.5 68.9091
4682.5 90.7273
4683.5 71.9091
4684.5 62
4685.5 107.818
4686.5 68.2727
4687.5 67.6364
4688.5 77.7273
4689.5 55.7273
4690.5 45.5454
4691.5 68.3636
4692.5 70.2727
4693.5 59.4545
4694.5 80.5454
4695.5 118.545
4696.5 70.1818
4697.5 77.0909
4698.5 36
4699.5 51.4545
4700.5 80.2727
4701.5 110.364
4702.5 65.7273
4703.5 66.1818
4704.5 73.2727
4705.5 90
4706.5 89.8182
4707.5 68.4545
4708.5 104.545
4709.5 107.545
4710.5 129.636
4711.5 160.182
4712.5 143.818
4713.5 188.273
4714.5 98.9091
4715.5 101.273
4716.5 106.909
4717.5 72
4718.5 50
4719.5 76.9091
4720.5 60.3636
4721.5 30.5454
4722.5 59
4723.5 104.545
4724.5 92.3636
4725.5 62.0909
4726.5 48.6364
4727.5 37.3636
4728.5 56.6364
4729.5 51
4730.5 60.3636
4731.5 51.9091
4732.5 28.1818
4733.5 87.7273
4734.5 100.091
4735.5 62.1818
4736.5 95.6364
4737.5 98.6364
4738.5 99
4739.5 51.8182
4740.5 96
4741.5 40.4545
4742.5 98.1818
4743.5 78.8182
4744.5 92.6364
4745.5 57
4746.5 131.455
4747.5 175.273
4748.5 149.909
4749.5 100.909
4750.5 102.818
4751.5 71.9091
4752.5 59.6363
4753.5 18.3636
4754.5 15.4545
4755.5 27.6364
4756.5 81.2727
4757.5 39.8182
4758.5 93.4545
4759.5 35.8182
4760.5 46.2727
4761.5 72
4762.5 69.3636
4763.5 74.2727
4764.5 31.5454
4765.5 59.5454
4766.5 70.1818
4767.5 66.2727
4768.5 64.6364
4769.5 118.455
4770.5 86.5454
4771.5 96.9091
4772.5 39.0909
4773.5 73.7273
4774.5 49.3636
4775.5 66
4776.5 70.3636
4777.5 24.5454
4778.5 80.8182
4779.5 64.9091
4780.5 45
4781.5 112.273
4782.5 68.9091
4783.5 72.8182
4784.5 59.5454
4785.5 60.0909
4786.5 47.1818
4787.5 39.2727
4788.5 77.1818
4789.5 84
4790.5 48.9091
4791.5 100.727
4792.5 60.2727
4793.5 68.1818
4794.5 90.1818
4795.5 48.8182
4796.5 70.0909
4797.5 45.2727
4798.5 69.7273
4799.5 54.2727
4800.5 60.7273
4801.5 85.7273
4802.5 51.6364
4803.5 17.2727
4804.5 23.2727
4805.5 94.3636
4806.5 52.9091
4807.5 48.5454
4808.5 66.9091
4809.5 74.9091
4810.5 39.0909
4811.5 101.818
4812.5 39
4813.5 107.455
4814.5 99.2727
4815.5 78.3636
4816.5 72.0909
4817.5 92.7273
4818.5 35.1818
4819.5 59.9091
4820.5 48.9091
4821.5 67.0909
4822.5 90
4823.5 45.1818
4824.5 51.7273
4825.5 36.7273
4826.5 59.7273
4827.5 22.1818
4828.5 42.2727
4829.5 9.18181
4830.5 80.5454
4831.5 31.3636
4832.5 56
4833.5 61.8182
4834.5 21
4835.5 30.9091
4836.5 69.0909
4837.5 42.1818
4838.5 99.7273
4839.5 63.7273
4840.5 122.182
4841.5 108.545
4842.5 122.636
4843.5 136.091
4844.5 119.909
4845.5 137.727
4846.5 122.364
4847.5 87.3636
4848.5 90.4545
4849.5 45.0909
4850.5 56.0909
4851.5 65.3636
4852.5 92.2727
4853.5 33.3636
4854.5 54.7273
4855.5 52.4545
4856.5 64.4545
4857.5 65.0909
4858.5 46.3636
4859.5 74.5454
4860.5 73.7273
4861.5 34.8182
4862.5 50.3636
4863.5 64.3636
4864.5 66.9091
4865.5 77.4545
4866.5 63.7273
4867.5 89.2727
4868.5 78.1818
4869.5 88.1818
4870.5 45.6364
4871.5 102.364
4872.5 89.8182
4873.5 75.5454
4874.5 42.5454
4875.5 134
4876.5 120.727
4877.5 65.9091
4878.5 120.909
4879.5 147.636
4880.5 101.455
4881.5 118.091
4882.5 156.727
4883.5 165.455
4884.5 144.273
4885.5 125.273
4886.5 159.455
4887.5 110.818
4888.5 123.545
4889.5 89.4545
4890.5 88.9091
4891.5 48.5454
4892.5 52.4545
4893.5 89.6364
4894.5 69.8182
4895.5 25.0909
4896.5 47.4545
4897.5 83.5454
4898.5 53.1818
4899.5 41.3636
4900.5 72
4901.5 73.6364
4902.5 61.9091
4903.5 54.4545
4904.5 68.5454
4905.5 99.3636
4906.5 56.9091
4907.5 74.6364
4908.5 73.6364
4909.5 50.8182
4910.5 60.3636
4911.5 42.8182
4912.5 89.6364
4913.5 52.4545
4914.5 89.8182
4915.5 71.9091
4916.5 87.7273
4917.5 109.545
4918.5 82.7273
4919.5 126.818
4920.5 61.2727
4921.5 109.636
4922.5 66.7273
4923.5 59.1818
4924.5 76.6364
4925.5 55.3636
4926.5 63.6364
4927.5 25.3636
4928.5 34.0909
4929.5 73.0909
4930.5 87.6364
4931.5 58.5454
4932.5 65.4545
4933.5 86.3636
4934.5 67.1818
4935.5 92.4545
4936.5 86.8182
4937.5 91
4938.5 14.7273
4939.5 66.9091
4940.5 40.5454
4941.5 39.4545
4942.5 38.5454
4943.5 38.9091
4944.5 30.8182
4945.5 77.6364
4946.5 41.4545
4947.5 38
4948.5 78
4949.5 64.9091
4950.5 41.9091
4951.5 38.3636
4952.5 75
4953.5 57.2727
4954.5 114.545
4955.5 41.2727
4956.5 67.0909
4957.5 30
4958.5 119.091
4959.5 35.1818
4960.5 78.5454
4961.5 79.2727
4962.5 73.8182
4963.5 41.3636
4964.5 95
4965.5 104.818
4966.5 78.2727
4967.5 90.7273
4968.5 30.1818
4969.5 71.6364
4970.5 63.7273
4971.5 94.1818
4972.5 65.9091
4973.5 71.4545
4974.5 35.8182
4975.5 98.4545
4976.5 72.0909
4977.5 65.7273
4978.5 26.5454
4979.5 76
4980.5 100.455
4981.5 160.727
4982.5 135.727
4983.5 188.455
4984.5 95.9091
4985.5 106.091
4986.5 95.9091
4987.5 97.9091
4988.5 31.7273
4989.5 38.0909
4990.5 59.2727
4991.5 68.1818
4992.5 18.5454
4993.5 67.0909
4994.5 65.6364
4995.5 72.3636
4996.5 28.5454
4997.5 44.4545
4998.5 59.9091
4999.5 43.5454
5000.5 91.8182
5001.5 72.6364
5002.5 42.9091
5003.5 10.2727
5004.5 53.5454
5005.5 64.0909
5006.5 47.0909
5007.5 34.4545
5008.5 30.3636
5009.5 79.0909
5010.5 96.5454
5011.5 98.9091
5012.5 76.8182
5013.5 146.091
5014.5 90.8182
5015.5 82.7273
5016.5 78.4545
5017.5 54.9091
5018.5 104.455
5019.5 121
5020.5 121.636
5021.5 122.636
5022.5 109.091
5023.5 104.636
5024.5 146.273
5025.5 68.4545
5026.5 96.2727
5027.5 101.909
5028.5 37.9091
5029.5 83.0909
5030.5 36.2727
5031.5 45.7273
5032.5 33.0909
5033.5 32.5454
5034.5 47.1818
5035.5 11.4545
5036.5 32.7273
5037.5 46.8182
5038.5 76.8182
5039.5 74.5454
5040.5 45.0909
5041.5 40.2727
5042.5 70.9091
5043.5 56.8182
5044.5 71.8182
5045.5 50.0909
5046.5 49.8182
5047.5 9.99999
5048.5 44
5049.5 70.6364
5050.5 64.7273
5051.5 53.8182
5052.5 84.7273
5053.5 69.2727
5054.5 44.7273
5055.5 76.9091
5056.5 60.7273
5057.5 65.7273
5058.5 65.2727
5059.5 76.9091
5060.5 58.5454
5061.5 78.2727
5062.5 76.1818
5063.5 64.6364
5064.5 72.7273
5065.5 82.0909
5066.5 23.3636
5067.5 93.6364
5068.5 104.636
5069.5 69.0909
5070.5 85.2727
5071.5 74.6364
5072.5 51.0909
5073.5 114.909
5074.5 80.4545
5075.5 113.909
5076.5 86.8182
5077.5 66.8182
5078.5 111.364
5079.5 81.4545
5080.5 32.4545
5081.5 93.7273
5082.5 59.5454
5083.5 56.4545
5084.5 63.2727
5085.5 93.2727
5086.5 34.1818
5087.5 16.4545
5088.5 58.3636
5089.5 45.9091
5090.5 105.727
5091.5 68.5454
5092.5 67.1818
5093.5 47.4545
5094.5 33.4545
5095.5 37.9091
5096.5 81.4545
5097.5 98.3636
5098.5 76.1818
5099.5 101.455
5100.5 33.7273
5101.5 58.3636
5102.5 62.6363
5103.5 71.3636
5104.5 28.6364
5105.5 93.9091
5106.5 66.3636
5107.5 18.5454
5108.5 38.4545
5109.5 42.8182
5110.5 41.7273
5111.5 33.2727
5112.5 94.8182
5113.5 55.5454
5114.5 48.9091
5115.5 65.3636
5116.5 46.9091
5117.5 89.8182
5118.5 28.5454
5119.5 76
5120.5 117.455
5121.5 105.091
5122.5 82.7273
5123.5 95.3636
5124.5 77.0909
5125.5 74.5454
5126.5 82.0909
5127.5 77.7273
5128.5 94.5454
5129.5 70.4545
5130.5 84.9091
5131.5 64.9091
5132.5 98.6364
5133.5 145.636
5134.5 110.091
5135.5 161.273
5136.5 173.545
5137.5 161.909
5138.5 136.364
5139.5 80.3636
5140.5 47.6364
5141.5 75.7273
5142.5 78.4545
5143.5 52.5454
5144.5 37.6364
5145.5 -1.45455
5146.5 70.4545
5147.5 63.0909
5148.5 27.7273
5149.5 96.6364
5150.5 52
5151.5 117.273
5152.5 71.6364
5153.5 59
5154.5 75.0909
5155.5 84.7273
5156.5 95.5454
5157.5 131.636
5158.5 113.545
5159.5 99.0909
5160.5 91.7273
5161.5 83.5454
5162.5 79.1818
5163.5 69
5164.5 60.3636
5165.5 51.5454
5166.5 80
5167.5 35.4545
5168.5 81.2727
5169.5 54.6364
5170.5 33.0909
5171.5 30.0909
5172.5 47.5454
5173.5 50.9091
5174.5 53.7273
5175.5 35.9091
5176.5 54.0909
5177.5 66.9091
5178.5 68.7273
5179.5 51.3636
5180.5 55.2727
5181.5 74
5182.5 38.9091
5183.5 73
5184.5 69.9091
5185.5 101.818
5186.5 75.3636
5187.5 112.545
5188.5 56.7273
5189.5 57.4545
5190.5 53.5454
5191.5 68.9091
5192.5 87.2727
5193.5 141.455
5194.5 7.72726
5195.5 137.636
5196.5 47.7273
5197.5 69.4545
5198.5 -6.54547
5199.5 57.5454
5200.5 58.0909
5201.5 77.7273
5202.5 53.1818
5203.5 92.6364
5204.5 70.5454
5205.5 69.9091
5206.5 43.0909
5207.5 74.3636
5208.5 66.6364
5209.5 88.5454
5210.5 45.3636
5211.5 64
5212.5 57.0909
5213.5 76.6364
5214.5 107.182
5215.5 31.4545
5216.5 64.5454
5217.5 62.4545
5218.5 99.0909
5219.5 151.636
5220.5 176
5221.5 284.091
5222.5 326.909
5223.5 370.273
5224.5 326.727
5225.5 255.909
5226.5 117.455
5227.5 109.455
5228.5 76.7273
5229.5 66.9091
5230.5 47.2727
5231.5 79.7273
5232.5 51.7273
5233.5 44.5454
5234.5 71.0909
5235.5 87.5454
5236.5 76.5454
5237.5 36.5454
5238.5 90.6364
5239.5 28.9091
5240.5 86.9091
5241.5 69.8182
5242.5 68.5454
5243.5 48.7273
5244.5 85.5454
5245.5 65.5454
5246.5 23.6364
5247.5 133.364
5248.5 70.8182
5249.5 40.7273
5250.5 62.6364
5251.5 2.18181
5252.5 36.9091
5253.5 15.4545
5254.5 55.7273
5255.5 40.0909
5256.5 60.8182
5257.5 59.0909
5258.5 21.7273
5259.5 47.3636
5260.5 32.7273
5261.5 55
5262.5 21.7273
5263.5 23.6363
5264.5 30.6363
5265.5 24.8182
5266.5 19.5454
5267.5 9.54544
5268.5 36
5269.5 52.1818
5270.5 86
5271.5 51.5454
5272.5 54.2727
5273.5 77.7273
5274.5 76.4545
5275.5 92.6364
5276.5 102.545
5277.5 35.1818
5278.5 72
5279.5 71.5454
5280.5 74.1818
5281.5 76.1818
5282.5 52.0909
5283.5 102.364
5284.5 50.2727
5285.5 65.1818
5286.5 76.8182
5287.5 38.8182
5288.5 64.3636
5289.5 54.4545
5290.5 35.9091
5291.5 19
5292.5 53.9091
5293.5 69.5454
5294.5 86.1818
5295.5 10.4545
5296.5 28.0909
5297.5 37.5454
5298.5 47.9091
5299.5 93.3636
5300.5 39.4545
5301.5 82.9091
5302.5 49.0909
5303.5 25.8182
5304.5 46
5305.5 32
5306.5 61.5454
5307.5 56.8182
5308.5 85.9091
5309.5 31.6364
5310.5 75.8182
5311.5 21.3636
5312.5 64.0909
5313.5 68.6364
5314.5 75
5315.5 70.3636
5316.5 82.1818
5317.5 76.9091
5318.5 60.8182
5319.5 75.4545
5320.5 79.1818
5321.5 47.5454
5322.5 60.8182
5323.5 61
5324.5 55.6364
5325.5 54.7273
5326.5 86.1818
5327.5 86.1818
5328.5 111.364
5329.5 128.182
5330.5 108
5331.5 101.636
5332.5 127.545
5333.5 84.1818
5334.5 70.4545
5335.5 59.0909
5336.5 75.1818
5337.5 41
5338.5 33.6364
5339.5 26
5340.5 17.8182
5341.5 81.2727
5342.5 89.4545
5343.5 32.7273
5344.5 30.3636
5345.5 7.36363
5346.5 36.8182
5347.5 66.1818
5348.5 56.0909
5349.5 105.273
5350.5 99.7273
5351.5 102.091
5352.5 146.455
5353.5 143.818
5354.5 218.364
5355.5 196.636
5356.5 222.909
5357.5 128.364
5358.5 117.182
5359.5 124.364
5360.5 67.3636
5361.5 71.7273
5362.5 62.7273
5363.5 39.4545
5364.5 66.3636
5365.5 84.6364
5366.5 43.5454
5367.5 72.4545
5368.5 73.8182
5369.5 46
5370.5 40
5371.5 38.9091
5372.5 77.1818
5373.5 78.5454
5374.5 58.4545
5375.5 56.2727
5376.5 38.3636
5377.5 31.5454
5378.5 72.9091
5379.5 42.4545
5380.5 74.3636
5381.5 69.2727
5382.5 99.9091
5383.5 52
5384.5 97
5385.5 9.36362
5386.5 64.1818
5387.5 65.1818
5388.5 49
5389.5 48.4545
5390.5 72.9091
5391.5 155.455
5392.5 156.636
5393.5 189
5394.5 159.636
5395.5 302.091
5396.5 243.636
5397.5 273.636
5398.5 341.909
5399.5 132.636
5400.5 130.455
5401.5 82.4545
5402.5 96.0909
5403.5 67.8182
5404.5 93.9091
5405.5 49.6364
5406.5 73.8182
5407.5 43.7273
5408.5 48
5409.5 65.2727
5410.5 65.8182
5411.5 34.3636
5412.5 36.6364
5413.5 46.1818
5414.5 53.0909
5415.5 8.81817
5416.5 68.8182
5417.5 65.8182
5418.5 69.5454
5419.5 50.5454
5420.5 54.2727
5421.5 37.4545
5422.5 34.6364
5423.5 54.8182
5424.5 41.9091
5425.5 51.6364
5426.5 43.1818
5427.5 69.3636
5428.5 44.6364
5429.5 72
5430.5 24.9091
5431.5 58.3636
5432.5 43.9091
5433.5 55.7273
5434.5 43.2727
5435.5 63.1818
5436.5 45.3636
5437.5 40.7273
5438.5 51.7273
5439.5 72.0909
5440.5 63
5441.5 35.5454
5442.5 72.3636
5443.5 46.2727
5444.5 30.2727
5445.5 47.4545
5446.5 46.6364
5447.5 70.0909
5448.5 60.6364
5449.5 40.0909
5450.5 34.5454
5451.5 24.2727
5452.5 67.0909
5453.5 58.0909
5454.5 55.6364
5455.5 49.2727
5456.5 60.9091
5457.5 115
5458.5 40.7273
5459.5 59.8182
5460.5 65.2727
5461.5 24.6364
5462.5 50.2727
5463.5 66.4545
5464.5 58.7273
5465.5 38.5454
5466.5 37.8182
5467.5 71.1818
5468.5 0.18181
5469.5 45.5454
5470.5 68.0909
5471.5 62.9091
5472.5 47.6364
5473.5 45.6364
5474.5 45.0909
5475.5 46.1818
5476.5 53
5477.5 33.3636
5478.5 65.5454
5479.5 43.6364
5480.5 28.7273
5481.5 69.4545
5482.5 7.0909
5483.5 62
5484.5 8.36363
5485.5 32.5454
5486.5 89.4545
5487.5 50.1818
5488.5 88.8182
5489.5 66
5490.5 75.8182
5491.5 40.4545
5492.5 52.4545
5493.5 50.4545
5494.5 33.1818
5495.5 65.8182
5496.5 41.2727
5497.5 59.3636
5498.5 46.9091
5499.5 44.6364
5500.5 61.7273
5501.5 81.3636
5502.5 48.6364
5503.5 39.5454
5504.5 36.8182
5505.5 49.2727
5506.5 37.8182
5507.5 78.2727
5508.5 80.1818
5509.5 67.3636
5510.5 66.5454
5511.5 46.6364
5512.5 65.6364
5513.5 104.818
5514.5 73.1818
5515.5 68.3636
5516.5 91.8182
5517.5 62.7273
5518.5 119.091
5519.5 107.091
5520.5 174.545
5521.5 181.636
5522.5 176
5523.5 174.545
5524.5 172.455
5525.5 115.182
5526.5 118.364
5527.5 84.2727
5528.5 71.9091
5529.5 60.3636
5530.5 15.3636
5531.5 54.6364
5532.5 21.1818
5533.5 70.9091
5534.5 54.4545
5535.5 92.5454
5536.5 77.8182
5537.5 37.7273
5538.5 68.2727
5539.5 73.0909
5540.5 82
5541.5 80.4545
5542.5 91.8182
5543.5 48.0909
5544.5 56
5545.5 69.9091
5546.5 57.4545
5547.5 65.0909
5548.5 43
5549.5 60.8182
5550.5 74.4545
5551.5 88.4545
5552.5 43
5553.5 49.8182
5554.5 73.8182
5555.5 121.545
5556.5 122.182
5557.5 112
5558.5 100.364
5559.5 104.182
5560.5 118
5561.5 80.0909
5562.5 52.2727
5563.5 56.6364
5564.5 54.4545
5565.5 53.6364
5566.5 42.8182
5567.5 51.8182
5568.5 49.7273
5569.5 91.4545
5570.5 12.8182
5571.5 75.3636
5572.5 56.7273
5573.5 51.1818
5574.5 20.0909
5575.5 1.0909
5576.5 34.7273
5577.5 53.5454
5578.5 22.6364
5579.5 59
5580.5 46
5581.5 42.6363
5582.5 11.0909
5583.5 54
5584.5 27.4545
5585.5 13.8182
5586.5 52
5587.5 80
5588.5 23.0909
5589.5 79.6364
5590.5 68.2727
5591.5 59.1818
5592.5 33.4545
5593.5 87.8182
5594.5 81.5454
5595.5 63.5454
5596.5 49.4545
5597.5 120
5598.5 39.4545
5599.5 70.9091
5600.5 80.2727
5601.5 90.4545
5602.5 85.7273
5603.5 71.6364
5604.5 79.1818
5605.5 56.2727
5606.5 30.0909
5607.5 45.2727
5608.5 12.9091
5609.5 74.5454
5610.5 41.4545
5611.5 101.636
5612.5 27.9091
5613.5 47.7273
5614.5 12
5615.5 61.8182
5616.5 32.9091
5617.5 20.5454
5618.5 33.2727
5619.5 41.1818
5620.5 73.6364
5621.5 67
5622.5 14.4545
5623.5 24.7273
5624.5 94.3636
5625.5 76
5626.5 36.8182
5627.5 15.2727
5628.5 76.7273
5629.5 96.9091
5630.5 52.2727
5631.5 54.4545
5632.5 78
5633.5 34.7273
5634.5 44
5635.5 33.7273
5636.5 48
5637.5 41.8182
5638.5 63.8182
5639.5 25.5454
5640.5 56.2727
5641.5 73.3636
5642.5 78.2727
5643.5 59.2727
5644.5 40.8182
5645.5 103.273
5646.5 60.1818
5647.5 59
5648.5 52.5454
5649.5 59.4545
5650.5 20.9091
5651.5 58.7273
5652.5 40.5454
5653.5 36.8182
5654.5 40.4545
5655.5 26.8182
5656.5 24.1818
5657.5 10.8182
5658.5 52.2727
5659.5 64
5660.5 94.3636
5661.5 40.3636
5662.5 58.0909
5663.5 55.5454
5664.5 67.2727
5665.5 84
5666.5 64.3636
5667.5 96.5454
5668.5 86.4545
5669.5 63.2727
5670.5 66.8182
5671.5 93.5454
5672.5 61.9091
5673.5 82.8182
5674.5 52.8182
5675.5 42.8182
5676.5 53.0909
5677.5 56.2727
5678.5 27.7273
5679.5 90.9091
5680.5 38.1818
5681.5 45.0909
5682.5 19
5683.5 59.8182
5684.5 73.0909
5685.5 55.2727
5686.5 57.5454
5687.5 28.7273
5688.5 40.6364
5689.5 73.3636
5690.5 60.7273
5691.5 21.1818
5692.5 82.6364
5693.5 76.3636
5694.5 61.4545
5695.5 78.6364
5696.5 79.4545
5697.5 60.2727
5698.5 103.727
5699.5 35.5454
5700.5 -10.4546
5701.5 36.2727
5702.5 70.4545
5703.5 19.8182
5704.5 35.2727
5705.5 43.6364
5706.5 40.4545
5707.5 42.9091
5708.5 54.0909
5709.5 39.5454
5710.5 57.7273
5711.5 73.5454
5712.5 64.0909
5713.5 48.6364
5714.5 -2.00001
5715.5 69.3636
5716.5 22
5717.5 67.6364
5718.5 40.9091
5719.5 31.2727
5720.5 53.9091
5721.5 58.7273
5722.5 66.8182
5723.5 94.9091
5724.5 41.5454
5725.5 59.2727
5726.5 92.8182
5727.5 66.4545
5728.5 40.4545
5729.5 89.3636
5730.5 101.818
5731.5 76.5454
5732.5 77.2727
5733.5 95.9091
5734.5 101.909
5735.5 37.3636
5736.5 80.3636
5737.5 71.6364
5738.5 46.4545
5739.5 70.8182
5740.5 69.0909
5741.5 29.1818
5742.5 47.2727
5743.5 63.2727
5744.5 56.5454
5745.5 81.2727
5746.5 106.909
5747.5 68.4545
5748.5 31.8182
5749.5 45.5454
5750.5 26.0909
5751.5 65.0909
5752.5 62.7273
5753.5 21.7273
5754.5 43.8182
5755.5 16.8182
5756.5 42.9091
5757.5 19.8182
5758.5 61.4545
5759.5 29.3636
5760.5 75.6364
5761.5 46.5454
5762.5 37.8182
5763.5 65
5764.5 53
5765.5 58.4545
5766.5 34.9091
5767.5 76.5454
5768.5 43.4545
5769.5 38.4545
5770.5 68.6364
5771.5 58.9091
5772.5 40.8182
5773.5 58.9091
5774.5 83.3636
5775.5 47.2727
5776.5 49.9091
5777.5 49.0909
5778.5 55.6364
5779.5 57.0909
5780.5 52
5781.5 75.0909
5782.5 66
5783.5 35.1818
5784.5 71.4545
5785.5 65.7273
5786.5 113.909
5787.5 121.364
5788.5 62.9091
5789.5 138.727
5790.5 50
5791.5 59.1818
5792.5 53.6364
5793.5 72.8182
5794.5 41.5454
5795.5 60.5454
5796.5 66.7273
5797.5 98.0909
5798.5 40.3636
5799.5 51.1818
5800.5 41.2727
5801.5 42
5802.5 27.4545
5803.5 51
5804.5 71.8182
5805.5 51.9091
5806.5 40.1818
5807.5 16.3636
5808.5 74.9091
5809.5 61.3636
5810.5 51.7273
5811.5 42.5454
5812.5 47.3636
5813.5 55.8182
5814.5 46.8182
5815.5 46.2727
5816.5 32.4545
5817.5 51.1818
5818.5 41
5819.5 56.3636
5820.5 56.1818
5821.5 46.8182
5822.5 36.3636
5823.5 29.8182
5824.5 36.6364
5825.5 60.7273
5826.5 60.0909
5827.5 79
5828.5 97.4545
5829.5 101.182
5830.5 85.0909
5831.5 46.4545
5832.5 55.5454
5833.5 64
5834.5 69.1818
5835.5 75.2727
5836.5 91.5454
5837.5 106.455
5838.5 173.455
5839.5 160.182
5840.5 174.818
5841.5 199.818
5842.5 189.455
5843.5 207
5844.5 127.909
5845.5 82.8182
5846.5 94
5847.5 39.5454
5848.5 80.8182
5849.5 21.5454
5850.5 53.4545
5851.5 -2.18182
5852.5 7.63636
5853.5 49
5854.5 50.6364
5855.5 52.5454
5856.5 59.0909
5857.5 48.9091
5858.5 38.6364
5859.5 68.5454
5860.5 58.6364
5861.5 58.4545
5862.5 53.9091
5863.5 82
5864.5 64.4545
5865.5 15.7273
5866.5 42
5867.5 56.8182
5868.5 20.0909
5869.5 49.2727
5870.5 61.0909
5871.5 22.3636
5872.5 59.4545
5873.5 66.8182
5874.5 27
5875.5 63
5876.5 56.0909
5877.5 26.4545
5878.5 45.9091
5879.5 85.8182
5880.5 29.6364
5881.5 49.3636
5882.5 55
5883.5 43.7273
5884.5 59
5885.5 80.9091
5886.5 39.5454
5887.5 59.8182
5888.5 65.7273
5889.5 54.5454
5890.5 66.8182
5891.5 68
5892.5 18.0909
5893.5 79.0909
5894.5 30.1818
5895.5 71.4545
5896.5 50.1818
5897.5 12.5454
5898.5 -1.72733
5899.5 13.909
5900.5 143.636
5901.5 101.818
5902.5 164.273
5903.5 171.727
5904.5 162.455
5905.5 138.545
5906.5 98.2727
5907.5 51
5908.5 34.6364
5909.5 81.1818
5910.5 44.4545
5911.5 30.3636
5912.5 66.1818
5913.5 17.8182
5914.5 40
5915.5 51.4545
5916.5 52.4545
5917.5 24.1818
5918.5 62.3636
5919.5 52.6364
5920.5 68.0909
5921.5 53.4545
5922.5 33.7273
5923.5 44.8182
5924.5 49.9091
5925.5 71.8182
5926.5 49.3636
5927.5 70.7273
5928.5 71.4545
5929.5 40.6364
5930.5 46.4545
5931.5 37.7273
5932.5 62.0909
5933.5 43.2727
5934.5 39.6364
5935.5 43.6364
5936.5 64.8182
5937.5 49.5455
5938.5 29.0909
5939.5 55.6364
5940.5 60.4545
5941.5 46.7273
5942.5 65.2727
5943.5 45.8182
5944.5 72.8182
5945.5 44.2727
5946.5 38.5455
5947.5 76.0909
5948.5 34.1818
5949.5 25.2727
5950.5 67.9091
5951.5 29.5455
5952.5 55.0909
5953.5 55.8182
5954.5 55.6364
5955.5 44.0909
5956.5 37.3636
5957.5 70.1818
5958.5 81.2727
5959.5 87.9091
5960.5 72.6364
5961.5 47.4545
5962.5 71.4545
5963.5 71
5964.5 68.9091
5965.5 104.182
5966.5 85.5454
5967.5 155.455
5968.5 136.818
5969.5 115.727
5970.5 81
5971.5 93.2727
5972.5 45.8182
5973.5 63.8182
5974.5 43.7273
5975.5 34
5976.5 85.2727
5977.5 52.2727
5978.5 51.9091
5979.5 59.2727
5980.5 89.5455
5981.5 79.1818
5982.5 55.7273
5983.5 52.2727
5984.5 33.9091
5985.5 48.4545
5986.5 46.3636
5987.5 44.3636
5988.5 41.4545
5989.5 58
5990.5 37.3636
5991.5 73.8182
5992.5 50.5455
5993.5 73
5994.5 71.4545
5995.5 24.3636
5996.5 46.2727
5997.5 35.0909
5998.5 72.6363
5999.5 63
6000.5 49.2727
6001.5 58.8182
6002.5 39.9091
6003.5 75.7273
6004.5 50
6005.5 73.7273
6006.5 28.9091
6007.5 55.4545
6008.5 48.5455
6009.5 51.8182
6010.5 29.3636
6011.5 47.3636
6012.5 63.7273
6013.5 52.0909
6014.5 52.0909
6015.5 59.3636
6016.5 26.1818
6017.5 67.7273
6018.5 32.4545
6019.5 54.9091
6020.5 79.0909
6021.5 59.9091
6022.5 16.8182
6023.5 74.0909
6024.5 33.9091
6025.5 73
6026.5 64
6027.5 78.2727
6028.5 93.2727
6029.5 122.182
6030.5 201.545
6031.5 247.909
6032.5 319.182
6033.5 438.818
6034.5 358.636
6035.5 385.727
6036.5 269.091
6037.5 213.364
6038.5 116.091
6039.5 70.3636
6040.5 83.6364
6041.5 68.6364
6042.5 51
6043.5 32.8182
6044.5 34.2727
6045.5 29.6364
6046.5 60.9091
6047.5 18.4545
6048.5 29.7273
6049.5 36.0909
6050.5 34.3636
6051.5 64.0909
6052.5 52.5455
6053.5 69.5454
6054.5 63.8182
6055.5 60.3636
6056.5 32.3636
6057.5 67.9091
6058.5 64.2727
6059.5 57.6364
6060.5 64.6364
6061.5 66.2727
6062.5 55.7273
6063.5 31.0909
6064.5 70.3636
6065.5 88.5455
6066.5 71.6364
6067.5 95.3636
6068.5 77.6364
6069.5 86
6070.5 38.5455
6071.5 23.0909
6072.5 57.7273
6073.5 62.3636
6074.5 56.5455
6075.5 27.6364
6076.5 55.1818
6077.5 73.5455
6078.5 50.5455
6079.5 76
6080.5 46
6081.5 62
6082.5 67.1818
6083.5 53.2727
6084.5 56.9091
6085.5 60.9091
6086.5 56.8182
6087.5 30.8182
6088.5 40.8182
6089.5 36.1818
6090.5 60.1818
6091.5 55.8182
6092.5 35.4545
6093.5 33.1818
6094.5 67.9091
6095.5 53.4545
6096.5 50.0909
6097.5 82.3636
6098.5 49.9091
6099.5 49.1818
6100.5 29.8182
6101.5 57.6364
6102.5 31.4545
6103.5 84.1818
6104.5 107.273
6105.5 67.9091
6106.5 48.7273
6107.5 31.6364
6108.5 54.5454
6109.5 38.4545
6110.5 60.2727
6111.5 54.4545
6112.5 46.9091
6113.5 55.1818
6114.5 53.6364
6115.5 84.8182
6116.5 50.7273
6117.5 43.2727
6118.5 52.5454
6119.5 84.1818
6120.5 42.8182
6121.5 54.5454
6122.5 34.2727
6123.5 72
6124.5 -82.5455
6125.5 31.0909
6126.5 25.4545
6127.5 54.7273
6128.5 51
6129.5 63.3636
6130.5 61.9091
6131.5 21.8182
6132.5 58.2727
6133.5 30.3636
6134.5 32.5455
6135.5 69.4545
6136.5 72.0909
6137.5 13
6138.5 56.8182
6139.5 66.2727
6140.5 67.5455
6141.5 65.0909
6142.5 67.9091
6143.5 56.3636
6144.5 46.4545
6145.5 64.2727
6146.5 48.4545
6147.5 61.9091
6148.5 62.8182
6149.5 82.4545
6150.5 62.7273
6151.5 45.2727
6152.5 46
6153.5 55
6154.5 56.1818
6155.5 44.4545
6156.5 19.7273
6157.5 54.2727
6158.5 47.5455
6159.5 32.1818
6160.5 36.8182
6161.5 68.1818
6162.5 64.4545
6163.5 60
6164.5 43.3636
6165.5 43.0909
6166.5 67.0909
6167.5 54.1818
6168.5 48.2727
6169.5 39.2727
6170.5 85.6364
6171.5 47.7273
6172.5 51.8182
6173.5 60.5455
6174.5 46.9091
6175.5 100.091
6176.5 77.1818
6177.5 50.9091
6178.5 102
6179.5 154.364
6180.5 155.545
6181.5 170.455
6182.5 285.091
6183.5 448.273
6184.5 636.818
6185.5 777.727
6186.5 731.455
6187.5 579.909
6188.5 347.545
6189.5 187.455
6190.5 104.909
6191.5 87.8182
6192.5 76.8182
6193.5 120.909
6194.5 37.3636
6195.5 74.7273
6196.5 84.3636
6197.5 69.1818
6198.5 69.6364
6199.5 67.2727
6200.5 80.7273
6201.5 90.5455
6202.5 79.3636
6203.5 63.4545
6204.5 78.7273
6205.5 75.6364
6206.5 63.9091
6207.5 62.0909
6208.5 95.5455
6209.5 96
6210.5 61
6211.5 75.4545
6212.5 70
6213.5 43
6214.5 94.1818
6215.5 70.8182
6216.5 62.8182
6217.5 98.0909
6218.5 77.0909
6219.5 71.6364
6220.5 57.0909
6221.5 82.7273
6222.5 57.0909
6223.5 70.0909
6224.5 84.0909
6225.5 76
6226.5 100.818
6227.5 73.8182
6228.5 68.9091
6229.5 64.3636
6230.5 98.4545
6231.5 82.9091
6232.5 74.9091
6233.5 74.8182
6234.5 61
6235.5 72
6236.5 46.6364
6237.5 94.6364
6238.5 75.5455
6239.5 62.5455
6240.5 66.6364
6241.5 98
6242.5 56.4545
6243.5 89.8182
6244.5 82.7273
6245.5 92.1818
6246.5 67.8182
6247.5 69.9091
6248.5 76.9091
6249.5 58.4545
6250.5 73.9091
6251.5 103.091
6252.5 58.7273
6253.5 93.4545
6254.5 63.6364
6255.5 74.7273
6256.5 81.1818
6257.5 96.5455
6258.5 104.091
6259.5 27.8182
6260.5 100.727
6261.5 71.6364
6262.5 71.8182
6263.5 73.6364
6264.5 57
6265.5 85.1818
6266.5 86.6364
6267.5 86.3636
6268.5 73.2727
6269.5 94.3636
6270.5 93.2727
6271.5 72.6364
6272.5 70.8182
6273.5 77.9091
6274.5 83
6275.5 78.2727
6276.5 116.182
6277.5 60.0909
6278.5 107
6279.5 84.5455
6280.5 84.6364
6281.5 60.8182
6282.5 68.5455
6283.5 84.7273
6284.5 102.182
6285.5 73.7273
6286.5 75.9091
6287.5 80.5455
6288.5 87.6364
6289.5 32.1818
6290.5 62.1818
6291.5 71.1818
6292.5 71.9091
6293.5 69.2727
6294.5 69
6295.5 81.1818
6296.5 67.6364
6297.5 85.9091
6298.5 66.9091
6299.5 74.8182
6300.5 77.3636
6301.5 96.6364
6302.5 76.9091
6303.5 83.0909
6304.5 75.7273
6305.5 102.545
6306.5 65
6307.5 58.7273
6308.5 67.5455
6309.5 62.2727
6310.5 82.8182
6311.5 59
6312.5 55
6313.5 91.1818
6314.5 60.5455
6315.5 92.5455
6316.5 52.8182
6317.5 74.8182
6318.5 85.8182
6319.5 70.4545
6320.5 65.3636
6321.5 62.8182
6322.5 91.6364
6323.5 79.2727
6324.5 98.2727
6325.5 48.2727
6326.5 79.8182
6327.5 62.9091
6328.5 96.3636
6329.5 88.7273
6330.5 87.6364
6331.5 109.091
6332.5 72.3636
6333.5 64.8182
6334.5 59.2727
6335.5 100.091
6336.5 66.2727
6337.5 81.1818
6338.5 84.7273
6339.5 81.3636
6340.5 70.1818
6341.5 72.9091
6342.5 68.7273
6343.5 85.4545
6344.5 54.9091
6345.5 69.2727
6346.5 73.1818
6347.5 70.7273
6348.5 72.2727
6349.5 89.3636
6350.5 67.9091
6351.5 69.0909
6352.5 56.5455
6353.5 58.5455
6354.5 59.8182
6355.5 99.8182
6356.5 86.9091
6357.5 80.8182
6358.5 95.5455
6359.5 96.7273
6360.5 63.0909
6361.5 91.7273
6362.5 99.4545
6363.5 87
6364.5 98
6365.5 89.2727
6366.5 115.364
6367.5 104.455
6368.5 82.1818
6369.5 89.0909
6370.5 98.4545
6371.5 94.8182
6372.5 89.6364
6373.5 85
6374.5 77.9091
6375.5 75.7273
6376.5 96.2727
6377.5 72.7273
6378.5 97.8182
6379.5 84.1818
6380.5 99.1818
6381.5 83.3636
6382.5 86.7273
6383.5 105.818
6384.5 79.1818
6385.5 82.3636
6386.5 80.6364
6387.5 84.0909
6388.5 91.1818
6389.5 96.0909
6390.5 118.364
6391.5 101.545
6392.5 106.455
6393.5 97.3636
6394.5 59.5455
6395.5 94.0909
6396.5 86
6397.5 74.3636
6398.5 67.8182
6399.5 79.9091
6400.5 81.9091
6401.5 92
6402.5 84.3636
6403.5 107.818
6404.5 89.0909
6405.5 82.8182
6406.5 74.1818
6407.5 109.455
6408.5 89.2727
6409.5 65.7273
6410.5 87
6411.5 94.1818
6412.5 84.4545
6413.5 85.7273
6414.5 73.6364
6415.5 92.7273
6416.5 55.9091
6417.5 85.0909
6418.5 86.9091
6419.5 76.3636
6420.5 97.3636
6421.5 50.6364
6422.5 76.6364
6423.5 62.0909
6424.5 63.1818
6425.5 72.4545
6426.5 81.1818
6427.5 75
6428.5 63.8182
6429.5 87
6430.5 109
6431.5 96.8182
6432.5 83.2727
6433.5 92.2727
6434.5 74.3636
6435.5 102.727
6436.5 89
6437.5 107.364
6438.5 104.545
6439.5 102.091
6440.5 128.455
6441.5 88.8182
6442.5 71.1818
6443.5 109.273
6444.5 88.5455
6445.5 86.9091
6446.5 87.6364
6447.5 108.455
6448.5 93
6449.5 104.273
6450.5 116.636
6451.5 88.6364
6452.5 102.273
6453.5 102.273
6454.5 89.8182
6455.5 101.091
6456.5 94.9091
6457.5 89.3636
6458.5 80.7273
6459.5 117.455
6460.5 83.5455
6461.5 87.8182
6462.5 90.6364
6463.5 94.0909
6464.5 103.545
6465.5 84.1818
6466.5 91.4545
6467.5 90.6364
6468.5 97.1818
6469.5 94
6470.5 96.3636
6471.5 110.273
6472.5 99.0909
6473.5 134.545
6474.5 156.545
6475.5 148.091
6476.5 226
6477.5 165.818
6478.5 234
6479.5 251.727
6480.5 242
6481.5 257.909
6482.5 208.545
6483.5 137.545
6484.5 135.636
6485.5 114.455
6486.5 152
6487.5 107.455
6488.5 109.909
6489.5 82.1818
6490.5 80
6491.5 105.273
6492.5 135.455
6493.5 107.818
6494.5 89.6364
6495.5 108
6496.5 79.5455
6497.5 98.1818
6498.5 135.273
6499.5 98.2727
6500.5 80.6364
6501.5 96.3636
6502.5 115.273
6503.5 116.727
6504.5 98.2727
6505.5 79.3636
6506.5 94.0909
6507.5 111.273
6508.5 97.5455
6509.5 103
6510.5 110.545
6511.5 102.364
6512.5 103
6513.5 131.455
6514.5 100.818
6515.5 123.727
6516.5 113.727
6517.5 112.273
6518.5 90.8182
6519.5 87.4545
6520.5 127.636
6521.5 80.7273
6522.5 79.6364
6523.5 104.364
6524.5 107.455
6525.5 102.364
6526.5 119.091
6527.5 94.1818
6528.5 106.182
6529.5 91
6530.5 81.1818
6531.5 112.545
6532.5 74.8182
6533.5 123.455
6534.5 93.3636
6535.5 87.0909
6536.5 122
6537.5 115.182
6538.5 153.182
6539.5 111.182
6540.5 107.455
6541.5 90.4545
6542.5 111.273
6543.5 129.364
6544.5 153.455
6545.5 60
6546.5 113.182
6547.5 74.6364
6548.5 97.7273
6549.5 82
6550.5 107.727
6551.5 97.4545
6552.5 78.2727
6553.5 78.7273
6554.5 91.0909
6555.5 63.5455
6556.5 87.3636
6557.5 59.4545
6558.5 114.182
6559.5 76.3636
6560.5 91.9091
6561.5 87.0909
6562.5 76.1818
6563.5 86.0909
6564.5 96.6364
6565.5 95
6566.5 56.7273
6567.5 68.5454
6568.5 111.909
6569.5 98.2727
6570.5 105.727
6571.5 104.818
6572.5 74.8182
6573.5 97.0909
6574.5 110
6575.5 128.545
6576.5 133.636
6577.5 139.545
6578.5 111.273
6579.5 120.636
6580.5 112
6581.5 93.3636
6582.5 85.9091
6583.5 82.1818
6584.5 93.0909
6585.5 64.8182
6586.5 68.4545
6587.5 69.3636
6588.5 85.1818
6589.5 66.1818
6590.5 78.8182
6591.5 70.7273
6592.5 93.2727
6593.5 87.0909
6594.5 81.5455
6595.5 105.545
6596.5 79.2727
6597.5 83.9091
6598.5 69.5455
6599.5 56.1818
6600.5 64.8182
6601.5 60.5455
6602.5 98.9091
6603.5 68.4545
6604.5 73.8182
6605.5 92
6606.5 68.5455
6607.5 88
6608.5 69.2727
6609.5 51
6610.5 54.2727
6611.5 87.3636
6612.5 87
6613.5 64
6614.5 65.5455
6615.5 69.0909
6616.5 93.8182
6617.5 78.2727
6618.5 78.7273
6619.5 76.6364
6620.5 78.7273
6621.5 88.6364
6622.5 77.7273
6623.5 96.5455
6624.5 87.5455
6625.5 76.5455
6626.5 59.8182
6627.5 53
6628.5 72.4545
6629.5 69.5455
6630.5 83.7273
6631.5 64.5455
6632.5 79.9091
6633.5 77.1818
6634.5 75.9091
6635.5 61.1818
6636.5 66.5455
6637.5 80.4545
6638.5 63.0909
6639.5 73.3636
6640.5 65.7273
6641.5 67.8182
6642.5 43.6364
6643.5 71.2727
6644.5 71.8182
6645.5 85.9091
6646.5 91.0909
6647.5 74.3636
6648.5 77.3636
6649.5 42.2727
6650.5 63.4545
6651.5 63.0909
6652.5 85.9091
6653.5 63.1818
6654.5 85.1818
6655.5 79
6656.5 82.0909
6657.5 77.6364
6658.5 65.3636
6659.5 87
6660.5 79.1818
6661.5 89.4545
6662.5 88.1818
6663.5 71.2727
6664.5 72.2727
6665.5 64.3636
6666.5 86.8182
6667.5 51.1818
6668.5 76.3636
6669.5 78.0909
6670.5 61.2727
6671.5 53.7273
6672.5 78.5455
6673.5 61.6364
6674.5 72.8182
6675.5 70.2727
6676.5 67.1818
6677.5 82.0909
6678.5 60.8182
6679.5 95.6364
6680.5 78.7273
6681.5 66.4545
6682.5 96.4545
6683.5 96.7273
6684.5 102.545
6685.5 105.636
6686.5 136.909
6687.5 179.818
6688.5 238.273
6689.5 305.727
6690.5 442
6691.5 643.182
6692.5 891.727
6693.5 1228.18
6694.5 1468
6695.5 1765.82
6696.5 1931.18
6697.5 1960.64
6698.5 1561.09
6699.5 984.636
6700.5 683.091
6701.5 324.455
6702.5 227.182
6703.5 165
6704.5 124.182
6705.5 114.909
6706.5 109.091
6707.5 107.727
6708.5 100.909
6709.5 90.2727
6710.5 101.727
6711.5 77.9091
6712.5 80.8182
6713.5 106.364
6714.5 88.3636
6715.5 62.2727
6716.5 79.0909
6717.5 94.1818
6718.5 70.3636
6719.5 85.4545
6720.5 85.4545
6721.5 117.182
6722.5 98.6364
6723.5 64.2727
6724.5 94
6725.5 94.0909
6726.5 84.9091
6727.5 100.636
6728.5 101.455
6729.5 70.0909
6730.5 87.9091
6731.5 84.5455
6732.5 88.0909
6733.5 87.3636
6734.5 80.9091
6735.5 55.2727
6736.5 107.727
6737.5 79.0909
6738.5 82
6739.5 76.6364
6740.5 99
6741.5 83.6364
6742.5 95
6743.5 101.091
6744.5 90.8182
6745.5 97.2727
6746.5 82.6364
6747.5 92
6748.5 77.6364
6749.5 92.6364
6750.5 70.1818
6751.5 56.3636
6752.5 81.1818
6753.5 91.3636
6754.5 82.3636
6755.5 103.818
6756.5 74.6364
6757.5 81.0909
6758.5 84.7273
6759.5 91.4545
6760.5 100.273
6761.5 94.5455
6762.5 85.0909
6763.5 88.2727
6764.5 74.1818
6765.5 54.5455
6766.5 123.364
6767.5 80.6364
6768.5 85
6769.5 94.3636
6770.5 107.909
6771.5 84.6364
6772.5 76.6364
6773.5 85.2727
6774.5 72
6775.5 63
6776.5 93.6364
6777.5 92.7273
6778.5 109.727
6779.5 86.8182
6780.5 110.455
6781.5 93.0909
6782.5 109.091
6783.5 94.9091
6784.5 89.7273
6785.5 74.0909
6786.5 91.5455
6787.5 80.1818
6788.5 95.5455
6789.5 88.4545
6790.5 64.3636
6791.5 63.6364
6792.5 79.9091
6793.5 83
6794.5 80.1818
6795.5 75.6364
6796.5 90.3636
6797.5 88.0909
6798.5 80.1818
6799.5 74.3636
6800.5 85.3636
6801.5 96
6802.5 88.6364
6803.5 89.4545
6804.5 74.6364
6805.5 95.7273
6806.5 78.6364
6807.5 95.4545
6808.5 78
6809.5 108.818
6810.5 94.9091
6811.5 68.8182
6812.5 102.545
6813.5 91.8182
6814.5 102.364
6815.5 92.2727
6816.5 79.4545
6817.5 107.364
6818.5 76.0909
6819.5 97.5455
6820.5 76.1818
6821.5 102.091
6822.5 74.2727
6823.5 66.5455
6824.5 86.3636
6825.5 82.2727
6826.5 80.2727
6827.5 68.9091
6828.5 61.4545
6829.5 72.5455
6830.5 63.2727
6831.5 63.0909
6832.5 64.7273
6833.5 86.9091
6834.5 97.6364
6835.5 75.5455
6836.5 87.3636
6837.5 105.273
6838.5 98.0909
6839.5 70.3636
6840.5 76.9091
6841.5 90.5455
6842.5 99.7273
6843.5 90.2727
6844.5 112.727
6845.5 107.818
6846.5 73.9091
6847.5 101.909
6848.5 91.5455
6849.5 103.727
6850.5 81.6364
6851.5 97
6852.5 89.9091
6853.5 84.5455
6854.5 87.8182
6855.5 95.5455
6856.5 79.2727
6857.5 78.3636
6858.5 79.5455
6859.5 83.9091
6860.5 85.9091
6861.5 80.7273
6862.5 80.2727
6863.5 83.8182
6864.5 109.636
6865.5 70
6866.5 101
6867.5 87.8182
6868.5 88.1818
6869.5 83.5455
6870.5 77.4545
6871.5 101.364
6872.5 83.7273
6873.5 73.0909
6874.5 95
6875.5 80.2727
6876.5 80
6877.5 78.7273
6878.5 81.0909
6879.5 77
6880.5 102.091
6881.5 101.455
6882.5 87.5455
6883.5 70.5455
6884.5 93.9091
6885.5 102.364
6886.5 102.545
6887.5 80.3636
6888.5 109.455
6889.5 96.2727
6890.5 105.545
6891.5 125.909
6892.5 116.455
6893.5 128.545
6894.5 117
6895.5 136.909
6896.5 89.6364
6897.5 94.5455
6898.5 111
6899.5 86.4545
6900.5 86.7273
6901.5 72.7273
6902.5 60.0909
6903.5 89.2727
6904.5 81.8182
6905.5 121.909
6906.5 85.6364
6907.5 82.9091
6908.5 80.9091
6909.5 75.9091
6910.5 77.2727
6911.5 94.9091
6912.5 73.0909
6913.5 81.9091
6914.5 120.364
6915.5 101.182
6916.5 84.9091
6917.5 102.727
6918.5 85.9091
6919.5 75.6364
6920.5 86.0909
6921.5 82.4545
6922.5 113.182
6923.5 101.909
6924.5 96.8182
6925.5 108.455
6926.5 119
6927.5 97
6928.5 109.818
6929.5 108.455
6930.5 85.1818
6931.5 96.0909
6932.5 120.545
6933.5 84.8182
6934.5 82
6935.5 84.8182
6936.5 58.7273
6937.5 125.818
6938.5 92.6364
6939.5 82.7273
6940.5 89.5455
6941.5 96.7273
6942.5 110.364
6943.5 84.9091
6944.5 109.091
6945.5 84.6364
6946.5 76.9091
6947.5 119.273
6948.5 116
6949.5 104.364
6950.5 109.364
6951.5 103.455
6952.5 103.455
6953.5 100
6954.5 109
6955.5 88.4545
6956.5 103.273
6957.5 120.364
6958.5 94
6959.5 118.636
6960.5 84.2727
6961.5 91
6962.5 106.364
6963.5 91.3636
6964.5 62
6965.5 92.6364
6966.5 88.2727
6967.5 73.7273
6968.5 101.636
6969.5 94.4545
6970.5 93.5455
6971.5 100.909
6972.5 95.4545
6973.5 92
6974.5 74
6975.5 89
6976.5 65.2727
6977.5 94.3636
6978.5 98.6364
6979.5 64.2727
6980.5 74.4545
6981.5 77.2727
6982.5 95.4545
6983.5 74.5455
6984.5 82.7273
6985.5 115.636
6986.5 51.5455
6987.5 79.9091
6988.5 108.727
6989.5 66.1818
6990.5 92.1818
6991.5 80.3636
6992.5 76.6364
6993.5 83.2727
6994.5 77.8182
6995.5 101
6996.5 100.364
6997.5 65.8182
6998.5 69.7273
6999.5 78.3636
7000.5 104.182
7001.5 70.4545
7002.5 98.0909
7003.5 79.4545
7004.5 74.6364
7005.5 84.7273
7006.5 101.364
7007.5 90.6364
7008.5 75.6364
7009.5 89.6364
7010.5 65.6364
7011.5 68.9091
7012.5 68.6364
7013.5 101.818
7014.5 78.6364
7015.5 99.7273
7016.5 79.6364
7017.5 68.9091
7018.5 87.0909
7019.5 80.2727
7020.5 86.0909
7021.5 77
7022.5 100.636
7023.5 70
7024.5 91.5455
7025.5 83.5455
7026.5 63
7027.5 59.6364
7028.5 75.1818
7029.5 77.7273
7030.5 80
7031.5 77.4545
7032.5 77.7273
7033.5 85.6364
7034.5 71.2727
7035.5 60
7036.5 73.4545
7037.5 77.7273
7038.5 77.3636
7039.5 62.4545
7040.5 94
7041.5 80.3636
7042.5 71.1818
7043.5 75.3636
7044.5 58.5455
7045.5 62.1818
7046.5 64.5455
7047.5 76.8182
7048.5 92.3636
7049.5 66.5455
7050.5 67.8182
7051.5 64.5455
7052.5 82.2727
7053.5 77.1818
7054.5 66.0909
7055.5 72.4545
7056.5 72.8182
7057.5 59.8182
7058.5 66.1818
7059.5 67
7060.5 38.0909
7061.5 56.5455
7062.5 57.2727
7063.5 68.9091
7064.5 52
7065.5 58.3636
7066.5 51.5455
7067.5 52.4545
7068.5 74.4545
7069.5 52.8182
7070.5 72.9091
7071.5 73.2727
7072.5 61.0909
7073.5 58.4545
7074.5 35.4545
7075.5 72
7076.5 56.3636
7077.5 62.6364
7078.5 60
7079.5 77.5455
7080.5 56.4545
7081.5 52.8182
7082.5 70
7083.5 56.9091
7084.5 46.6364
7085.5 52.3636
7086.5 50.3636
7087.5 56.9091
7088.5 41.6364
7089.5 50
7090.5 38.7273
7091.5 53.8182
7092.5 58.8182
7093.5 39
7094.5 36.8182
7095.5 48.2727
7096.5 25.3636
7097.5 45.8182
7098.5 55.7273
7099.5 67.1818
7100.5 43.3636
7101.5 50.5455
7102.5 38.0909
7103.5 57.7273
7104.5 41.5455
7105.5 36.4545
7106.5 40.4545
7107.5 39.3636
7108.5 37.6364
7109.5 47.1818
7110.5 23.2727
7111.5 35.4545
7112.5 39.3636
7113.5 40.9091
7114.5 26
7115.5 25
7116.5 23.7273
7117.5 44.4545
7118.5 28.7273
7119.5 36.2727
7120.5 27.1818
7121.5 27.0909
7122.5 32.3636
7123.5 27.0909
7124.5 50.3636
7125.5 24.0909
7126.5 26.3636
7127.5 43.9091
7128.5 28.6364
7129.5 33
7130.5 47.9091
7131.5 43.6364
7132.5 31.7273
7133.5 29.6364
7134.5 27.0909
7135.5 35.6364
7136.5 25.7273
7137.5 28.4545
7138.5 17.6364
7139.5 55.0909
7140.5 39
7141.5 22.3636
7142.5 37.5455
7143.5 31.4545
7144.5 44.8182
7145.5 22.2727
7146.5 30.7273
7147.5 25.8182
7148.5 24
7149.5 16.9091
7150.5 27.7273
7151.5 31.6364
7152.5 29
7153.5 39.6364
7154.5 20.9091
7155.5 19.6364
7156.5 36.0909
7157.5 10.2727
7158.5 23.1818
7159.5 46.2727
7160.5 17.6364
7161.5 45.1818
7162.5 13.9091
7163.5 19.7273
7164.5 10.2727
7165.5 41.5455
7166.5 27.7273
7167.5 35.4545
7168.5 24.8182
7169.5 24.2727
7170.5 21.0909
7171.5 11
7172.5 30.6364
7173.5 40.8182
7174.5 15
7175.5 28
7176.5 25.4545
7177.5 22.2727
7178.5 23.0909
7179.5 37.4545
7180.5 40.5455
7181.5 31
7182.5 43.0909
7183.5 35.5455
7184.5 30
7185.5 27.0909
7186.5 7.54545
7187.5 36.6364
7188.5 24.7273
7189.5 36.6364
7190.5 36.0909
7191.5 45.6364
7192.5 41.2727
7193.5 29.2727
7194.5 63.3636
7195.5 48.0909
7196.5 58.5455
7197.5 94.9091
7198.5 170.273
7199.5 271.455
7200.5 408.636
7201.5 658.273
7202.5 955.091
7203.5 1460.82
7204.5 1857.73
7205.5 2479.55
7206.5 3116.45
7207.5 3458.45
7208.5 3326.36
7209.5 2687.45
7210.5 1925.18
7211.5 1044.45
7212.5 549.909
7213.5 277.818
7214.5 200.091
7215.5 138.636
7216.5 109.545
7217.5 73.9091
7218.5 72
7219.5 47.6364
7220.5 26.2727
7221.5 44.1818
7222.5 27.1818
7223.5 22.1818
7224.5 43.3636
7225.5 20.9091
7226.5 9.45454
7227.5 7.63636
7228.5 7.63636
7229.5 4.27273
7230.5 15.3636
7231.5 -2.09091
7232.5 -11.4545
7233.5 -10.8182
7234.5 1.45454
7235.5 -11.0909
7236.5 -3.72727
7237.5 8.09091
7238.5 10.8182
7239.5 6.09091
7240.5 15.0909
7241.5 -7.18182
7242.5 8.27273
7243.5 -0.545456
7244.5 5.54545
7245.5 -1.27273
7246.5 12.7273
7247.5 0.454544
7248.5 8.90909
7249.5 -1.45455
7250.5 -8.09091
7251.5 15.5455
7252.5 -4.72727
7253.5 6.81818
7254.5 3.90909
7255.5 0.363634
7256.5 -5.54546
7257.5 -23.0909
7258.5 5.54545
7259.5 -37.5455
7260.5 -52.0909
7261.5 -9.81819
7262.5 -52.1818
7263.5 -40.4546
7264.5 -34.0909
7265.5 -22.5455
7266.5 12.7273
7267.5 -14.2727
7268.5 -16.2727
7269.5 6.18182
7270.5 4.45454
7271.5 -6.45455
7272.5 -15.0909
7273.5 -0.909092
7274.5 -3.09091
7275.5 -13.4545
7276.5 -2.63636
7277.5 1.09091
7278.5 -7.72727
7279.5 -0.727274
7280.5 0.090908
7281.5 17.5455
7282.5 0.454544
7283.5 -3.63636
7284.5 6.54545
7285.5 6.81818
7286.5 -5.09091
7287.5 6.18182
7288.5 -6
7289.5 4.90909
7290.5 -3
7291.5 -8.36364
7292.5 -0.909092
7293.5 -3.54546
7294.5 -1.54546
7295.5 9.72727
7296.5 -0.363638
7297.5 6
7298.5 5.45454
7299.5 -1.04308e-06
7300.5 -5.72727
7301.5 0.818181
7302.5 -8
7303.5 1.18182
7304.5 5.72727
7305.5 1.81818
7306.5 2.90909
7307.5 -3.27273
7308.5 -3.36364
7309.5 3.72727
7310.5 -1.18182
7311.5 5
7312.5 -2.18182
7313.5 2.45454
7314.5 3.63636
7315.5 6
7316.5 8.27273
7317.5 -1.45455
7318.5 0.181816
7319.5 18.5455
7320.5 1.27273
7321.5 -6.54546
7322.5 -16.0909
7323.5 -13.5455
7324.5 -7.90909
7325.5 -2
7326.5 -2.45455
7327.5 1.90909
7328.5 -3
7329.5 -2.54546
7330.5 9.27273
7331.5 5.09091
7332.5 -5.81818
7333.5 -2.90909
7334.5 -4.18182
7335.5 -4.63636
7336.5 8.36364
7337.5 9.18182
7338.5 3
7339.5 -1.27273
7340.5 -1.04308e-06
7341.5 -12.8182
7342.5 12.4545
7343.5 10.5455
7344.5 -3.90909
7345.5 -3.36364
7346.5 3.81818
7347.5 -1.18182
7348.5 4.18182
7349.5 6.54545
7350.5 -20.4545
7351.5 1.72727
7352.5 -17.2727
7353.5 17.6364
7354.5 1.54545
7355.5 2
7356.5 -2.27273
7357.5 6.36364
7358.5 9
7359.5 8.63636
7360.5 -5.45455
7361.5 4.63636
7362.5 -6.81818
7363.5 -4.45455
7364.5 -6.63636
7365.5 7.45454
7366.5 6.90909
7367.5 2.72727
7368.5 -5.54546
7369.5 -7.72727
7370.5 -1.72727
7371.5 -5.45455
7372.5 -4.90909
7373.5 -4.18182
7374.5 -3.45455
7375.5 1.54545
7376.5 0.090908
7377.5 2.36364
7378.5 16.6364
7379.5 -3
7380.5 1.81818
7381.5 5
7382.5 9.09091
7383.5 0.0909083
7384.5 -4
7385.5 2.54545
7386.5 -4.27273
7387.5 -4.09091
7388.5 -6.54546
7389.5 -2.45455
7390.5 -12.9091
7391.5 0.181817
7392.5 -5.27273
7393.5 -5.81818
7394.5 11.9091
7395.5 2.72727
7396.5 1.63636
7397.5 -11.6364
7398.5 0.181817
7399.5 -0.636364
7400.5 -3
7401.5 3.72727
7402.5 1.63636
7403.5 -23.2727
7404.5 -8.72727
7405.5 0.636363
7406.5 -0.909092
7407.5 0.181817
7408.5 2.54545
7409.5 -9.18182
7410.5 8.09091
7411.5 0.999998
7412.5 0.999998
7413.5 11
7414.5 3.09091
7415.5 12.7273
7416.5 -26.3636
7417.5 -3.54546
7418.5 -4.9091
7419.5 2.72727
7420.5 0.0909061
7421.5 9.54545
7422.5 7.27273
7423.5 3.81818
7424.5 -2.81818
7425.5 4.81818
7426.5 -4.54546
7427.5 -13.7273
7428.5 0.90909
7429.5 5.72727
7430.5 -5.63636
7431.5 6
7432.5 2.27273
7433.5 8.90909
7434.5 3.54545
7435.5 0.636363
7436.5 0.363636
7437.5 0.90909
7438.5 1.81818
7439.5 -4.54546
7440.5 -0.09091
7441.5 10.9091
7442.5 -4.18182
7443.5 12.0909
7444.5 -1.36364
7445.5 -5.09091
7446.5 10.5455
7447.5 5.81818
7448.5 16.7273
7449.5 6.36364
7450.5 -3
7451.5 0.454544
7452.5 1.36364
7453.5 -5.63636
7454.5 3.63636
7455.5 -5.09091
7456.5 13.0909
7457.5 9.09091
7458.5 0.272726
7459.5 11.9091
7460.5 13.9091
7461.5 -10.8182
7462.5 6.90909
7463.5 -8
7464.5 5
7465.5 2.27273
7466.5 0.272726
7467.5 3.18182
7468.5 2.81818
7469.5 0.545454
7470.5 9.36364
7471.5 1.90909
7472.5 -9.27273
7473.5 1.45454
7474.5 2.36364
7475.5 5
7476.5 -0.909092
7477.5 11.1818
7478.5 -1.36364
7479.5 -8.45455
7480.5 1.54545
7481.5 13.7273
7482.5 0.272726
7483.5 13
7484.5 -8
7485.5 6.09091
7486.5 7
7487.5 7.63636
7488.5 6.90909
7489.5 -5.45455
7490.5 1.81818
7491.5 -4.45455
7492.5 4.63636
7493.5 -16.0909
7494.5 7.27273
7495.5 11.7273
7496.5 -13.7273
7497.5 4.36364
7498.5 7
7499.5 24.5455
7500.5 12.9091
7501.5 11.9091
7502.5 -18.1818
7503.5 3.72727
7504.5 -4
7505.5 -6.36364
7506.5 14.5455
7507.5 -8.45455
7508.5 1.45454
7509.5 -12.1818
7510.5 -5.09091
7511.5 -6.54546
7512.5 -0.909092
7513.5 -6.90909
7514.5 1.09091
7515.5 -9.27273
7516.5 -1.54546
7517.5 -10.0909
7518.5 5.36364
7519.5 -4.18182
7520.5 4
7521.5 -3.72727
7522.5 3.27273
7523.5 -7.09091
7524.5 -16.5455
7525.5 14.9091
7526.5 5
7527.5 1.45454
7528.5 3.72727
7529.5 -1.36364
7530.5 1.81818
7531.5 3.36364
7532.5 20
7533.5 -5
7534.5 -7.90909
7535.5 11
7536.5 1.90909
7537.5 -3
7538.5 2.45454
7539.5 -3.45455
7540.5 4.18182
7541.5 -1.72727
7542.5 -0.545455
7543.5 -2.36364
7544.5 -1.27273
7545.5 -10.5455
7546.5 4.81818
7547.5 0.545454
7548.5 -3.18182
7549.5 1.36364
7550.5 1.54545
7551.5 3.45454
7552.5 -1.81818
7553.5 -5.72727
7554.5 -3.36364
7555.5 -0.545455
7556.5 -2.81818
7557.5 9.54545
7558.5 -0.727274
7559.5 -3.90909
7560.5 7.63636
7561.5 -1.54546
7562.5 -3.45455
7563.5 2.36364
7564.5 -7.18182
7565.5 3.54545
7566.5 5.72727
7567.5 -3
7568.5 -3.36364
7569.5 5.63636
7570.5 -7.90909
7571.5 -5.63637
7572.5 2
7573.5 6.90909
7574.5 -8.27273
7575.5 6.36363
7576.5 4.27273
7577.5 -3.18182
7578.5 -4.45455
7579.5 -0.636365
7580.5 12.0909
7581.5 1.81818
7582.5 2.36364
7583.5 -5.18182
7584.5 -14.1818
7585.5 -1
7586.5 3.63636
7587.5 -9.54546
7588.5 -5.72727
7589.5 9.27273
7590.5 -1.90909
7591.5 3.81818
7592.5 9.90909
7593.5 -6.90909
7594.5 3
7595.5 -1.54546
7596.5 -0.181819
7597.5 7.09091
7598.5 9.18182
7599.5 -1
7600.5 7.09091
7601.5 -7.27273
7602.5 -8.90909
7603.5 -8.54546
7604.5 -10.9091
7605.5 4.54545
7606.5 -8.54546
7607.5 6.27273
7608.5 2.72727
7609.5 -0.636364
7610.5 -3.36364
7611.5 -11.0909
7612.5 -3.27273
7613.5 0.727272
7614.5 -3
7615.5 -1.36364
7616.5 -3.63636
7617.5 -1
7618.5 1.90909
7619.5 11.2727
7620.5 2.63636
7621.5 -16.4545
7622.5 -0.181819
7623.5 -2.27273
7624.5 -3.09091
7625.5 -2.54546
7626.5 -7.36364
7627.5 -0.454546
7628.5 -7.27273
7629.5 7.18182
7630.5 -6.18182
7631.5 -3.45455
7632.5 -10.3636
7633.5 8
7634.5 6.81818
7635.5 3
7636.5 4.09091
7637.5 -8.81818
7638.5 6.81818
7639.5 7.54545
7640.5 -3.54546
7641.5 -1.54546
7642.5 -2
7643.5 0.727272
7644.5 -1.27273
7645.5 1.63636
7646.5 -1.72727
7647.5 7
7648.5 -5
7649.5 0.454545
7650.5 1.45454
7651.5 6.45454
7652.5 -7.72727
7653.5 -2.45455
7654.5 -5.96046e-07
7655.5 -3.09091
7656.5 6.18182
7657.5 -9.36364
7658.5 -5.63636
7659.5 1.45454
7660.5 6.27273
7661.5 7.09091
7662.5 -1.72727
7663.5 -1.63636
7664.5 -2.27273
7665.5 -5.81818
7666.5 2.54545
7667.5 8.90909
7668.5 1.81818
7669.5 -4.45455
7670.5 6.45454
7671.5 -1.27273
7672.5 -6.09091
7673.5 3.63636
7674.5 -0.363637
7675.5 -0.363637
7676.5 0.0909085
7677.5 -0.727273
7678.5 3.45455
7679.5 5
7680.5 7.63636
7681.5 -1.45455
7682.5 -0.181819
7683.5 1.81818
7684.5 -1
7685.5 3.81818
7686.5 -4.36364
7687.5 0.363636
7688.5 4.18182
7689.5 -6.27273
7690.5 -0.909091
7691.5 3.63636
7692.5 -1.36364
7693.5 1.63636
7694.5 4.72727
7695.5 -8.18182
7696.5 -2.36364
7697.5 -5.96046e-07
7698.5 -3.63636
7699.5 3.63636
7700.5 1.09091
7701.5 -0.0909095
7702.5 0.727272
7703.5 9.90909
7704.5 13.0909
7705.5 2.27273
7706.5 4
7707.5 0.818181
7708.5 17.4545
7709.5 6.27273
7710.5 -2.09091
7711.5 -4.18182
7712.5 -0.818182
7713.5 -4.54546
7714.5 0.181818
7715.5 -5.45455
7716.5 -3.18182
7717.5 -8.09091
7718.5 4.18182
7719.5 0.454545
7720.5 -7.36364
7721.5 4
7722.5 -1.09091
7723.5 0.272727
7724.5 1.72727
7725.5 7.36364
7726.5 -5.09091
7727.5 2.18182
7728.5 2.18182
7729.5 -5.54545
7730.5 15.6364
7731.5 3.72727
7732.5 6.18182
7733.5 5.18182
7734.5 -5.36364
7735.5 1.45455
7736.5 0.454545
7737.5 -7.81818
7738.5 -0.818182
7739.5 -7.09091
7740.5 -6.18182
7741.5 4.18182
7742.5 7.36364
7743.5 -0.454546
7744.5 -2.45455
7745.5 -3.36364
7746.5 1.90909
7747.5 -1.81818
7748.5 -2.09091
7749.5 3.18182
7750.5 4.36364
7751.5 0.90909
7752.5 1.72727
7753.5 -11.4545
7754.5 2
7755.5 -1.45455
7756.5 2.18182
7757.5 2.45455
7758.5 3.36364
7759.5 -3.54546
7760.5 -4.63636
7761.5 13.3636
7762.5 -9.72727
7763.5 -2.81818
7764.5 -19.3636
7765.5 16.5455
7766.5 -6.63637
7767.5 22.1818
7768.5 -30.4546
7769.5 -25.9091
7770.5 -31.0909
7771.5 -29.4546
7772.5 -47.5455
7773.5 -30.1818
7774.5 -20.4546
7775.5 -14.9091
7776.5 7.18181
7777.5 -25
7778.5 5.09091
7779.5 -3.27273
7780.5 -0.636365
7781.5 5.09091
7782.5 2.45454
7783.5 1.18182
7784.5 4.63636
7785.5 -1.72727
7786.5 7.27273
7787.5 -2.54546
7788.5 3.81818
7789.5 -2.90909
7790.5 5
7791.5 -3.54545
7792.5 -0.181819
7793.5 3.81818
7794.5 2.36364
7795.5 -0.0909094
7796.5 2.90909
7797.5 -6.81818
7798.5 2
7799.5 6.54545
7800.5 -7.18182
7801.5 -2.09091
7802.5 0.363636
7803.5 -4.45455
7804.5 4.90909
7805.5 3
7806.5 -0.636364
7807.5 1.36364
7808.5 -2.63636
7809.5 -0.818182
7810.5 0.272727
7811.5 5.45455
7812.5 0.454545
7813.5 -0.454546
7814.5 -2.72727
7815.5 -2.98023e-07
7816.5 -6.36364
7817.5 -3.18182
7818.5 -0.818182
7819.5 -7.27273
7820.5 2.81818
7821.5 -2.36364
7822.5 -3.27273
7823.5 5.36364
7824.5 -5.18182
7825.5 -1.90909
7826.5 2.36363
7827.5 5.72727
7828.5 -7.09091
7829.5 10
7830.5 4.45454
7831.5 -5.36364
7832.5 7
7833.5 -4.27273
7834.5 -6.54545
7835.5 2.90909
7836.5 -3.81818
7837.5 -1.45455
7838.5 1.90909
7839.5 4.18182
7840.5 -6.45455
7841.5 8.36364
7842.5 0.90909
7843.5 -3
7844.5 2.72727
7845.5 9.36364
7846.5 1.18182
7847.5 8.09091
7848.5 4.90909
7849.5 -4.63636
7850.5 4.72727
7851.5 1.81818
7852.5 1.45455
7853.5 1.18182
7854.5 6.36364
7855.5 0.545454
7856.5 -1.09091
7857.5 -0.636364
7858.5 3.72727
7859.5 -4.72727
7860.5 0.636363
7861.5 4.81818
7862.5 -1.72727
7863.5 -1.27273
7864.5 4.18182
7865.5 10.3636
7866.5 -2.54545
7867.5 -1.09091
7868.5 -1.72727
7869.5 2.72727
7870.5 -4.63636
7871.5 -2.27273
7872.5 -4.63636
7873.5 7.72727
7874.5 1.45455
7875.5 3.36364
7876.5 1.72727
7877.5 -0.454546
7878.5 1.72727
7879.5 6
7880.5 -3.72727
7881.5 -5.18182
7882.5 -0.909091
7883.5 5.54545
7884.5 1
7885.5 2.27273
7886.5 2.27273
7887.5 2.81818
7888.5 -1
7889.5 -2.54545
7890.5 -0.545455
7891.5 -2.18182
7892.5 -2.45455
7893.5 -5.09091
7894.5 0.0909088
7895.5 0.727272
7896.5 0.181818
7897.5 -2.63636
7898.5 8.63636
7899.5 3
7900.5 -6.09091
7901.5 6.18182
7902.5 -0.727273
7903.5 -1.27273
7904.5 6.18182
7905.5 7.63636
7906.5 6.36364
7907.5 -4.36364
7908.5 -0.727273
7909.5 3.45455
7910.5 2.27273
7911.5 0.727273
7912.5 1.18182
7913.5 -2.36364
7914.5 -1.63636
7915.5 0.363636
7916.5 1.27273
7917.5 7.54545
7918.5 -3.36364
7919.5 -2.27273
7920.5 -3.54545
7921.5 -2.09091
7922.5 -2.09091
7923.5 -1
7924.5 -2.09091
7925.5 -6.18182
7926.5 -2
7927.5 0.636363
7928.5 -2.72727
7929.5 2.45455
7930.5 1
7931.5 7.63636
7932.5 0.818182
7933.5 -3.63636
7934.5 2
7935.5 -1.09091
7936.5 6.18182
7937.5 1.63636
7938.5 3.18182
7939.5 4.54545
7940.5 3.36364
7941.5 0.272727
7942.5 -4.54545
7943.5 1
7944.5 1.36364
7945.5 4.72727
7946.5 3.09091
7947.5 -3.45455
7948.5 -3.09091
7949.5 8.63636
7950.5 -2.27273
7951.5 -4.45455
7952.5 2.36364
7953.5 4.72727
7954.5 0.181818
7955.5 -3.09091
7956.5 -0.363637
7957.5 -1.81818
7958.5 3.90909
7959.5 -0.636364
7960.5 1.90909
7961.5 -1.18182
7962.5 -0.727273
7963.5 9.81818
7964.5 2.09091
7965.5 0.727272
7966.5 1.09091
7967.5 4.27273
7968.5 2.09091
7969.5 7.90909
7970.5 5.72727
7971.5 9.90909
7972.5 4.90909
7973.5 -2.09091
7974.5 0.909091
7975.5 -0.181818
7976.5 -0.909091
7977.5 -0.454546
7978.5 -7
7979.5 -8.18182
7980.5 2.54545
7981.5 -0.818182
7982.5 0.818182
7983.5 3.72727
7984.5 -4
7985.5 2.63636
7986.5 -5
7987.5 -1.36364
7988.5 -1
7989.5 0.818182
7990.5 -0.545455
7991.5 -2.81818
7992.5 0.272727
7993.5 -0.727273
7994.5 1.18182
7995.5 5.90909
7996.5 -3.45455
7997.5 -3.18182
7998.5 3.54545
7999.5 4
8000.5 -3.90909
8001.5 1.18182
8002.5 1.72727
8003.5 4.36364
8004.5 4.72727
8005.5 5.90909
8006.5 -4.54545
8007.5 -1.18182
8008.5 5.18182
8009.5 -1.54545
8010.5 1.45455
8011.5 2.09091
8012.5 2.36364
8013.5 -0.727273
8014.5 0.272727
8015.5 3.18182
8016.5 -2.45455
8017.5 1.63636
8018.5 -6.45455
8019.5 4.90909
8020.5 -2.72727
8021.5 3.27273
8022.5 -4.09091
8023.5 -3.72727
8024.5 0.636363
8025.5 3.45455
8026.5 -1.18182
8027.5 1.81818
8028.5 -0.909091
8029.5 0.727273
8030.5 3.45455
8031.5 1.36364
8032.5 1.27273
8033.5 1.09091
8034.5 -2.81818
8035.5 -3.18182
8036.5 6.54545
8037.5 -0.363637
8038.5 -4.18182
8039.5 -0.727273
8040.5 -3.63636
8041.5 -0.727273
8042.5 -2.36364
8043.5 -1.81818
8044.5 4.09091
8045.5 -0.0909092
8046.5 0.727273
8047.5 -1.72727
8048.5 2
8049.5 -3.81818
8050.5 -7
8051.5 -1.49012e-07
8052.5 -1.90909
8053.5 -1.36364
8054.5 -0.0909092
8055.5 2.90909
8056.5 1.18182
8057.5 -1.54545
8058.5 0.727273
8059.5 -2
8060.5 3
8061.5 -2.27273
8062.5 0.0909089
8063.5 0.636363
8064.5 3.90909
8065.5 1.54545
8066.5 -1.72727
8067.5 -1.81818
8068.5 -0.727273
8069.5 -0.181818
8070.5 2.27273
8071.5 -1.63636
8072.5 1.18182
8073.5 -0.181818
8074.5 0.818182
8075.5 4.45455
8076.5 -3.72727
8077.5 2.81818
8078.5 0.545454
8079.5 -3.54546
8080.5 4.81818
8081.5 -8.09091
8082.5 -3.18182
8083.5 -2.09091
8084.5 8.09091
8085.5 -6
8086.5 8.54545
8087.5 -4.90909
8088.5 12.6364
8089.5 4.18182
8090.5 0.545454
8091.5 -9.36364
8092.5 -3.45455
8093.5 5
8094.5 7.63636
8095.5 8.63636
8096.5 7.72727
8097.5 -3.18182
8098.5 -2.63636
8099.5 -1.72727
8100.5 -3.09091
8101.5 0.272727
8102.5 5.54545
8103.5 -2.36364
8104.5 -0.545455
8105.5 -3.27273
8106.5 -0.636364
8107.5 0.181818
8108.5 0.363636
8109.5 1.36364
8110.5 -2.81818
8111.5 -1.36364
8112.5 -1.81818
8113.5 2.09091
8114.5 -0.0909094
8115.5 0.727273
8116.5 0.636363
8117.5 1.45455
8118.5 5.63636
8119.5 -3.09091
8120.5 -1.09091
8121.5 3.63636
8122.5 6.72727
8123.5 -2.54545
8124.5 3.54545
8125.5 4.36364
8126.5 1
8127.5 -4.81818
8128.5 -1.09091
8129.5 -0.909091
8130.5 -2.18182
8131.5 -0.636364
8132.5 1.72727
8133.5 -1.09091
8134.5 1
8135.5 3.27273
8136.5 0.545454
8137.5 -0.363637
8138.5 1.18182
8139.5 4.09091
8140.5 -2.81818
8141.5 3.54545
8142.5 1.63636
8143.5 -3.09091
8144.5 1
8145.5 -0.909091
8146.5 -2.63636
8147.5 2.90909
8148.5 3.54545
8149.5 -2.81818
8150.5 -1.49012e-07
8151.5 0.818182
8152.5 2.45455
8153.5 -0.363637
8154.5 -2.36364
8155.5 -2.45455
8156.5 0.272727
8157.5 -5.63636
8158.5 -2.36364
8159.5 2.54545
8160.5 0.0909089
8161.5 -0.181818
8162.5 3
8163.5 -0.272727
8164.5 2.27273
8165.5 -0.818182
8166.5 -3.09091
8167.5 -4.36364
8168.5 4
8169.5 3.72727
8170.5 -0.0909092
8171.5 -4.81818
8172.5 -0.545455
8173.5 1.18182
8174.5 4.54545
8175.5 3
8176.5 0.181818
8177.5 -1
8178.5 0.636363
8179.5 1
8180.5 -1.63636
8181.5 2.27273
8182.5 5.18182
8183.5 1.45455
8184.5 -5.36364
8185.5 0.636363
8186.5 -1.45455
8187.5 2.45455
8188.5 4.36364
8189.5 -0.272727
8190.5 1.45455
8191.5 0.636363
8192.5 1.54545
8193.5 1.81818
8194.5 -2.09091
8195.5 0.363636
8196.5 2
8197.5 -2.72727
8198.5 5.36364
8199.5 1.72727
8200.5 -3.45455
8201.5 1
8202.5 1.09091
8203.5 -3.45455
8204.5 -2.27273
8205.5 0.727273
8206.5 -2.36364
8207.5 1.54545
8208.5 -2.45455
8209.5 -1.45455
8210.5 1.81818
8211.5 -1.27273
8212.5 1.54545
8213.5 -2.18182
8214.5 -6.27273
8215.5 0.545454
8216.5 2.45455
8217.5 -1
8218.5 4
8219.5 -0.0909094
8220.5 -0.727273
8221.5 -1.18182
8222.5 -2.45455
8223.5 6.90909
8224.5 -3.63636
8225.5 0.636363
8226.5 1.72727
8227.5 -2.90909
8228.5 0.454545
8229.5 -4.27273
8230.5 -2.90909
8231.5 -1
8232.5 4.09091
8233.5 2.63636
8234.5 -4.45455
8235.5 0.545454
8236.5 -1.49012e-07
8237.5 0.0909089
8238.5 1.27273
8239.5 1.54545
8240.5 2.54545
8241.5 -4.90909
8242.5 -1
8243.5 -1.18182
8244.5 2
8245.5 -1.49012e-07
8246.5 -1
8247.5 4.27273
8248.5 2
8249.5 1.72727
8250.5 -2
8251.5 -3.90909
8252.5 -0.818182
8253.5 7.72727
8254.5 -0.545455
8255.5 0.818182
8256.5 -4.45455
8257.5 -1.63636
8258.5 2.27273
8259.5 -0.636364
8260.5 0.545454
8261.5 -3.36364
8262.5 2.09091
8263.5 -1.45455
8264.5 -0.181818
8265.5 1
8266.5 5
8267.5 2
8268.5 -3.90909
8269.5 -1.18182
8270.5 4.36364
8271.5 -0.636364
8272.5 -1.18182
8273.5 0.727273
8274.5 -2.09091
8275.5 2.18182
8276.5 1.27273
8277.5 5
8278.5 -3.27273
8279.5 -1.81818
8280.5 1
8281.5 -4.36364
8282.5 -1.45455
8283.5 -1.45455
8284.5 0.363636
8285.5 3.36364
8286.5 1.72727
8287.5 1.36364
8288.5 -2.09091
8289.5 -3.81818
8290.5 -2
8291.5 0.909091
8292.5 -1.63636
8293.5 -0.181818
8294.5 2.27273
8295.5 -3.90909
8296.5 0.454545
8297.5 1
8298.5 1.54545
8299.5 -2.81818
8300.5 1.36364
8301.5 1
8302.5 0.909091
8303.5 -1.18182
8304.5 2.90909
8305.5 2.09091
8306.5 -3.45455
8307.5 -2.36364
8308.5 -0.272727
8309.5 0.0909089
8310.5 -4.90909
8311.5 -3.45455
8312.5 -1.09091
8313.5 -1.90909
8314.5 3
8315.5 -1.81818
8316.5 -0.363637
8317.5 -1.90909
8318.5 2.36364
8319.5 1.27273
8320.5 1.36364
8321.5 2.36364
8322.5 1.45455
8323.5 -6.18182
8324.5 -0.818182
8325.5 3.45455
8326.5 -0.181818
8327.5 -2.36364
8328.5 3.18182
8329.5 1.45455
8330.5 3.09091
8331.5 14.4545
8332.5 2.36364
8333.5 1.90909
8334.5 -7.36364
8335.5 3.36364
8336.5 -2.90909
8337.5 -6.72727
8338.5 -2.63636
8339.5 3.36364
8340.5 -3.09091
8341.5 -3.18182
8342.5 1.45455
8343.5 0.909091
8344.5 0.727273
8345.5 2.18182
8346.5 -1.27273
8347.5 6.81818
8348.5 1.54545
8349.5 -4.27273
8350.5 1.63636
8351.5 -8
8352.5 0.272727
8353.5 -2.36364
8354.5 5.36364
8355.5 2.36364
8356.5 2.36364
8357.5 4.72727
8358.5 3
8359.5 0.0909089
8360.5 -1.09091
8361.5 4.72727
8362.5 0.181818
8363.5 6.90909
8364.5 5
8365.5 2.90909
8366.5 -0.272727
8367.5 -3.54545
8368.5 -0.181818
8369.5 2
8370.5 -1
8371.5 4.18182
8372.5 -2.63636
8373.5 -3.45455
8374.5 -0.727273
8375.5 1.36364
8376.5 5.27273
8377.5 -0.545455
8378.5 -4.09091
8379.5 0.272727
8380.5 -1.81818
8381.5 -1.18182
8382.5 3.81818
8383.5 -2.81818
8384.5 -0.909091
8385.5 2
8386.5 -1.09091
8387.5 -1.54545
8388.5 4.36364
8389.5 -0.545455
8390.5 -2.09091
8391.5 2.90909
8392.5 1.09091
8393.5 2.36364
8394.5 -3.09091
8395.5 -2.09091
8396.5 -1.09091
8397.5 -0.454546
8398.5 -0.454546
8399.5 2
8400.5 -2.18182
8401.5 1.81818
8402.5 -2.72727
8403.5 -2.09091
8404.5 -0.272727
8405.5 -3
8406.5 1.36364
8407.5 2.54545
8408.5 2.36364
8409.5 -1.90909
8410.5 -1.90909
8411.5 -3.09091
8412.5 -2.18182
8413.5 -1.81818
8414.5 -3.09091
8415.5 -0.545455
8416.5 -1.36364
8417.5 5.54545
8418.5 2.36364
8419.5 -2.36364
8420.5 -3
8421.5 -0.454546
8422.5 -2.18182
8423.5 2.81818
8424.5 -1.09091
8425.5 -0.454546
8426.5 -5.63636
8427.5 -1.90909
8428.5 2.81818
8429.5 0.454545
8430.5 2.81818
8431.5 1
8432.5 -0.636364
8433.5 4.63636
8434.5 4.72727
8435.5 -1
8436.5 5.27273
8437.5 -2
8438.5 -1.54545
8439.5 -0.636364
8440.5 -1.09091
8441.5 -0.727273
8442.5 -1
8443.5 2.90909
8444.5 3.81818
8445.5 -1.49012e-07
8446.5 0.0909089
8447.5 0.363636
8448.5 -0.636364
8449.5 -2.54545
8450.5 -2.09091
8451.5 1.90909
8452.5 -2.63636
8453.5 1.54545
8454.5 -0.909091
8455.5 1.81818
8456.5 -2.54545
8457.5 0.454545
8458.5 -4.90909
8459.5 0.818182
8460.5 5.27273
8461.5 0.727273
8462.5 -1.63636
8463.5 -2.09091
8464.5 3.81818
8465.5 -0.727273
8466.5 -6.63636
8467.5 -3.09091
8468.5 2.09091
8469.5 3.81818
8470.5 -4.72727
8471.5 -2.81818
8472.5 2.81818
8473.5 -4.27273
8474.5 0.545454
8475.5 5.72727
8476.5 -0.454546
8477.5 -1
8478.5 -1.90909
8479.5 0.272727
8480.5 -2.90909
8481.5 -0.272727
8482.5 0.454545
8483.5 4.27273
8484.5 -0.181818
8485.5 -0.0909092
8486.5 -3.09091
8487.5 -1.63636
8488.5 4.90909
8489.5 -1.18182
8490.5 -1.36364
8491.5 1.45455
8492.5 0.454545
8493.5 0.454545
8494.5 2.54545
8495.5 -1.45455
8496.5 -2.81818
8497.5 -3
8498.5 -0.909091
8499.5 -1.90909
8500.5 1.45455
8501.5 1
8502.5 -1.18182
8503.5 -2
8504.5 0.454545
8505.5 -4.90909
8506.5 0.727273
8507.5 -1.63636
8508.5 1.18182
8509.5 -0.636364
8510.5 -2.36364
8511.5 -0.909091
8512.5 -3.36364
8513.5 -0.181818
8514.5 -0.727273
8515.5 1.81818
8516.5 -1.45455
8517.5 -0.363637
8518.5 2.81818
8519.5 -0.272727
8520.5 5.27273
8521.5 -3
8522.5 -0.636364
8523.5 0.363636
8524.5 -1.45455
8525.5 3.36364
8526.5 1.72727
8527.5 3.18182
8528.5 -0.272727
8529.5 -0.636364
8530.5 0.818182
8531.5 -1.54545
8532.5 -0.181818
8533.5 0.909091
8534.5 1.27273
8535.5 -1.09091
8536.5 1.36364
8537.5 -4.81818
8538.5 -1.27273
8539.5 4.36364
8540.5 3.18182
8541.5 -1.90909
8542.5 0.909091
8543.5 -1.54545
8544.5 -0.909091
8545.5 3.45455
8546.5 -1.09091
8547.5 -3.63636
8548.5 -1.09091
8549.5 3.45455
8550.5 0.818182
8551.5 -4.90909
8552.5 1.36364
8553.5 -4
8554.5 1.72727
8555.5 -1.18182
8556.5 -1.49012e-07
8557.5 0.272727
8558.5 0.818182
8559.5 -2.45455
8560.5 -1.18182
8561.5 1.36364
8562.5 -2.90909
8563.5 0.363636
8564.5 1.18182
8565.5 -0.0909092
8566.5 2.27273
8567.5 -0.545455
8568.5 -0.727273
8569.5 -2.81818
8570.5 0.454545
8571.5 -2.90909
8572.5 -0.272727
8573.5 -0.636364
8574.5 -4.45455
8575.5 -0.363637
8576.5 -3.27273
8577.5 -0.545455
8578.5 3.81818
8579.5 0.363636
8580.5 1
8581.5 -0.0909092
8582.5 -0.0909092
8583.5 -1.09091
8584.5 1.45455
8585.5 2
8586.5 2.45455
8587.5 4.81818
8588.5 0.727273
8589.5 -1.54545
8590.5 2.36364
8591.5 -0.0909092
8592.5 -3.54545
8593.5 1.36364
8594.5 -1.09091
8595.5 1
8596.5 -4.90909
8597.5 1.90909
8598.5 -2
8599.5 -1.63636
8600.5 2.27273
8601.5 -2.18182
8602.5 -0.636364
8603.5 2.36364
8604.5 1.72727
8605.5 -3.54545
8606.5 -0.545455
8607.5 0.454545
8608.5 -1.18182
8609.5 -1.18182
8610.5 1.90909
8611.5 2.54545
8612.5 -2.45455
8613.5 -0.545455
8614.5 -0.636364
8615.5 1
8616.5 -2.18182
8617.5 2.27273
8618.5 0.818182
8619.5 0.363636
8620.5 -1.27273
8621.5 -2.18182
8622.5 2.18182
8623.5 0.363636
8624.5 -1.09091
8625.5 -3.09091
8626.5 -3.09091
8627.5 -1
8628.5 2.81818
8629.5 4.63636
8630.5 0.727273
8631.5 2.27273
8632.5 -0.727273
8633.5 4.36364
8634.5 -0.363636
8635.5 -0.636364
8636.5 0.545454
8637.5 1.27273
8638.5 -0.272727
8639.5 0.363636
8640.5 0.727273
8641.5 -0.545455
8642.5 -5.27273
8643.5 2.36364
8644.5 1.63636
8645.5 -1.18182
8646.5 0.727273
8647.5 1.27273
8648.5 -0.363636
8649.5 -0.181818
8650.5 -2.63636
8651.5 1.63636
8652.5 -0.0909092
8653.5 -1
8654.5 3.27273
8655.5 0.363636
8656.5 0.272727
8657.5 -2.54545
8658.5 -0.636364
8659.5 -1.72727
8660.5 0.818182
8661.5 -1.81818
8662.5 -0.272727
8663.5 0.818182
8664.5 -4.09091
8665.5 -2.09091
8666.5 0.636364
8667.5 2.81818
8668.5 -0.0909092
8669.5 2.18182
8670.5 -1.27273
8671.5 0.727273
8672.5 -0.636364
8673.5 -0.545455
8674.5 -2.27273
8675.5 0.363636
8676.5 -0.0909092
8677.5 -3.54545
8678.5 -2.63636
8679.5 -0.727273
8680.5 -1.72727
8681.5 -0.636364
8682.5 -1.49012e-07
8683.5 -3.54545
8684.5 -1.72727
8685.5 2.18182
8686.5 -4.54545
8687.5 -0.636364
8688.5 -2.18182
8689.5 -1.72727
8690.5 -2.09091
8691.5 0.181818
8692.5 -0.181818
8693.5 -3.54545
8694.5 -1.54545
8695.5 1.18182
8696.5 6.27273
8697.5 1.36364
8698.5 -3.18182
8699.5 -1.45455
8700.5 1.63636
8701.5 -2.54545
8702.5 -1.81818
8703.5 -2.45455
8704.5 -3.09091
8705.5 -1.54545
8706.5 2.63636
8707.5 1.18182
8708.5 -0.818182
8709.5 2.27273
8710.5 -3.18182
8711.5 -1.27273
8712.5 -1.45455
8713.5 -4.09091
8714.5 0.818182
8715.5 4.63636
8716.5 -1.18182
8717.5 -1.27273
8718.5 1.45455
8719.5 1.72727
8720.5 1.27273
8721.5 -3.09091
8722.5 -0.181818
8723.5 0.272727
8724.5 -3.54545
8725.5 2.18182
8726.5 -1.63636
8727.5 -1
8728.5 1.81818
8729.5 -2.36364
8730.5 -0.454546
8731.5 -0.818182
8732.5 3.54545
8733.5 -2.81818
8734.5 -5
8735.5 -1
8736.5 -0.0909092
8737.5 -0.636364
8738.5 -4.36364
8739.5 -2.27273
8740.5 -0.727273
8741.5 1.18182
8742.5 3.72727
8743.5 2.09091
8744.5 1.72727
8745.5 0.272727
8746.5 2.81818
8747.5 -2.18182
8748.5 -1.18182
8749.5 -0.181818
8750.5 1.18182
8751.5 1.63636
8752.5 -0.545455
8753.5 2.18182
8754.5 -1.18182
8755.5 -2.09091
8756.5 4.54545
8757.5 1.72727
8758.5 3.63636
8759.5 -0.272727
8760.5 -4.54545
8761.5 -0.727273
8762.5 4.09091
8763.5 2.63636
8764.5 -1.27273
8765.5 0.0909091
8766.5 0.181818
8767.5 0.181818
8768.5 -0.363636
8769.5 -0.454545
8770.5 0.727273
8771.5 -0.181818
8772.5 0.636364
8773.5 0.181818
8774.5 -0.363636
8775.5 2.54545
8776.5 0.0909091
8777.5 -2.09091
8778.5 1.18182
8779.5 0.181818
8780.5 -1.72727
8781.5 -1.72727
8782.5 0.636364
8783.5 0.181818
8784.5 1.18182
8785.5 -1.27273
8786.5 0.363636
8787.5 -2.27273
8788.5 -1.72727
8789.5 -0.727273
8790.5 -2.27273
8791.5 -2.54545
8792.5 -0.818182
8793.5 0.0909091
8794.5 1.18182
8795.5 4.54545
8796.5 -0.363636
8797.5 2.09091
8798.5 0.0909091
8799.5 -1.81818
8800.5 -1.27273
8801.5 1.63636
8802.5 -0.818182
8803.5 1.27273
8804.5 4.63636
8805.5 -2.18182
8806.5 2.72727
8807.5 1.18182
8808.5 -3.18182
8809.5 -1.27273
8810.5 -2.72727
8811.5 -0.272727
8812.5 1.18182
8813.5 -0.272727
8814.5 1.18182
8815.5 2.18182
8816.5 -0.272727
8817.5 -1.72727
8818.5 2.81818
8819.5 -3.18182
8820.5 2.81818
8821.5 0.727273
8822.5 3.18182
8823.5 4
8824.5 -1.27273
8825.5 1.09091
8826.5 -1.27273
8827.5 -0.818182
8828.5 -0.727273
8829.5 -0.727273
8830.5 -2.09091
8831.5 1.18182
8832.5 0.272727
8833.5 -3.63636
8834.5 0.545454
8835.5 -3
8836.5 2.45455
8837.5 1.90909
8838.5 -3.18182
8839.5 0.454545
8840.5 3.81818
8841.5 3.45454
8842.5 -4.18182
8843.5 -3.18182
8844.5 -4.18182
8845.5 -7.63636
8846.5 -5.45455
8847.5 -6.63636
8848.5 7.45454
8849.5 4.18182
8850.5 1.09091
8851.5 -1.72727
8852.5 -0.363637
8853.5 -4.63636
8854.5 -2.45455
8855.5 -1.54545
8856.5 -2.54545
8857.5 0.363636
8858.5 -0.181818
8859.5 -0.727273
8860.5 -1.72727
8861.5 4.54545
8862.5 -1
8863.5 -0.181818
8864.5 -1.36364
8865.5 -0.818182
8866.5 0.0909091
8867.5 -2.72727
8868.5 -0.636364
8869.5 -1.27273
8870.5 0.545455
8871.5 -0.363636
8872.5 -0.363636
8873.5 0.636364
8874.5 -1.36364
8875.5 0
8876.5 -0.272727
8877.5 -0.454545
8878.5 -1.81818
8879.5 1.09091
8880.5 1
8881.5 -0.818182
8882.5 0.0909091
8883.5 0.0909091
8884.5 -2.72727
8885.5 -0.818182
8886.5 1.63636
8887.5 -0.363636
8888.5 -1.36364
8889.5 -0.272727
8890.5 -0.818182
8891.5 -2.72727
8892.5 -0.363636
8893.5 0.636364
8894.5 -0.818182
8895.5 -2.72727
8896.5 1.18182
8897.5 0.727273
8898.5 -1.81818
8899.5 -0.818182
8900.5 0.636364
8901.5 -0.909091
8902.5 3.18182
8903.5 -0.818182
8904.5 1.09091
8905.5 -1.27273
8906.5 -0.454545
8907.5 -2.27273
8908.5 -1.36364
8909.5 -2.72727
8910.5 -1.36364
8911.5 -0.363636
8912.5 -0.363636
8913.5 -0.454545
8914.5 0.636364
8915.5 -0.818182
8916.5 -2.09091
8917.5 0
8918.5 -1.81818
8919.5 0.545455
8920.5 -0.909091
8921.5 0.0909091
8922.5 0
8923.5 -0.272727
8924.5 1
8925.5 -0.363636
8926.5 -1.72727
8927.5 1.54545
8928.5 -2.27273
8929.5 1.18182
8930.5 3.54545
8931.5 -0.909091
8932.5 -0.818182
8933.5 2.54545
8934.5 0.181818
8935.5 -1.36364
8936.5 -0.727273
8937.5 -0.818182
8938.5 -0.454545
8939.5 0.181818
8940.5 -0.909091
8941.5 -1.36364
8942.5 0.0909091
8943.5 -0.272727
8944.5 -0.818182
8945.5 1.63636
8946.5 -3.63636
8947.5 -0.818182
8948.5 -1.81818
8949.5 -0.181818
8950.5 0.636364
8951.5 -0.181818
8952.5 -2.72727
8953.5 1.81818
8954.5 -0.272727
8955.5 2.72727
8956.5 -0.909091
8957.5 0.181818
8958.5 1.63636
8959.5 -0.818182
8960.5 -0.818182
8961.5 -0.363636
8962.5 -1.36364
8963.5 -0.363636
8964.5 0.545455
8965.5 -0.363636
8966.5 -1.27273
8967.5 1.54545
8968.5 -1.81818
8969.5 -1.36364
8970.5 1.09091
8971.5 1
8972.5 1.54545
8973.5 -1.81818
8974.5 -0.363636
8975.5 0.545455
8976.5 -1.36364
8977.5 -0.272727
8978.5 -0.909091
8979.5 -1.36364
8980.5 0.0909091
8981.5 0.181818
8982.5 1.54545
8983.5 2.18182
8984.5 -1.72727
8985.5 3.09091
8986.5 1.18182
8987.5 -2.72727
8988.5 -0.818182
8989.5 0.0909091
8990.5 1
8991.5 0
8992.5 -0.272727
8993.5 -0.363636
8994.5 0.545455
8995.5 -0.818182
8996.5 3.63636
8997.5 1.54545
8998.5 -0.818182
8999.5 -1.27273
9000.5 -0.454545
9001.5 0.545455
9002.5 -0.727273
9003.5 0.0909091
9004.5 -0.818182
9005.5 0.636364
9006.5 0.0909091
9007.5 0.545455
9008.5 -2.27273
9009.5 0.0909091
9010.5 -0.454545
9011.5 -0.909091
9012.5 0.545455
9013.5 -2.72727
9014.5 -0.363636
9015.5 0
9016.5 -0.363636
9017.5 -0.363636
9018.5 4.09091
9019.5 -1.81818
9020.5 -0.909091
9021.5 0.181818
9022.5 0.0909091
9023.5 1.09091
9024.5 -0.909091
9025.5 1
9026.5 3.09091
9027.5 -1.81818
9028.5 1
9029.5 -0.909091
9030.5 0.0909091
9031.5 -0.363636
9032.5 -1.81818
9033.5 0.0909091
9034.5 1.54545
9035.5 3.09091
9036.5 1.63636
9037.5 1.09091
9038.5 -0.454545
9039.5 0.0909091
9040.5 1.54545
9041.5 -1.72727
9042.5 -1.36364
9043.5 -0.818182
9044.5 0.545455
9045.5 0.0909091
9046.5 0.0909091
9047.5 -0.454545
9048.5 -0.363636
9049.5 -1.27273
9050.5 1.09091
9051.5 -1.27273
9052.5 0.636364
9053.5 -0.909091
9054.5 0.545455
9055.5 2.09091
9056.5 -0.454545
9057.5 3.09091
9058.5 0.0909091
9059.5 -1.36364
9060.5 -1.27273
9061.5 -0.909091
9062.5 -1.81818
9063.5 -2.27273
9064.5 1.09091
9065.5 -0.272727
9066.5 -0.818182
9067.5 -1.72727
9068.5 -0.818182
9069.5 0.545455
9070.5 3.09091
9071.5 -3.18182
9072.5 -1.81818
9073.5 0.0909091
9074.5 -0.363636
9075.5 -0.363636
9076.5 1.09091
9077.5 0.0909091
9078.5 0.545455
9079.5 -1.81818
9080.5 0.545455
9081.5 -0.818182
9082.5 -0.454545
9083.5 -0.363636
9084.5 -1.81818
9085.5 -0.272727
9086.5 0.545455
9087.5 0.0909091
9088.5 1.63636
9089.5 1.09091
9090.5 0.727273
9091.5 2.18182
9092.5 2.09091
9093.5 4.09091
9094.5 3
9095.5 0.636364
9096.5 0.181818
9097.5 1.54545
9098.5 -0.909091
9099.5 3.09091
9100.5 3.63636
9101.5 3
9102.5 0.545455
9103.5 1.18182
9104.5 0.636364
9105.5 -1.27273
9106.5 -0.363636
9107.5 -0.363636
9108.5 0
9109.5 -1.36364
9110.5 0.181818
9111.5 -3.18182
9112.5 1.54545
9113.5 0.636364
9114.5 -1.36364
9115.5 -1.36364
9116.5 2.09091
9117.5 -0.454545
9118.5 -2.27273
9119.5 0.0909091
9120.5 -0.909091
9121.5 -0.909091
9122.5 1.54545
9123.5 -0.363636
9124.5 -0.454545
9125.5 -0.909091
9126.5 0.545455
9127.5 -0.454545
9128.5 -0.363636
9129.5 1
9130.5 -1.36364
9131.5 1
9132.5 -0.363636
9133.5 1.18182
9134.5 1.09091
9135.5 -0.909091
9136.5 -1.27273
9137.5 -0.454545
9138.5 0.545455
9139.5 0.0909091
9140.5 2.09091
9141.5 -0.454545
9142.5 1.09091
9143.5 0.545455
9144.5 -0.909091
9145.5 -0.454545
9146.5 -0.363636
9147.5 0.545455
9148.5 0.545455
9149.5 0.545455
9150.5 -0.818182
9151.5 4
9152.5 -0.454545
9153.5 -1.36364
9154.5 1
9155.5 0.0909091
9156.5 0.0909091
9157.5 0.0909091
9158.5 1.09091
9159.5 0.0909091
9160.5 0.0909091
9161.5 -0.909091
9162.5 -0.363636
9163.5 -0.272727
9164.5 -0.818182
9165.5 1.54545
9166.5 2
9167.5 -0.454545
9168.5 -0.909091
9169.5 2
9170.5 -1.36364
9171.5 0
9172.5 1
9173.5 -1.36364
9174.5 1.09091
9175.5 3
9176.5 -0.818182
9177.5 -1.36364
9178.5 0
9179.5 1
9180.5 -0.909091
9181.5 -0.454545
9182.5 1.09091
9183.5 0
9184.5 0.0909091
9185.5 -1.36364
9186.5 -0.818182
9187.5 1.09091
9188.5 2
9189.5 -2.27273
9190.5 -1.72727
9191.5 3
9192.5 0.0909091
9193.5 0.545455
9194.5 -0.454545
9195.5 4.54545
9196.5 -0.363636
9197.5 -0.454545
9198.5 1.27273
9199.5 -0.909091
9200.5 0.545455
9201.5 2.54545
9202.5 1
9203.5 0.636364
9204.5 -1.36364
9205.5 0.0909091
9206.5 2.54545
9207.5 1.18182
9208.5 -0.363636
9209.5 -1.36364
9210.5 -0.363636
9211.5 2.54545
9212.5 0
9213.5 0.545455
9214.5 0.0909091
9215.5 -1.81818
9216.5 1.54545
9217.5 0.545455
9218.5 -1.36364
9219.5 0.545455
9220.5 0.545455
9221.5 -0.363636
9222.5 -0.454545
9223.5 1
9224.5 -0.454545
9225.5 0.636364
9226.5 -0.454545
9227.5 1
9228.5 -0.909091
9229.5 -0.454545
9230.5 1
9231.5 0.0909091
9232.5 -0.454545
9233.5 -1.72727
9234.5 -0.454545
9235.5 2
9236.5 1.54545
9237.5 1.09091
9238.5 2.54545
9239.5 -1.27273
9240.5 -0.909091
9241.5 0.545455
9242.5 0.181818
9243.5 2
9244.5 -1.36364
9245.5 -0.909091
9246.5 -0.454545
9247.5 1.54545
9248.5 0
9249.5 -1.36364
9250.5 1
9251.5 0.0909091
9252.5 -0.363636
9253.5 -0.363636
9254.5 -0.909091
9255.5 0.545455
9256.5 -0.909091
9257.5 -0.363636
9258.5 0.545455
9259.5 -0.363636
9260.5 -0.454545
9261.5 -0.454545
9262.5 0.545455
9263.5 1
9264.5 1
9265.5 -0.909091
9266.5 -2.27273
9267.5 -0.909091
9268.5 0.0909091
9269.5 0.545455
9270.5 0
9271.5 -0.909091
9272.5 -0.909091
9273.5 -0.454545
9274.5 0.0909091
9275.5 0
9276.5 0
9277.5 -0.454545
9278.5 2
9279.5 -0.363636
9280.5 1
9281.5 -0.909091
9282.5 2
9283.5 -1.36364
9284.5 0.545455
9285.5 -0.909091
9286.5 2
9287.5 -0.454545
9288.5 -0.454545
9289.5 -0.363636
9290.5 -0.454545
9291.5 -0.363636
9292.5 4
9293.5 2
9294.5 0.545455
9295.5 1.09091
9296.5 1
9297.5 0
9298.5 -0.909091
9299.5 0.545455
9300.5 1.54545
9301.5 -0.454545
9302.5 0.0909091
9303.5 0.0909091
9304.5 -0.454545
9305.5 -1.36364
9306.5 0.545455
9307.5 -0.181818
9308.5 0.636364
9309.5 0.545455
9310.5 -0.818182
9311.5 1.54545
9312.5 0.181818
9313.5 0.636364
9314.5 3
9315.5 1.54545
9316.5 0.545455
9317.5 1
9318.5 1
9319.5 -1.36364
9320.5 0.0909091
9321.5 0.545455
9322.5 0
9323.5 0.545455
9324.5 0.636364
9325.5 -0.454545
9326.5 1.09091
9327.5 0.0909091
9328.5 -2.27273
9329.5 0.636364
9330.5 0
9331.5 0
9332.5 1.09091
9333.5 -0.454545
9334.5 -0.818182
9335.5 0.545455
9336.5 0.545455
9337.5 -0.363636
9338.5 -1.81818
9339.5 -0.454545
9340.5 -0.909091
9341.5 -0.454545
9342.5 -0.454545
9343.5 -0.454545
9344.5 -0.454545
9345.5 -1.36364
9346.5 0.545455
9347.5 0.545455
9348.5 0.0909091
9349.5 0
9350.5 1
9351.5 -0.909091
9352.5 0
9353.5 0
9354.5 0.0909091
9355.5 -0.818182
9356.5 0.545455
9357.5 -0.909091
9358.5 -1.36364
9359.5 -0.454545
9360.5 0.0909091
9361.5 -0.909091
9362.5 -0.454545
9363.5 -1.36364
9364.5 -0.454545
9365.5 1
9366.5 -1.36364
9367.5 0.0909091
9368.5 -0.454545
9369.5 -0.454545
9370.5 -0.363636
9371.5 -1.81818
9372.5 1
9373.5 -0.454545
9374.5 0.0909091
9375.5 -0.454545
9376.5 0.545455
9377.5 0
9378.5 0
9379.5 0
9380.5 1.54545
9381.5 0.0909091
9382.5 0.0909091
9383.5 -1.36364
9384.5 0.636364
9385.5 0.545455
9386.5 0
9387.5 -0.909091
9388.5 0
9389.5 -0.363636
9390.5 0
9391.5 0.545455
9392.5 3
9393.5 -0.818182
9394.5 -0.363636
9395.5 0.545455
9396.5 0.545455
9397.5 0
9398.5 0.545455
9399.5 0
9400.5 2
9401.5 -0.454545
9402.5 -0.454545
9403.5 1
9404.5 0
9405.5 -0.454545
9406.5 0.0909091
9407.5 -0.454545
9408.5 -0.363636
9409.5 0
9410.5 0
9411.5 0
9412.5 -0.454545
9413.5 0.0909091
9414.5 -0.909091
9415.5 -0.454545
9416.5 1
9417.5 0.545455
9418.5 0
9419.5 0
9420.5 0.0909091
9421.5 -0.909091
9422.5 0.0909091
9423.5 -0.454545
9424.5 0.0909091
9425.5 0.636364
9426.5 -1.81818
9427.5 -0.818182
9428.5 1
9429.5 0.545455
9430.5 2
9431.5 2
9432.5 1
9433.5 -0.454545
9434.5 1
9435.5 -0.909091
9436.5 0
9437.5 -0.454545
9438.5 0
9439.5 0.0909091
9440.5 -0.363636
9441.5 1
9442.5 -0.909091
9443.5 -0.454545
9444.5 1
9445.5 1
9446.5 1
9447.5 -0.454545
9448.5 2.54545
9449.5 0
9450.5 2
9451.5 2
9452.5 -0.363636
9453.5 1.09091
9454.5 -3.18182
9455.5 3.18182
9456.5 1.63636
9457.5 0.727273
9458.5 -2.18182
9459.5 -2.18182
9460.5 -2.90909
9461.5 -2.63636
9462.5 8.18182
9463.5 2.18182
9464.5 0.636364
9465.5 2
9466.5 0.0909091
9467.5 -0.454545
9468.5 0.0909091
9469.5 -1.36364
9470.5 -1.36364
9471.5 -0.454545
9472.5 0
9473.5 -0.909091
9474.5 -0.363636
9475.5 -0.909091
9476.5 0
9477.5 0.545455
9478.5 0
9479.5 -0.454545
9480.5 1
9481.5 -0.909091
9482.5 -0.909091
9483.5 1.09091
9484.5 1
9485.5 1.54545
9486.5 0.0909091
9487.5 1
9488.5 -0.454545
9489.5 0.0909091
9490.5 0.545455
9491.5 -0.454545
9492.5 0.545455
9493.5 -1.36364
9494.5 1
9495.5 -0.454545
9496.5 -0.454545
9497.5 -0.454545
9498.5 2
9499.5 0.545455
9500.5 -0.818182
9501.5 0
9502.5 -0.909091
9503.5 1.54545
9504.5 0.545455
9505.5 -1.36364
9506.5 0
9507.5 -0.363636
9508.5 -0.454545
9509.5 -0.454545
9510.5 1.54545
9511.5 -0.454545
9512.5 0.545455
9513.5 -0.363636
9514.5 1
9515.5 -0.454545
9516.5 -1.36364
9517.5 -0.454545
9518.5 -0.454545
9519.5 -0.909091
9520.5 1.54545
9521.5 0
9522.5 -0.909091
9523.5 0.545455
9524.5 0.545455
9525.5 1
9526.5 0
9527.5 0
9528.5 0.545455
9529.5 -0.363636
9530.5 -0.909091
9531.5 0.545455
9532.5 1
9533.5 -0.454545
9534.5 0
9535.5 0.545455
9536.5 0.545455
9537.5 0
9538.5 1
9539.5 0.636364
9540.5 0
9541.5 0.545455
9542.5 0.0909091
9543.5 -0.454545
9544.5 -0.454545
9545.5 0
9546.5 -0.363636
9547.5 0.545455
9548.5 0.0909091
9549.5 -0.454545
9550.5 1
9551.5 0
9552.5 -0.909091
9553.5 2
9554.5 -0.909091
9555.5 -1.36364
9556.5 0.0909091
9557.5 0
9558.5 1
9559.5 -0.909091
9560.5 0.0909091
9561.5 -1.81818
9562.5 0.545455
9563.5 0
9564.5 0.0909091
9565.5 -0.454545
9566.5 0
9567.5 -0.454545
9568.5 -0.909091
9569.5 0
9570.5 0
9571.5 0.545455
9572.5 1
9573.5 -0.909091
9574.5 -0.454545
9575.5 0.0909091
9576.5 -0.454545
9577.5 0.545455
9578.5 1
9579.5 0
9580.5 -1.81818
9581.5 0
9582.5 -1.36364
9583.5 0.545455
9584.5 2
9585.5 1
9586.5 0
9587.5 -1.36364
9588.5 2
9589.5 -0.909091
9590.5 -1.36364
9591.5 -0.454545
9592.5 -0.909091
9593.5 -0.454545
9594.5 -0.454545
9595.5 -0.909091
9596.5 0
9597.5 -0.454545
9598.5 2
9599.5 -1.36364
9600.5 1.54545
9601.5 1.54545
9602.5 2.09091
9603.5 -0.454545
9604.5 0.545455
9605.5 0
9606.5 0
9607.5 1
9608.5 0
9609.5 -0.909091
9610.5 0
9611.5 -0.363636
9612.5 -0.454545
9613.5 -0.454545
9614.5 -1.36364
9615.5 -0.909091
9616.5 -0.454545
9617.5 -0.909091
9618.5 -1.81818
9619.5 0
9620.5 1
9621.5 -0.454545
9622.5 -0.363636
9623.5 -0.363636
9624.5 -0.909091
9625.5 0.545455
9626.5 0
9627.5 0
9628.5 2
9629.5 0
9630.5 0
9631.5 1.54545
9632.5 0
9633.5 -0.454545
9634.5 0
9635.5 0.545455
9636.5 -0.454545
9637.5 0
9638.5 -0.363636
9639.5 1.54545
9640.5 0.0909091
9641.5 1
9642.5 0.545455
9643.5 0
9644.5 3
9645.5 0
9646.5 -0.454545
9647.5 -0.363636
9648.5 -0.454545
9649.5 0
9650.5 -0.454545
9651.5 0.545455
9652.5 -0.363636
9653.5 1.54545
9654.5 -0.454545
9655.5 -0.454545
9656.5 0
9657.5 -0.454545
9658.5 0
9659.5 -0.909091
9660.5 0.0909091
9661.5 -0.909091
9662.5 1
9663.5 -0.909091
9664.5 -2.27273
9665.5 -0.454545
9666.5 0
9667.5 -0.454545
9668.5 1
9669.5 -1.36364
9670.5 -0.454545
9671.5 -0.454545
9672.5 -0.454545
9673.5 -0.454545
9674.5 0
9675.5 -0.909091
9676.5 -0.454545
9677.5 -0.909091
9678.5 0
9679.5 0
9680.5 -0.454545
9681.5 0
9682.5 0.545455
9683.5 -0.454545
9684.5 0
9685.5 0.545455
9686.5 0
9687.5 -0.454545
9688.5 0
9689.5 -0.454545
9690.5 -0.454545
9691.5 2
9692.5 0.0909091
9693.5 1
9694.5 0.545455
9695.5 0
9696.5 2
9697.5 0
9698.5 0
9699.5 -0.454545
9700.5 0.545455
9701.5 0.545455
9702.5 0
9703.5 -0.454545
9704.5 -0.909091
9705.5 0.545455
9706.5 -0.454545
9707.5 0
9708.5 1
9709.5 0.545455
9710.5 -0.363636
9711.5 1
9712.5 0
9713.5 1.54545
9714.5 0.545455
9715.5 -0.454545
9716.5 0.545455
9717.5 -0.454545
9718.5 -0.454545
9719.5 0
9720.5 2
9721.5 0
9722.5 -0.454545
9723.5 -0.454545
9724.5 0
9725.5 -0.454545
9726.5 0
9727.5 1
9728.5 -0.363636
9729.5 0
9730.5 0
9731.5 -0.454545
9732.5 1
9733.5 1
9734.5 0
9735.5 -0.909091
9736.5 -0.454545
9737.5 0
9738.5 -0.454545
9739.5 0.545455
9740.5 -0.454545
9741.5 -0.454545
9742.5 -0.454545
9743.5 0
9744.5 0
9745.5 0
9746.5 -1.36364
9747.5 0
9748.5 0
9749.5 0.545455
9750.5 0.545455
9751.5 -0.454545
9752.5 1
9753.5 0
9754.5 -0.454545
9755.5 -0.454545
9756.5 0
9757.5 0.545455
9758.5 0
9759.5 1
9760.5 1
9761.5 -0.454545
9762.5 0
9763.5 -0.454545
9764.5 1
9765.5 0
9766.5 0.545455
9767.5 -0.909091
9768.5 -0.454545
9769.5 0
9770.5 0.0909091
9771.5 0.0909091
9772.5 0
9773.5 -0.454545
9774.5 -0.454545
9775.5 1
9776.5 -0.454545
9777.5 0.545455
9778.5 -0.454545
9779.5 -0.454545
9780.5 -0.454545
9781.5 0
9782.5 -0.909091
9783.5 -0.454545
9784.5 -0.454545
9785.5 -0.454545
9786.5 -0.454545
9787.5 1
9788.5 -0.454545
9789.5 0
9790.5 -0.909091
9791.5 -0.454545
9792.5 0
9793.5 0
9794.5 0
9795.5 1
9796.5 0.0909091
9797.5 0
9798.5 0
9799.5 1
9800.5 0
9801.5 1
9802.5 0
9803.5 -0.454545
9804.5 0
9805.5 -0.909091
9806.5 0.0909091
9807.5 0
9808.5 1
9809.5 0
9810.5 0
9811.5 -0.454545
9812.5 0
9813.5 -0.454545
9814.5 1
9815.5 -0.454545
9816.5 -0.454545
9817.5 -0.454545
9818.5 0
9819.5 -0.454545
9820.5 0
9821.5 -0.454545
9822.5 0
9823.5 0
9824.5 0
9825.5 0
9826.5 0
9827.5 1.09091
9828.5 0
9829.5 -0.454545
9830.5 0.545455
9831.5 0
9832.5 0
9833.5 0
9834.5 0
9835.5 0
9836.5 -0.454545
9837.5 0
9838.5 0.0909091
9839.5 0
9840.5 -0.454545
9841.5 0
9842.5 -0.454545
9843.5 0
9844.5 0
9845.5 0.545455
9846.5 0
9847.5 1
9848.5 -0.909091
9849.5 0
9850.5 0
9851.5 -0.454545
9852.5 1
9853.5 0.545455
9854.5 0
9855.5 0
9856.5 0
9857.5 -0.909091
9858.5 -0.454545
9859.5 0.545455
9860.5 0
9861.5 0
9862.5 1
9863.5 0
9864.5 1
9865.5 0
9866.5 1
9867.5 0
9868.5 0
9869.5 0
9870.5 0.0909091
9871.5 0
9872.5 0
9873.5 -0.909091
9874.5 -0.454545
9875.5 -0.454545
9876.5 0
9877.5 0
9878.5 0
9879.5 0
9880.5 0
9881.5 -0.454545
9882.5 0
9883.5 -0.454545
9884.5 0
9885.5 0
9886.5 0
9887.5 0
9888.5 0
9889.5 0
9890.5 0
9891.5 -0.454545
9892.5 0
9893.5 -0.454545
9894.5 0.545455
9895.5 0
9896.5 0
9897.5 0
9898.5 -0.909091
9899.5 0.545455
9900.5 0
9901.5 0
9902.5 1
9903.5 0
9904.5 0
9905.5 0
9906.5 0
9907.5 1
9908.5 1
9909.5 0
9910.5 0
9911.5 -0.454545
9912.5 0
9913.5 0
9914.5 -0.454545
9915.5 0
9916.5 -0.454545
9917.5 0
9918.5 -0.454545
9919.5 1
9920.5 0
9921.5 0
9922.5 0
9923.5 -0.909091
9924.5 0
9925.5 0
9926.5 1
9927.5 -0.909091
9928.5 0
9929.5 -0.454545
9930.5 0
9931.5 0
9932.5 -0.454545
9933.5 0
9934.5 -0.454545
9935.5 0
9936.5 0.0909091
9937.5 -0.454545
9938.5 0
9939.5 -0.454545
9940.5 -0.454545
9941.5 0
9942.5 0
9943.5 -0.454545
9944.5 1
9945.5 0
9946.5 0
9947.5 1
9948.5 0
9949.5 1
9950.5 -0.454545
9951.5 -0.454545
9952.5 0
9953.5 0
9954.5 0
9955.5 0
9956.5 0
9957.5 -0.454545
9958.5 0
9959.5 0
9960.5 0
9961.5 -0.909091
9962.5 0.545455
9963.5 0
9964.5 -0.454545
9965.5 1.09091
9966.5 1.18182
9967.5 1.09091
9968.5 1.09091
9969.5 0.272727
9970.5 -2.72727
9971.5 -0.363636
9972.5 -1.72727
9973.5 -3.18182
9974.5 -1.81818
9975.5 0.545455
9976.5 0.181818
9977.5 -0.454545
9978.5 -0.454545
9979.5 0
9980.5 -0.454545
9981.5 0
9982.5 0
9983.5 0
9984.5 -0.454545
9985.5 -0.454545
9986.5 0
9987.5 0
9988.5 -0.454545
9989.5 0
9990.5 0
9991.5 0
9992.5 1
9993.5 0
9994.5 1
9995.5 0
9996.5 -0.454545
9997.5 0
9998.5 0
9999.5 0
10000.5 1
10001.5 -0.909091
10002.5 0
10003.5 0
10004.5 -0.454545
10005.5 0
10006.5 -0.454545
10007.5 0
10008.5 0
10009.5 0
10010.5 -0.454545
10011.5 -0.454545
10012.5 -0.454545
10013.5 1
10014.5 0
10015.5 0
10016.5 0
10017.5 0
10018.5 0
10019.5 0
10020.5 0
10021.5 0
10022.5 0
10023.5 0
10024.5 1
10025.5 -0.454545
10026.5 0
10027.5 0
10028.5 0
10029.5 0
10030.5 -0.454545
10031.5 0
10032.5 0
10033.5 0
10034.5 0
10035.5 0
10036.5 0
10037.5 -0.454545
10038.5 0
10039.5 0
10040.5 0
10041.5 0
10042.5 0
10043.5 -0.454545
10044.5 0
10045.5 0
10046.5 1
10047.5 0
10048.5 0
10049.5 0
10050.5 -0.454545
10051.5 0
10052.5 0
10053.5 0
10054.5 0
10055.5 0
10056.5 0
10057.5 0
10058.5 0
10059.5 -0.454545
10060.5 0
10061.5 0
10062.5 -0.454545
10063.5 -0.454545
10064.5 0
10065.5 -0.454545
10066.5 0
10067.5 -0.454545
10068.5 0
10069.5 0
10070.5 0
10071.5 0
10072.5 0
10073.5 -0.454545
10074.5 -0.454545
10075.5 0
10076.5 0
10077.5 0
10078.5 0
10079.5 0
10080.5 0
10081.5 0
10082.5 0
10083.5 0
10084.5 0
10085.5 1
10086.5 -0.454545
10087.5 1
10088.5 0
10089.5 0
10090.5 0
10091.5 0
10092.5 0
10093.5 2
10094.5 0
10095.5 0
10096.5 0
10097.5 0
10098.5 0
10099.5 0
10100.5 0
10101.5 0
10102.5 0
10103.5 1
10104.5 -0.454545
10105.5 0
10106.5 0
10107.5 0
10108.5 0
10109.5 -0.909091
10110.5 0
10111.5 0
10112.5 0
10113.5 0
10114.5 0
10115.5 0
10116.5 0
10117.5 0
10118.5 2
10119.5 -0.454545
10120.5 0
10121.5 0
10122.5 1
10123.5 -0.454545
10124.5 0
10125.5 0
10126.5 0
10127.5 0
10128.5 -0.454545
10129.5 0
10130.5 0
10131.5 1
10132.5 0
10133.5 -0.454545
10134.5 -0.454545
10135.5 0
10136.5 0
10137.5 -0.454545
10138.5 0
10139.5 0
10140.5 0
10141.5 0
10142.5 1
10143.5 0
10144.5 1
10145.5 -0.454545
10146.5 0
10147.5 0
10148.5 0
10149.5 0
10150.5 0
10151.5 0
10152.5 0
10153.5 0
10154.5 0
10155.5 0
10156.5 0
10157.5 0
10158.5 -0.454545
10159.5 0
10160.5 -0.454545
10161.5 0
10162.5 0
10163.5 -0.454545
10164.5 0
10165.5 0
10166.5 0
10167.5 0
10168.5 -0.454545
10169.5 0
10170.5 0
10171.5 0
10172.5 -0.454545
10173.5 1
10174.5 0
10175.5 -0.454545
10176.5 0
10177.5 0
10178.5 0
10179.5 0
10180.5 -0.454545
10181.5 0
10182.5 0
10183.5 0
10184.5 0
10185.5 0
10186.5 0
10187.5 0
10188.5 0
10189.5 1
10190.5 0
10191.5 0
10192.5 0
10193.5 0
10194.5 0
10195.5 0
10196.5 0
10197.5 0
10198.5 0
10199.5 0
10200.5 0.545455
10201.5 0
10202.5 0
10203.5 0
10204.5 0
10205.5 -0.454545
10206.5 0
10207.5 -0.454545
10208.5 0
10209.5 0
10210.5 0
10211.5 0
10212.5 0
10213.5 0
10214.5 0
10215.5 0
10216.5 0
10217.5 1.54545
10218.5 0
10219.5 -0.909091
10220.5 0
10221.5 -0.454545
10222.5 0
10223.5 0
10224.5 0
10225.5 0
10226.5 0
10227.5 0
10228.5 1
10229.5 0
10230.5 0
10231.5 0
10232.5 -0.454545
10233.5 0
10234.5 0
10235.5 0
10236.5 0
10237.5 0
10238.5 0
10239.5 0
10240.5 0
10241.5 0
10242.5 0
10243.5 1
10244.5 0
10245.5 0
10246.5 0
10247.5 0
10248.5 0
10249.5 0
10250.5 0
10251.5 0
10252.5 0
10253.5 0.0909091
10254.5 -0.454545
10255.5 0
10256.5 0
10257.5 0
10258.5 1
10259.5 1
10260.5 0
10261.5 0
10262.5 0
10263.5 0
10264.5 0
10265.5 -0.454545
10266.5 0
10267.5 1
10268.5 0
10269.5 0
10270.5 0
10271.5 0
10272.5 0
10273.5 0
10274.5 -0.454545
10275.5 0
10276.5 1
10277.5 0
10278.5 0
10279.5 0
10280.5 0
10281.5 0
10282.5 0
10283.5 1
10284.5 0
10285.5 0
10286.5 0
10287.5 0
10288.5 0
10289.5 0
10290.5 0
10291.5 0
10292.5 0
10293.5 0
10294.5 0
10295.5 0
10296.5 0
10297.5 0
10298.5 0
10299.5 0
10300.5 1
10301.5 0
10302.5 0
10303.5 0
10304.5 1
10305.5 -0.454545
10306.5 0
10307.5 0
10308.5 0
10309.5 0
10310.5 0
10311.5 0
10312.5 0
10313.5 0
10314.5 0
10315.5 0
10316.5 0
10317.5 1
10318.5 0
10319.5 0
10320.5 0
10321.5 0
10322.5 0
10323.5 0
10324.5 0
10325.5 0
10326.5 0
10327.5 0
10328.5 -0.454545
10329.5 0
10330.5 0
10331.5 -0.454545
10332.5 0
10333.5 0
10334.5 0
10335.5 0
10336.5 0
10337.5 0
10338.5 0
10339.5 0
10340.5 0
10341.5 0
10342.5 0
10343.5 0
10344.5 0
10345.5 0
10346.5 1
10347.5 0
10348.5 0
10349.5 0
10350.5 0
10351.5 0
10352.5 0
10353.5 0
10354.5 0
10355.5 0
10356.5 0
10357.5 0
10358.5 0
10359.5 0
10360.5 0
10361.5 -0.454545
10362.5 0
10363.5 0
10364.5 0
10365.5 0
10366.5 0
10367.5 0
10368.5 0.0909091
10369.5 0
10370.5 0
10371.5 0
10372.5 0
10373.5 0
10374.5 0
10375.5 0
10376.5 0
10377.5 0
10378.5 0
10379.5 0
10380.5 0
10381.5 0
10382.5 1
10383.5 1
10384.5 0
10385.5 0
10386.5 0
10387.5 2
10388.5 0
10389.5 0
10390.5 0
10391.5 -0.454545
10392.5 -0.454545
10393.5 0
10394.5 0
10395.5 0
10396.5 0
10397.5 0
10398.5 0
10399.5 0
10400.5 0
10401.5 0
10402.5 0
10403.5 0
10404.5 0
10405.5 1
10406.5 0
10407.5 0
10408.5 0
10409.5 0
10410.5 0
10411.5 0
10412.5 0
10413.5 0
10414.5 0
10415.5 0
10416.5 0
10417.5 0
10418.5 0
10419.5 0
10420.5 0
10421.5 0
10422.5 0
10423.5 0
10424.5 0
10425.5 0
10426.5 0
10427.5 0
10428.5 0
10429.5 0
10430.5 0
10431.5 0
10432.5 1
10433.5 0
10434.5 0
10435.5 0
10436.5 0
10437.5 0
10438.5 0
10439.5 0
10440.5 0
10441.5 0
10442.5 0
10443.5 0
10444.5 0
10445.5 0
10446.5 0
10447.5 0
10448.5 0
10449.5 0
10450.5 0
10451.5 0
10452.5 0
10453.5 0
10454.5 1
10455.5 0
10456.5 1
10457.5 -0.454545
10458.5 0
10459.5 0
10460.5 0
10461.5 0
10462.5 0
10463.5 0
10464.5 0
10465.5 0
10466.5 0
10467.5 0
10468.5 0
10469.5 0
10470.5 0
10471.5 0
10472.5 0
10473.5 0
10474.5 0
10475.5 0
10476.5 0
10477.5 0
10478.5 0
10479.5 0
10480.5 0
10481.5 -0.454545
10482.5 0
10483.5 -0.454545
10484.5 0
10485.5 0
10486.5 0
10487.5 0
10488.5 0
10489.5 0
10490.5 0
10491.5 0
10492.5 0
10493.5 0
10494.5 -0.454545
10495.5 0
10496.5 0
10497.5 0
10498.5 0
10499.5 0
10500.5 0
10501.5 0
10502.5 0
10503.5 0
10504.5 0
10505.5 0
10506.5 0
10507.5 0
10508.5 0
10509.5 0
10510.5 0
10511.5 0
10512.5 1
10513.5 0
10514.5 0
10515.5 0
10516.5 1
10517.5 0
10518.5 0
10519.5 0
10520.5 0
10521.5 0
10522.5 1
10523.5 0
10524.5 0
10525.5 0
10526.5 0
10527.5 0
10528.5 0
10529.5 0
10530.5 0
10531.5 0
10532.5 0
10533.5 0
10534.5 0
10535.5 0.545455
10536.5 0
10537.5 0
10538.5 0
10539.5 0
10540.5 0
10541.5 0
10542.5 0
10543.5 -0.454545
10544.5 0
10545.5 0
10546.5 0
10547.5 0
10548.5 0
10549.5 0
10550.5 0
10551.5 -0.454545
10552.5 0
10553.5 -0.454545
10554.5 0
10555.5 0
10556.5 0
10557.5 0
10558.5 0
10559.5 0
10560.5 0
10561.5 0
10562.5 0
10563.5 0
10564.5 0
10565.5 0
10566.5 0
10567.5 -0.454545
10568.5 0
10569.5 0
10570.5 0
10571.5 0
10572.5 0
10573.5 0
10574.5 0
10575.5 0
10576.5 0
10577.5 0
10578.5 0
10579.5 0
10580.5 0
10581.5 0
10582.5 1
10583.5 0
10584.5 0
10585.5 0
10586.5 0
10587.5 0
10588.5 0
10589.5 -0.454545
10590.5 0
10591.5 0
10592.5 0
10593.5 0
10594.5 0
10595.5 -0.454545
10596.5 0
10597.5 0
10598.5 0
10599.5 0
10600.5 0
10601.5 0
10602.5 0
10603.5 0
10604.5 0
10605.5 0
10606.5 0
10607.5 0
10608.5 0
10609.5 -0.454545
10610.5 0
10611.5 0
10612.5 -0.454545
10613.5 0
10614.5 0
10615.5 0
10616.5 0
10617.5 0
10618.5 -0.454545
10619.5 0
10620.5 0
10621.5 0
10622.5 -0.454545
10623.5 0
10624.5 -0.454545
10625.5 0
10626.5 0
10627.5 0
10628.5 -0.454545
10629.5 0
10630.5 -0.454545
10631.5 0
10632.5 0
10633.5 0
10634.5 0
10635.5 0
10636.5 -0.454545
10637.5 0
10638.5 0
10639.5 1
10640.5 0
10641.5 1
10642.5 0
10643.5 0
10644.5 -0.454545
10645.5 0
10646.5 0
10647.5 0
10648.5 0
10649.5 0
10650.5 0
10651.5 0
10652.5 0
10653.5 0
10654.5 0
10655.5 0
10656.5 0
10657.5 0
10658.5 0
10659.5 0
10660.5 0
10661.5 0
10662.5 0
10663.5 0
10664.5 0
10665.5 0
10666.5 0
10667.5 0
10668.5 0
10669.5 0
10670.5 0
10671.5 0
10672.5 0
10673.5 0
10674.5 0
10675.5 0
10676.5 0
10677.5 0
10678.5 0
10679.5 0
10680.5 0
10681.5 0
10682.5 0
10683.5 0
10684.5 0
10685.5 1
10686.5 0
10687.5 0
10688.5 0
10689.5 0
10690.5 -0.454545
10691.5 0
10692.5 0
10693.5 -0.454545
10694.5 0
10695.5 0
10696.5 0
10697.5 0
10698.5 0
10699.5 0
10700.5 0
10701.5 0
10702.5 0
10703.5 0
10704.5 0
10705.5 0
10706.5 -0.454545
10707.5 0
10708.5 1
10709.5 0
10710.5 0
10711.5 0
10712.5 0
10713.5 0
10714.5 0
10715.5 -0.454545
10716.5 0
10717.5 0
10718.5 0
10719.5 0
10720.5 1
10721.5 0
10722.5 0
10723.5 0
10724.5 0
10725.5 0
10726.5 0
10727.5 0
10728.5 0
10729.5 -0.454545
10730.5 0
10731.5 0
10732.5 0
10733.5 0
10734.5 0
10735.5 0
10736.5 0
10737.5 -0.454545
10738.5 0
10739.5 -0.454545
10740.5 0
10741.5 0
10742.5 0
10743.5 0
10744.5 0
10745.5 0
10746.5 0
10747.5 0
10748.5 0
10749.5 0
10750.5 0
10751.5 0
10752.5 0
10753.5 0
10754.5 0
10755.5 0
10756.5 0
10757.5 0
10758.5 0
10759.5 0
10760.5 0
10761.5 0
10762.5 0
10763.5 -0.454545
10764.5 0
10765.5 0
10766.5 0
10767.5 0
10768.5 0
10769.5 0
10770.5 -0.454545
10771.5 0
10772.5 0
10773.5 0
10774.5 0
10775.5 0
10776.5 0
10777.5 0
10778.5 0
10779.5 0
10780.5 0
10781.5 0
10782.5 0
10783.5 1
10784.5 0
10785.5 0
10786.5 0
10787.5 1
10788.5 0
10789.5 0
10790.5 0
10791.5 0
10792.5 0
10793.5 0
10794.5 0
10795.5 0
10796.5 0
10797.5 0
10798.5 0
10799.5 0
10800.5 1
10801.5 -0.454545
10802.5 0
10803.5 0
10804.5 0
10805.5 -0.454545
10806.5 0
10807.5 0
10808.5 -0.454545
10809.5 0
10810.5 0
10811.5 0
10812.5 0
10813.5 0
10814.5 0
10815.5 0
10816.5 0
10817.5 0
10818.5 0
10819.5 -0.454545
10820.5 0
10821.5 0
10822.5 0
10823.5 0
10824.5 0
10825.5 0
10826.5 0
10827.5 0
10828.5 0
10829.5 1
10830.5 0
10831.5 0
10832.5 0
10833.5 0
10834.5 -0.454545
10835.5 0
10836.5 -0.454545
10837.5 0
10838.5 0
10839.5 0
10840.5 0
10841.5 0
10842.5 0
10843.5 0
10844.5 0
10845.5 -0.454545
10846.5 0
10847.5 0
10848.5 0
10849.5 0
10850.5 0
10851.5 0
10852.5 0
10853.5 0.545455
10854.5 0
10855.5 1
10856.5 0
10857.5 0
10858.5 0
10859.5 0
10860.5 0
10861.5 0
10862.5 0
10863.5 0
10864.5 0
10865.5 -0.454545
10866.5 0
10867.5 0
10868.5 0
10869.5 0
10870.5 0
10871.5 0
10872.5 1
10873.5 0
10874.5 0
10875.5 0
10876.5 0
10877.5 0
10878.5 0
10879.5 0
10880.5 -0.454545
10881.5 0
10882.5 0
10883.5 0
10884.5 0
10885.5 0
10886.5 0
10887.5 0
10888.5 1
10889.5 0
10890.5 0
10891.5 0
10892.5 0
10893.5 1
10894.5 1
10895.5 0
10896.5 1
10897.5 0
10898.5 0
10899.5 0
10900.5 0
10901.5 0
10902.5 0
10903.5 0
10904.5 0
10905.5 0
10906.5 0
10907.5 0
10908.5 0
10909.5 0
10910.5 0
10911.5 0
10912.5 1
10913.5 0
10914.5 0
10915.5 0
10916.5 0
10917.5 0
10918.5 0
10919.5 -0.454545
10920.5 0
10921.5 0
10922.5 0
10923.5 0
10924.5 0
10925.5 0
10926.5 0
10927.5 1
10928.5 0
10929.5 0
10930.5 0
10931.5 0
10932.5 0
10933.5 0
10934.5 -0.454545
10935.5 -0.454545
10936.5 0
10937.5 0
10938.5 0
10939.5 0
10940.5 0
10941.5 0
10942.5 0
10943.5 0
10944.5 -0.454545
10945.5 0
10946.5 0
10947.5 0
10948.5 1
10949.5 0
10950.5 0
10951.5 0
10952.5 -0.454545
10953.5 0
10954.5 1
10955.5 0
10956.5 0
10957.5 0
10958.5 0
10959.5 0
10960.5 0
10961.5 0
10962.5 0
10963.5 0
10964.5 0
10965.5 0
10966.5 0
10967.5 0
10968.5 0
10969.5 0
10970.5 -0.454545
10971.5 0
10972.5 0
10973.5 0
10974.5 -0.454545
10975.5 0
10976.5 0
10977.5 -0.454545
10978.5 0
10979.5 0
10980.5 0
10981.5 0
10982.5 0
10983.5 0
10984.5 0
10985.5 0
10986.5 0
10987.5 0
10988.5 1
10989.5 0
10990.5 0
10991.5 0
10992.5 0
10993.5 0
10994.5 0
10995.5 0
10996.5 0
10997.5 0
10998.5 0
10999.5 1
11000.5 0
11001.5 0
11002.5 0
11003.5 0
11004.5 0
11005.5 0
11006.5 0
11007.5 0
11008.5 1
11009.5 0
11010.5 0
11011.5 0
11012.5 0
11013.5 0
11014.5 0
11015.5 0
11016.5 0
11017.5 0
11018.5 0
11019.5 0
11020.5 0
11021.5 0
11022.5 0
11023.5 0
11024.5 0
11025.5 -0.454545
11026.5 0
11027.5 0
11028.5 -0.454545
11029.5 0
11030.5 0
11031.5 0
11032.5 0
11033.5 0
11034.5 -0.454545
11035.5 0
11036.5 0
11037.5 1
11038.5 -0.454545
11039.5 0
11040.5 0
11041.5 0
11042.5 0
11043.5 0
11044.5 0
11045.5 0
11046.5 0
11047.5 0
11048.5 0
11049.5 0
11050.5 -0.454545
11051.5 1
11052.5 0
11053.5 0
11054.5 0
11055.5 0
11056.5 0
11057.5 0
11058.5 0
11059.5 0
11060.5 0
11061.5 0
11062.5 0
11063.5 0
11064.5 0
11065.5 0
11066.5 0
11067.5 0
11068.5 1
11069.5 0
11070.5 0
11071.5 0
11072.5 0
11073.5 0
11074.5 0
11075.5 0
11076.5 0
11077.5 0
11078.5 0
11079.5 0
11080.5 0
11081.5 0
11082.5 0
11083.5 0
11084.5 0
11085.5 0
11086.5 0
11087.5 0
11088.5 0
11089.5 0
11090.5 0
11091.5 0
11092.5 0
11093.5 0
11094.5 0
11095.5 0
11096.5 0
11097.5 1
11098.5 0
11099.5 0
11100.5 0
11101.5 0
11102.5 0
11103.5 0
11104.5 0
11105.5 1
11106.5 0
11107.5 0
11108.5 -0.454545
11109.5 0
11110.5 0
11111.5 0
11112.5 0
11113.5 0
11114.5 0
11115.5 0
11116.5 0
11117.5 0
11118.5 0
11119.5 0
11120.5 0
11121.5 0
11122.5 0
11123.5 0
11124.5 0
11125.5 0
11126.5 0
11127.5 0
11128.5 0
11129.5 0
11130.5 0
11131.5 0
11132.5 1
11133.5 0
11134.5 0
11135.5 0
11136.5 0
11137.5 0
11138.5 0
11139.5 0
11140.5 0
11141.5 0
11142.5 0
11143.5 0
11144.5 0
11145.5 0
11146.5 0
11147.5 0
11148.5 0
11149.5 0
11150.5 0
11151.5 0
11152.5 -0.454545
11153.5 0
11154.5 0
11155.5 0
11156.5 0
11157.5 0
11158.5 0
11159.5 0
11160.5 1
11161.5 0
11162.5 0
11163.5 0
11164.5 0
11165.5 0
11166.5 0
11167.5 0
11168.5 0
11169.5 0
11170.5 0
11171.5 0
11172.5 0
11173.5 0
11174.5 0
11175.5 0
11176.5 0
11177.5 0
11178.5 0
11179.5 0
11180.5 0
11181.5 0
11182.5 0
11183.5 0
11184.5 0
11185.5 0
11186.5 0
11187.5 0
11188.5 0
11189.5 0
11190.5 0
11191.5 0
11192.5 0
11193.5 0
11194.5 0
11195.5 1
11196.5 0
11197.5 0
11198.5 0
11199.5 0
11200.5 0
11201.5 0
11202.5 0
11203.5 1
11204.5 0
11205.5 0
11206.5 0
11207.5 0
11208.5 0
11209.5 0
11210.5 0
11211.5 0
11212.5 0
11213.5 1
11214.5 0
11215.5 0
11216.5 0
11217.5 0
11218.5 0
11219.5 -0.454545
11220.5 0
11221.5 1
11222.5 0
11223.5 0
11224.5 0
11225.5 0
11226.5 0
11227.5 0
11228.5 0
11229.5 0
11230.5 0
11231.5 0
11232.5 0
11233.5 0
11234.5 0
11235.5 0
11236.5 0
11237.5 0.545455
11238.5 0
11239.5 0
11240.5 0
11241.5 0
11242.5 0
11243.5 0
11244.5 0
11245.5 0
11246.5 0
11247.5 0
11248.5 0
11249.5 0
11250.5 0
11251.5 0
11252.5 0
11253.5 0
11254.5 0
11255.5 0
11256.5 0
11257.5 -0.454545
11258.5 -0.454545
11259.5 0
11260.5 0
11261.5 0
11262.5 0
11263.5 0
11264.5 0
11265.5 0
11266.5 0
11267.5 0
11268.5 0
11269.5 0
11270.5 0
11271.5 0
11272.5 0
11273.5 0
11274.5 0
11275.5 0
11276.5 0
11277.5 0
11278.5 0
11279.5 0
11280.5 0
11281.5 0
11282.5 0
11283.5 0
11284.5 0
11285.5 0
11286.5 0
11287.5 0
11288.5 0
11289.5 0
11290.5 0
11291.5 0
11292.5 0
11293.5 1
11294.5 0
11295.5 0
11296.5 1
11297.5 0
11298.5 0
11299.5 0
11300.5 0
11301.5 0
11302.5 0
11303.5 0
11304.5 0
11305.5 0
11306.5 0
11307.5 0
11308.5 0
11309.5 0
11310.5 0
11311.5 0
11312.5 0
11313.5 0
11314.5 0
11315.5 0
11316.5 0
11317.5 0
11318.5 0
11319.5 0
11320.5 0
11321.5 0
11322.5 0
11323.5 0
11324.5 0
11325.5 0
11326.5 0
11327.5 0
11328.5 0
11329.5 0
11330.5 0
11331.5 0
11332.5 0
11333.5 0
11334.5 0
11335.5 0
11336.5 0
11337.5 0
11338.5 0
11339.5 0
11340.5 0
11341.5 0
11342.5 0
11343.5 0
11344.5 0
11345.5 0
11346.5 0
11347.5 0
11348.5 0
11349.5 0
11350.5 0
11351.5 0
11352.5 0
11353.5 0
11354.5 0
11355.5 0
11356.5 0
11357.5 0
11358.5 0
11359.5 0
11360.5 0
11361.5 0
11362.5 0
11363.5 0
11364.5 0
11365.5 0
11366.5 0
11367.5 0
11368.5 0
11369.5 0
11370.5 0
11371.5 0
11372.5 0
11373.5 0
11374.5 0
11375.5 0
11376.5 0
11377.5 0
11378.5 0
11379.5 0
11380.5 1
11381.5 0
11382.5 0
11383.5 0
11384.5 0
11385.5 0
11386.5 0
11387.5 1
11388.5 0
11389.5 0
11390.5 0
11391.5 0
11392.5 0
11393.5 0
11394.5 0
11395.5 0
11396.5 0
11397.5 0
11398.5 0
11399.5 0
11400.5 0
11401.5 0
11402.5 0
11403.5 0
11404.5 0
11405.5 0
11406.5 0
11407.5 0
11408.5 1
11409.5 0
11410.5 0
11411.5 0
11412.5 0
11413.5 0
11414.5 0
11415.5 0
11416.5 0
11417.5 0
11418.5 0
11419.5 0
11420.5 0
11421.5 0
11422.5 0
11423.5 0
11424.5 0
11425.5 0
11426.5 0
11427.5 0
11428.5 0
11429.5 0
11430.5 0
11431.5 0
11432.5 0
11433.5 0
11434.5 0
11435.5 0
11436.5 0
11437.5 0
11438.5 0
11439.5 0
11440.5 0
11441.5 0
11442.5 0
11443.5 0
11444.5 0
11445.5 1
11446.5 0
11447.5 0
11448.5 0
11449.5 0
11450.5 0
11451.5 0
11452.5 0
11453.5 0
11454.5 0
11455.5 0
11456.5 0
11457.5 -0.454545
11458.5 0
11459.5 0
11460.5 0
11461.5 0
11462.5 0
11463.5 0
11464.5 0
11465.5 -0.454545
11466.5 0
11467.5 0
11468.5 -0.454545
11469.5 0
11470.5 0
11471.5 1
11472.5 0
11473.5 0
11474.5 0
11475.5 0
11476.5 0
11477.5 0
11478.5 1
11479.5 0
11480.5 0
11481.5 0
11482.5 0
11483.5 -0.454545
11484.5 0
11485.5 0
11486.5 0
11487.5 0
11488.5 0
11489.5 0
11490.5 0
11491.5 0
11492.5 0
11493.5 0
11494.5 0
11495.5 0
11496.5 0
11497.5 0
11498.5 0
11499.5 0
11500.5 0
11501.5 0
11502.5 0
11503.5 0
11504.5 0
11505.5 0
11506.5 0
11507.5 0
11508.5 0
11509.5 0
11510.5 0
11511.5 0
11512.5 0
11513.5 0
11514.5 0
11515.5 0
11516.5 0
11517.5 0
11518.5 0
11519.5 0
11520.5 0
11521.5 0
11522.5 0
11523.5 0
11524.5 -0.454545
11525.5 0
11526.5 0
11527.5 0
11528.5 0
11529.5 0
11530.5 0
11531.5 0
11532.5 0
11533.5 0
11534.5 0
11535.5 0
11536.5 0
11537.5 0
11538.5 0
11539.5 0
11540.5 0
11541.5 0
11542.5 0
11543.5 0
11544.5 0
11545.5 0
11546.5 0
11547.5 0
11548.5 0
11549.5 0
11550.5 0
11551.5 0
11552.5 1
11553.5 0
11554.5 0
11555.5 0
11556.5 0
11557.5 0
11558.5 0
11559.5 -0.454545
11560.5 1
11561.5 0
11562.5 -0.454545
11563.5 0
11564.5 0
11565.5 0
11566.5 0
11567.5 0
11568.5 0
11569.5 0
11570.5 0
11571.5 0
11572.5 0
11573.5 0
11574.5 0
11575.5 0
11576.5 0
11577.5 0
11578.5 0
11579.5 0
11580.5 0
11581.5 0
11582.5 0
11583.5 0
11584.5 0
11585.5 0
11586.5 0
11587.5 -0.454545
11588.5 0
11589.5 0
11590.5 0
11591.5 0
11592.5 0
11593.5 0
11594.5 0
11595.5 0
11596.5 0
11597.5 0
11598.5 0
11599.5 0
11600.5 0
11601.5 0
11602.5 0
11603.5 0
11604.5 0
11605.5 0
11606.5 0
11607.5 0
11608.5 0
11609.5 0
11610.5 0
11611.5 0
11612.5 0
11613.5 0
11614.5 0
11615.5 0
11616.5 0
11617.5 0
11618.5 0
11619.5 0
11620.5 0
11621.5 0
11622.5 0
11623.5 0
11624.5 0
11625.5 0
11626.5 -0.454545
11627.5 0
11628.5 0
11629.5 0
11630.5 0
11631.5 -0.454545
11632.5 0
11633.5 0
11634.5 0
11635.5 0
11636.5 0
11637.5 0
11638.5 0
11639.5 0
11640.5 0
11641.5 0
11642.5 0
11643.5 0
11644.5 0
11645.5 0
11646.5 0
11647.5 0
11648.5 0
11649.5 0
11650.5 0
11651.5 0
11652.5 0
11653.5 0
11654.5 0
11655.5 0
11656.5 0
11657.5 0
11658.5 0
11659.5 0
11660.5 0
11661.5 0
11662.5 0
11663.5 0
11664.5 0
11665.5 0
11666.5 0
11667.5 0
11668.5 -0.454545
11669.5 0
11670.5 0
11671.5 0
11672.5 0
11673.5 0
11674.5 0
11675.5 0
11676.5 0
11677.5 0
11678.5 0
11679.5 0
11680.5 0
11681.5 0
11682.5 0
11683.5 0
11684.5 0
11685.5 0
11686.5 0
11687.5 0
11688.5 0
11689.5 0
11690.5 0
11691.5 0
11692.5 0
11693.5 0
11694.5 0
11695.5 0
11696.5 0
11697.5 0
11698.5 0
11699.5 0
11700.5 0
11701.5 0
11702.5 0
11703.5 1
11704.5 0
11705.5 0
11706.5 0
11707.5 0
11708.5 0
11709.5 0
11710.5 0
11711.5 0
11712.5 0
11713.5 0
11714.5 0
11715.5 0
11716.5 0
11717.5 0
11718.5 0
11719.5 0
11720.5 0
11721.5 0
11722.5 0
11723.5 0
11724.5 0
11725.5 0
11726.5 0
11727.5 -0.454545
11728.5 0
11729.5 0
11730.5 0
11731.5 0
11732.5 -0.454545
11733.5 0
11734.5 0
11735.5 0
11736.5 0
11737.5 0
11738.5 0
11739.5 0
11740.5 0
11741.5 0
11742.5 0
11743.5 0
11744.5 0
11745.5 0
11746.5 0
11747.5 0
11748.5 0
11749.5 0
11750.5 0
11751.5 0
11752.5 0
11753.5 0
11754.5 0
11755.5 0
11756.5 0
11757.5 0
11758.5 0
11759.5 0
11760.5 0
11761.5 0
11762.5 0
11763.5 0
11764.5 0
11765.5 0
11766.5 0
11767.5 1
11768.5 0
11769.5 0
11770.5 -0.454545
11771.5 0
11772.5 -0.454545
11773.5 0
11774.5 0
11775.5 0
11776.5 0
11777.5 0
11778.5 0
11779.5 0
11780.5 0
11781.5 1
11782.5 0
11783.5 0
11784.5 0
11785.5 0
11786.5 0
11787.5 0
11788.5 0
11789.5 0
11790.5 0
11791.5 1
11792.5 0
11793.5 0
11794.5 0
11795.5 0
11796.5 0
11797.5 0
11798.5 0
11799.5 0
11800.5 0
11801.5 -0.454545
11802.5 0
11803.5 0
11804.5 0
11805.5 0
11806.5 0
11807.5 0
11808.5 0
11809.5 0
11810.5 0
11811.5 -0.454545
11812.5 0
11813.5 0
11814.5 0
11815.5 0
11816.5 1
11817.5 0
11818.5 0
11819.5 0
11820.5 0
11821.5 0
11822.5 0
11823.5 0
11824.5 0
11825.5 0
11826.5 0
11827.5 0
11828.5 0
11829.5 0
11830.5 0
11831.5 0
11832.5 0
11833.5 0
11834.5 0
11835.5 0
11836.5 0
11837.5 0
11838.5 0
11839.5 0
11840.5 0
11841.5 0
11842.5 0
11843.5 0
11844.5 0
11845.5 0
11846.5 0
11847.5 0
11848.5 0
11849.5 0
11850.5 0
11851.5 0
11852.5 0
11853.5 0
11854.5 0
11855.5 0
11856.5 0
11857.5 0
11858.5 0
11859.5 0
11860.5 0
11861.5 -0.454545
11862.5 0
11863.5 0
11864.5 0
11865.5 0
11866.5 0
11867.5 -0.454545
11868.5 0
11869.5 0
11870.5 0
11871.5 0
11872.5 0
11873.5 0
11874.5 0
11875.5 0
11876.5 0
11877.5 1
11878.5 0
11879.5 0
11880.5 0
11881.5 0
11882.5 0
11883.5 0
11884.5 0
11885.5 0
11886.5 -0.454545
11887.5 0
11888.5 0
11889.5 0
11890.5 0
11891.5 0
11892.5 -0.454545
11893.5 0
11894.5 0
11895.5 0
11896.5 0
11897.5 0
11898.5 0
11899.5 0
11900.5 -0.454545
11901.5 0
11902.5 0
11903.5 0
11904.5 0
11905.5 -0.454545
11906.5 0
11907.5 0
11908.5 0
11909.5 0
11910.5 0
11911.5 0
11912.5 0
11913.5 0
11914.5 0
11915.5 0
11916.5 0
11917.5 0
11918.5 0
11919.5 0
11920.5 0
11921.5 0
11922.5 0
11923.5 0
11924.5 0
11925.5 0
11926.5 0
11927.5 0
11928.5 0
11929.5 0
11930.5 0
11931.5 0
11932.5 0
11933.5 0
11934.5 0
11935.5 0
11936.5 0
11937.5 0
11938.5 0
11939.5 -0.454545
11940.5 0
11941.5 0
11942.5 0
11943.5 0
11944.5 0
11945.5 0
11946.5 0
11947.5 0
11948.5 0
11949.5 0
11950.5 0
11951.5 0
11952.5 0
11953.5 0
11954.5 0
11955.5 -0.454545
11956.5 0
11957.5 0
11958.5 0
11959.5 0
11960.5 0
11961.5 0
11962.5 0
11963.5 0
11964.5 0
11965.5 0
11966.5 0
11967.5 0
11968.5 0
11969.5 0
11970.5 0
11971.5 0
11972.5 0
11973.5 0
11974.5 0
11975.5 0
11976.5 0
11977.5 0
11978.5 0
11979.5 0
11980.5 0
11981.5 0
11982.5 0
11983.5 0
11984.5 0
11985.5 0
11986.5 0
11987.5 0
11988.5 0
11989.5 0
11990.5 0
11991.5 0
11992.5 0
11993.5 0
11994.5 -0.454545
11995.5 0
11996.5 0
11997.5 0
11998.5 0.545455
11999.5 0
