# EGG_ProjY_E4208.5(4.5)_B4193.0(3.0)_B4228.5(2.5)
# X axis : Energy (keV) [Y axis]
# Y axis : Counts/1 keV
# N Bins : 12000
# X Min : 0
# X Max : 12000
# X value at the center of the bins
0.5 0
1.5 0
2.5 0
3.5 0
4.5 0
5.5 1.63636
6.5 -10.4545
7.5 4.90909
8.5 7.18182
9.5 20.6364
10.5 29
11.5 -1.18182
12.5 11.3636
13.5 28.1818
14.5 15.4545
15.5 33.6364
16.5 48.8182
17.5 78.5455
18.5 83.9091
19.5 136.364
20.5 162.364
21.5 145.545
22.5 273.273
23.5 212.727
24.5 340
25.5 312.364
26.5 469.364
27.5 413.545
28.5 446
29.5 456.364
30.5 497.545
31.5 581.364
32.5 599.818
33.5 691.545
34.5 646.636
35.5 561.909
36.5 691.182
37.5 699.727
38.5 686.818
39.5 744.182
40.5 701.273
41.5 699.727
42.5 643.273
43.5 670.727
44.5 713.545
45.5 792.818
46.5 689.636
47.5 786.455
48.5 782.909
49.5 720
50.5 719.455
51.5 661.818
52.5 655.364
53.5 722.182
54.5 828.455
55.5 743.091
56.5 913.818
57.5 1045.27
58.5 1251
59.5 1243.64
60.5 930.727
61.5 861.545
62.5 781.273
63.5 780.273
64.5 850
65.5 879.636
66.5 994.636
67.5 1091.27
68.5 964.364
69.5 942
70.5 891.273
71.5 864.273
72.5 930
73.5 1039.64
74.5 1483.45
75.5 1655.64
76.5 1736.27
77.5 1964.36
78.5 1240.55
79.5 895.182
80.5 790.455
81.5 754.273
82.5 759.818
83.5 823.182
84.5 942.364
85.5 926.636
86.5 1196.18
87.5 1445.09
88.5 1171.64
89.5 1014.18
90.5 1057.18
91.5 928.545
92.5 857.455
93.5 815.636
94.5 879.182
95.5 860.273
96.5 952.091
97.5 955.091
98.5 815.182
99.5 891.182
100.5 832.455
101.5 832
102.5 972.909
103.5 800.727
104.5 977.455
105.5 976.182
106.5 865.182
107.5 1038.09
108.5 873.909
109.5 952.909
110.5 886.091
111.5 1009
112.5 950.455
113.5 1091.18
114.5 1013.64
115.5 1083.82
116.5 1078.36
117.5 1043.55
118.5 1241
119.5 1120.09
120.5 1130.91
121.5 1168.09
122.5 1148.45
123.5 1140.73
124.5 1111.55
125.5 1086.64
126.5 1113
127.5 1322.91
128.5 1117.82
129.5 1197.45
130.5 1275
131.5 1062.18
132.5 1075.73
133.5 1148.27
134.5 1241
135.5 1134.36
136.5 1202.36
137.5 1006.73
138.5 1175
139.5 1132.64
140.5 1360.45
141.5 1109.18
142.5 1071.91
143.5 1038.09
144.5 991.455
145.5 1200.18
146.5 1038.55
147.5 1097.91
148.5 1063.55
149.5 1191.91
150.5 1151.55
151.5 1073.82
152.5 1119.45
153.5 1001.27
154.5 1019.55
155.5 1213.45
156.5 1206.91
157.5 1155.09
158.5 1164
159.5 1171.73
160.5 1183.91
161.5 1169.09
162.5 1215.09
163.5 1355.91
164.5 1268.18
165.5 1308.18
166.5 1362.27
167.5 1395.36
168.5 1256.45
169.5 1297.18
170.5 1247.55
171.5 1370.09
172.5 1279.27
173.5 1461.82
174.5 1256.82
175.5 1277.82
176.5 1227.64
177.5 1225.27
178.5 1096
179.5 1317.64
180.5 1191.91
181.5 1168.27
182.5 1332.55
183.5 1373.73
184.5 1141.36
185.5 1427.45
186.5 1212.09
187.5 1287.36
188.5 1109.91
189.5 1143.36
190.5 1189.45
191.5 1174.45
192.5 1152.18
193.5 1297.09
194.5 1491.64
195.5 1276.27
196.5 1348.73
197.5 1300.73
198.5 1491.45
199.5 1446.82
200.5 1204.18
201.5 1213.73
202.5 1242.82
203.5 1214.64
204.5 1075.55
205.5 1216.82
206.5 1299
207.5 1173
208.5 1284.64
209.5 1458.45
210.5 1597.91
211.5 1610
212.5 1481.64
213.5 1335.73
214.5 1428.09
215.5 1452.64
216.5 1447.09
217.5 1422.36
218.5 1506.91
219.5 1630
220.5 1516.73
221.5 1548.64
222.5 1459.09
223.5 1459.82
224.5 1613.18
225.5 1357.55
226.5 1354.18
227.5 1271.09
228.5 1127.73
229.5 1162.45
230.5 1276.09
231.5 1353.36
232.5 1393.55
233.5 1118.73
234.5 1200.64
235.5 1327.09
236.5 1260.18
237.5 1187.18
238.5 1288.91
239.5 1378.18
240.5 1155.27
241.5 1088.55
242.5 1235.91
243.5 1392.36
244.5 1525.82
245.5 1697.45
246.5 1755.64
247.5 1929.91
248.5 1934.91
249.5 1919.18
250.5 1901.45
251.5 1880.64
252.5 1671.45
253.5 1567.27
254.5 1426.91
255.5 1483.73
256.5 1430.91
257.5 1511.64
258.5 1296.45
259.5 1262.73
260.5 1039.27
261.5 884.182
262.5 1043
263.5 1106.82
264.5 906.545
265.5 999
266.5 877.727
267.5 890.273
268.5 969.091
269.5 923.182
270.5 1051.09
271.5 964.727
272.5 1107.82
273.5 1045.91
274.5 1059.36
275.5 942.727
276.5 998.545
277.5 1024.36
278.5 1158.45
279.5 1097.36
280.5 1083.27
281.5 1052.82
282.5 1058.36
283.5 1113.82
284.5 1071.64
285.5 1038.45
286.5 1036.64
287.5 1158.18
288.5 1158.27
289.5 1106.64
290.5 1131.09
291.5 1104.91
292.5 988.818
293.5 1175.09
294.5 983
295.5 995.455
296.5 948.273
297.5 956.636
298.5 1153.09
299.5 1375.09
300.5 1103.82
301.5 894.455
302.5 971.455
303.5 973.455
304.5 1042.91
305.5 923.364
306.5 967.091
307.5 1021.64
308.5 892.091
309.5 933.818
310.5 969.636
311.5 955.545
312.5 1003.27
313.5 1072.55
314.5 1058
315.5 999.455
316.5 1139.09
317.5 1052
318.5 909.364
319.5 967.364
320.5 993.727
321.5 957.091
322.5 894.273
323.5 968.909
324.5 888.364
325.5 950.091
326.5 772.091
327.5 812.636
328.5 707.727
329.5 880.636
330.5 856.545
331.5 904
332.5 854.545
333.5 958.273
334.5 741.273
335.5 759.636
336.5 793.182
337.5 732.636
338.5 953.091
339.5 968
340.5 941.182
341.5 998.818
342.5 1051.91
343.5 993.364
344.5 1096.18
345.5 1018.27
346.5 1085.55
347.5 949.091
348.5 936.182
349.5 1139.36
350.5 952
351.5 1079.64
352.5 991.091
353.5 848.818
354.5 902.818
355.5 975.636
356.5 848.273
357.5 962.091
358.5 901
359.5 853.545
360.5 750.364
361.5 853.636
362.5 778.364
363.5 755.636
364.5 833.727
365.5 950.182
366.5 909.727
367.5 799
368.5 905.455
369.5 853.182
370.5 793.727
371.5 764.909
372.5 875.727
373.5 776.091
374.5 847.273
375.5 748.545
376.5 897.727
377.5 838.091
378.5 847
379.5 935.909
380.5 841
381.5 785.455
382.5 777.818
383.5 730.273
384.5 712.273
385.5 682.727
386.5 720.727
387.5 758.909
388.5 740.636
389.5 919.545
390.5 1016.27
391.5 804.545
392.5 625.727
393.5 709.364
394.5 639.364
395.5 756.727
396.5 664
397.5 730.091
398.5 821.364
399.5 742.455
400.5 790.545
401.5 882.091
402.5 1089.18
403.5 1764.36
404.5 1872.36
405.5 1102.45
406.5 912.364
407.5 975.727
408.5 938.364
409.5 926.364
410.5 833.636
411.5 958.727
412.5 982.455
413.5 952
414.5 940.364
415.5 961.727
416.5 914.727
417.5 830.091
418.5 743.273
419.5 851
420.5 749.091
421.5 699.636
422.5 562.182
423.5 677
424.5 684.455
425.5 720.727
426.5 706.455
427.5 657.818
428.5 692.455
429.5 665.727
430.5 608.727
431.5 678.091
432.5 721.273
433.5 697.727
434.5 736.455
435.5 735.727
436.5 799.364
437.5 874.182
438.5 901.636
439.5 944
440.5 913
441.5 1002.64
442.5 933.909
443.5 982.182
444.5 906.636
445.5 814
446.5 852
447.5 843.091
448.5 728.273
449.5 752.727
450.5 762.636
451.5 662.727
452.5 693.909
453.5 607.909
454.5 747
455.5 595.364
456.5 630.091
457.5 669.182
458.5 580
459.5 605.909
460.5 616
461.5 676.091
462.5 734.727
463.5 722.727
464.5 750.727
465.5 652
466.5 715.545
467.5 661.636
468.5 722.545
469.5 752.091
470.5 678.545
471.5 769
472.5 803.455
473.5 819.364
474.5 860.091
475.5 778.545
476.5 945.364
477.5 803
478.5 844.909
479.5 727.091
480.5 930.909
481.5 770.727
482.5 785.455
483.5 769.364
484.5 749.455
485.5 623.455
486.5 684.182
487.5 649.273
488.5 644.818
489.5 692.091
490.5 690.455
491.5 659.455
492.5 654.091
493.5 606.455
494.5 663.545
495.5 648.818
496.5 646
497.5 673.909
498.5 687
499.5 667
500.5 624.818
501.5 657
502.5 684.909
503.5 718.091
504.5 662.727
505.5 761
506.5 938.091
507.5 1109.82
508.5 1540.91
509.5 2472.82
510.5 3404.91
511.5 3105.27
512.5 2246.27
513.5 1329.36
514.5 886.545
515.5 713.909
516.5 736.091
517.5 622.364
518.5 689.182
519.5 612.727
520.5 659.545
521.5 748.727
522.5 697.545
523.5 577.455
524.5 702.636
525.5 662.909
526.5 672.455
527.5 659.455
528.5 670.364
529.5 696.091
530.5 644.364
531.5 669.545
532.5 701.909
533.5 665.364
534.5 631.727
535.5 659.727
536.5 624
537.5 776.364
538.5 713.273
539.5 777.273
540.5 722.455
541.5 600.727
542.5 686.727
543.5 660.364
544.5 669
545.5 645.727
546.5 654.273
547.5 682.182
548.5 642
549.5 732.091
550.5 679.727
551.5 668.182
552.5 621.091
553.5 651.818
554.5 752.273
555.5 674
556.5 679.273
557.5 605.545
558.5 653.455
559.5 689.091
560.5 683
561.5 632.909
562.5 651
563.5 753.091
564.5 715.818
565.5 640.636
566.5 724.091
567.5 606.818
568.5 631.636
569.5 555.273
570.5 671.091
571.5 702
572.5 532.909
573.5 611.727
574.5 553.909
575.5 660.364
576.5 582.545
577.5 565.364
578.5 582.909
579.5 520.636
580.5 614.636
581.5 625.545
582.5 477.909
583.5 438.545
584.5 575.818
585.5 607.727
586.5 599.909
587.5 587.909
588.5 567.727
589.5 616.091
590.5 568.091
591.5 657.091
592.5 741.545
593.5 675.727
594.5 719.545
595.5 726.364
596.5 622.636
597.5 640.182
598.5 650.727
599.5 641.636
600.5 652.636
601.5 608.636
602.5 600.636
603.5 629.636
604.5 652.455
605.5 661.636
606.5 726.909
607.5 606.909
608.5 545.182
609.5 560.273
610.5 585.091
611.5 619.727
612.5 466.636
613.5 570.364
614.5 549
615.5 511.091
616.5 531
617.5 587
618.5 585.091
619.5 618.182
620.5 534
621.5 570.455
622.5 603.818
623.5 638.818
624.5 528.273
625.5 578.364
626.5 728.909
627.5 1369.55
628.5 2271.09
629.5 1630.64
630.5 864.273
631.5 678.091
632.5 637.727
633.5 586.455
634.5 624.455
635.5 830.364
636.5 1213.55
637.5 1664.55
638.5 1292.82
639.5 783.182
640.5 632.273
641.5 654.545
642.5 559.909
643.5 656.818
644.5 608.182
645.5 569.273
646.5 589.818
647.5 593
648.5 828.182
649.5 1488.27
650.5 2177.18
651.5 1907.82
652.5 1176.91
653.5 1069.27
654.5 914
655.5 633.455
656.5 665.182
657.5 526.818
658.5 531.727
659.5 514.273
660.5 577.273
661.5 533
662.5 658.727
663.5 497.545
664.5 662.818
665.5 614.455
666.5 653.636
667.5 631.818
668.5 526.091
669.5 649.545
670.5 661.727
671.5 558.091
672.5 542.727
673.5 554.636
674.5 579
675.5 606.273
676.5 657.818
677.5 565.364
678.5 623.727
679.5 586.636
680.5 564.909
681.5 542.182
682.5 548.364
683.5 597.455
684.5 505.727
685.5 591.091
686.5 530.273
687.5 617.636
688.5 514.364
689.5 452.455
690.5 573.364
691.5 535.455
692.5 526.909
693.5 562.818
694.5 532.364
695.5 540.818
696.5 602.636
697.5 599.455
698.5 617.636
699.5 597.545
700.5 604.727
701.5 546.636
702.5 695.091
703.5 669.455
704.5 670.455
705.5 574.364
706.5 594.909
707.5 620.182
708.5 528.364
709.5 620.091
710.5 617.091
711.5 610.636
712.5 581.364
713.5 565.091
714.5 535.455
715.5 537.636
716.5 536.636
717.5 477.364
718.5 591.091
719.5 535
720.5 596.091
721.5 602
722.5 613.909
723.5 539.545
724.5 494.909
725.5 601
726.5 618.091
727.5 613.091
728.5 623.545
729.5 585.091
730.5 548
731.5 618.455
732.5 530.727
733.5 648.273
734.5 562.182
735.5 574.091
736.5 627.545
737.5 640.091
738.5 618.273
739.5 579
740.5 623.818
741.5 592.182
742.5 581.727
743.5 597.273
744.5 595.727
745.5 551.182
746.5 611.636
747.5 598.818
748.5 629.727
749.5 616.091
750.5 578.818
751.5 581.273
752.5 491.182
753.5 561.182
754.5 620.182
755.5 563.727
756.5 567.545
757.5 598.364
758.5 954.909
759.5 2528.55
760.5 6395.91
761.5 7008.64
762.5 3223.82
763.5 1177.18
764.5 664.091
765.5 576.909
766.5 596.091
767.5 563.273
768.5 616.182
769.5 567.364
770.5 581.636
771.5 637.182
772.5 639.091
773.5 617.455
774.5 607.818
775.5 556.727
776.5 635
777.5 519
778.5 663.182
779.5 620.455
780.5 562
781.5 609.909
782.5 546.727
783.5 562.818
784.5 606.636
785.5 521.818
786.5 588.455
787.5 625.545
788.5 542.727
789.5 612.364
790.5 638
791.5 570.727
792.5 523.091
793.5 645.545
794.5 666.545
795.5 590.455
796.5 652
797.5 572.818
798.5 592.636
799.5 581.273
800.5 592.727
801.5 598.364
802.5 591.273
803.5 637.182
804.5 602.273
805.5 673
806.5 766
807.5 760.636
808.5 648.909
809.5 661.273
810.5 623.455
811.5 508.091
812.5 512.455
813.5 629.636
814.5 559.364
815.5 604.818
816.5 611.455
817.5 593.273
818.5 619.545
819.5 625.182
820.5 619.818
821.5 608.909
822.5 590.091
823.5 641.091
824.5 680.545
825.5 601.727
826.5 560.636
827.5 573.545
828.5 643.273
829.5 694.182
830.5 638
831.5 683.727
832.5 637.455
833.5 516.364
834.5 609.818
835.5 573.545
836.5 595.909
837.5 602
838.5 584.727
839.5 532
840.5 592.909
841.5 668.818
842.5 646.455
843.5 664.545
844.5 673.091
845.5 636.545
846.5 674.909
847.5 647.818
848.5 604.545
849.5 531.364
850.5 666.455
851.5 687.182
852.5 676.727
853.5 669.455
854.5 601.818
855.5 684.364
856.5 668.273
857.5 692
858.5 586.455
859.5 635.818
860.5 646.818
861.5 621.636
862.5 663.636
863.5 706.727
864.5 703
865.5 680
866.5 753.273
867.5 1085.64
868.5 1859.09
869.5 2033
870.5 1411.82
871.5 906.909
872.5 690.091
873.5 664.545
874.5 692.364
875.5 663.545
876.5 949.636
877.5 1336.55
878.5 1433.73
879.5 954.636
880.5 843.182
881.5 793.455
882.5 731.455
883.5 743.273
884.5 725.636
885.5 709.091
886.5 676.091
887.5 652.455
888.5 755.727
889.5 732.545
890.5 720.727
891.5 729.545
892.5 683.727
893.5 733.273
894.5 777.727
895.5 785.091
896.5 710.455
897.5 779.273
898.5 825.909
899.5 737.182
900.5 775.091
901.5 783.364
902.5 763.636
903.5 749.182
904.5 795.091
905.5 741.636
906.5 748.273
907.5 825.273
908.5 772.364
909.5 846.636
910.5 847.818
911.5 819.909
912.5 761.545
913.5 810.727
914.5 866.545
915.5 781.182
916.5 865.818
917.5 736.636
918.5 741.182
919.5 829.727
920.5 766.091
921.5 741.818
922.5 795.909
923.5 788.364
924.5 807.818
925.5 759.727
926.5 750.909
927.5 820.909
928.5 838.727
929.5 749.636
930.5 836.727
931.5 806.727
932.5 786.364
933.5 845.091
934.5 790.364
935.5 795.364
936.5 765.091
937.5 799.182
938.5 757.182
939.5 797.273
940.5 736.636
941.5 691.545
942.5 764.364
943.5 760.545
944.5 697.909
945.5 783
946.5 685.273
947.5 694.545
948.5 646.364
949.5 633.364
950.5 675
951.5 732.364
952.5 665.727
953.5 626.182
954.5 627
955.5 605.182
956.5 619.364
957.5 687
958.5 607.455
959.5 609.091
960.5 555.364
961.5 577.091
962.5 611.273
963.5 585.636
964.5 977.455
965.5 1824.27
966.5 2678.55
967.5 1790.82
968.5 931.545
969.5 538.818
970.5 475.909
971.5 551.182
972.5 522.909
973.5 465
974.5 540.545
975.5 462.182
976.5 566.364
977.5 497.727
978.5 540.727
979.5 481.545
980.5 465.909
981.5 586.182
982.5 493.909
983.5 477.091
984.5 570.545
985.5 480.091
986.5 507.636
987.5 517.182
988.5 492.182
989.5 509
990.5 513.455
991.5 492.364
992.5 546.455
993.5 469.909
994.5 429.364
995.5 438.545
996.5 478.364
997.5 432.727
998.5 491.727
999.5 677.818
1000.5 1453.91
1001.5 2570.64
1002.5 2285.55
1003.5 1141.09
1004.5 556.364
1005.5 467.727
1006.5 424
1007.5 429.909
1008.5 372.455
1009.5 472.364
1010.5 364.273
1011.5 426.909
1012.5 421.818
1013.5 387.636
1014.5 509.727
1015.5 422.545
1016.5 427.909
1017.5 513.818
1018.5 402.455
1019.5 379.636
1020.5 426.545
1021.5 399.364
1022.5 507.636
1023.5 580.636
1024.5 772.273
1025.5 649.455
1026.5 492.364
1027.5 403.364
1028.5 362
1029.5 388.909
1030.5 420.909
1031.5 368
1032.5 378.727
1033.5 375.364
1034.5 311.091
1035.5 358.091
1036.5 311.182
1037.5 322.636
1038.5 384.364
1039.5 329.727
1040.5 409.818
1041.5 349.636
1042.5 357.909
1043.5 394.727
1044.5 357.455
1045.5 328.818
1046.5 342.545
1047.5 334.091
1048.5 356
1049.5 319.909
1050.5 311
1051.5 312.727
1052.5 305.091
1053.5 347.455
1054.5 305.545
1055.5 340
1056.5 260.909
1057.5 310.818
1058.5 357.909
1059.5 290.273
1060.5 354.727
1061.5 314
1062.5 321.636
1063.5 273.818
1064.5 331.909
1065.5 333
1066.5 288.727
1067.5 348.364
1068.5 309
1069.5 249.182
1070.5 348.182
1071.5 684.909
1072.5 1493.82
1073.5 3303.73
1074.5 3967.09
1075.5 2143.18
1076.5 722.182
1077.5 336.909
1078.5 318.727
1079.5 293.091
1080.5 262.909
1081.5 233.455
1082.5 312.182
1083.5 304.273
1084.5 255.273
1085.5 230
1086.5 282.909
1087.5 218.182
1088.5 284.818
1089.5 280.091
1090.5 300.545
1091.5 326.727
1092.5 301.182
1093.5 429.364
1094.5 467.364
1095.5 398.091
1096.5 324.455
1097.5 288.545
1098.5 279.455
1099.5 258
1100.5 235.091
1101.5 302.364
1102.5 271.727
1103.5 259.364
1104.5 297.909
1105.5 253.182
1106.5 264.636
1107.5 246.273
1108.5 276.727
1109.5 255.091
1110.5 291.818
1111.5 220.091
1112.5 295.091
1113.5 254
1114.5 259.182
1115.5 253.636
1116.5 317.455
1117.5 264.273
1118.5 194.273
1119.5 286
1120.5 324.727
1121.5 384
1122.5 790.818
1123.5 2468.45
1124.5 9171.64
1125.5 21790.4
1126.5 24343.2
1127.5 11040.9
1128.5 2575.64
1129.5 575.545
1130.5 309.727
1131.5 299.182
1132.5 226
1133.5 246.636
1134.5 259.364
1135.5 231.182
1136.5 184.909
1137.5 217.455
1138.5 244.636
1139.5 195.545
1140.5 324.545
1141.5 200
1142.5 271.091
1143.5 268
1144.5 247.364
1145.5 279.909
1146.5 273.273
1147.5 306.182
1148.5 231.455
1149.5 244.818
1150.5 238.091
1151.5 298.182
1152.5 411.727
1153.5 1128.09
1154.5 4406.55
1155.5 14881.6
1156.5 32946.5
1157.5 32979.5
1158.5 13981.3
1159.5 2917
1160.5 617.727
1161.5 247.364
1162.5 154.091
1163.5 111.273
1164.5 133.636
1165.5 133.636
1166.5 138.818
1167.5 127.182
1168.5 105.182
1169.5 140.273
1170.5 153.636
1171.5 124.636
1172.5 124.091
1173.5 164
1174.5 135.636
1175.5 153.364
1176.5 133.636
1177.5 144.091
1178.5 115.818
1179.5 111.727
1180.5 114.545
1181.5 153.545
1182.5 176.091
1183.5 194.636
1184.5 151.727
1185.5 259.909
1186.5 384
1187.5 659.273
1188.5 826.364
1189.5 686.455
1190.5 443.273
1191.5 230.273
1192.5 133.909
1193.5 146.273
1194.5 134.545
1195.5 83.7273
1196.5 165.455
1197.5 103
1198.5 116.727
1199.5 133.818
1200.5 112.455
1201.5 119.545
1202.5 122.636
1203.5 145.273
1204.5 89.2727
1205.5 141.727
1206.5 228.364
1207.5 196.909
1208.5 189.273
1209.5 155.636
1210.5 117.455
1211.5 148.182
1212.5 102.727
1213.5 154.727
1214.5 142.727
1215.5 113
1216.5 159.545
1217.5 119.818
1218.5 120.818
1219.5 159.545
1220.5 147.818
1221.5 137.818
1222.5 88.5455
1223.5 113.364
1224.5 83.6364
1225.5 147.636
1226.5 151.091
1227.5 169.091
1228.5 151.273
1229.5 141.364
1230.5 129.182
1231.5 78.6364
1232.5 166.545
1233.5 97.7273
1234.5 107.273
1235.5 113.545
1236.5 112.727
1237.5 116.545
1238.5 150.182
1239.5 108
1240.5 94.1818
1241.5 131.818
1242.5 134.818
1243.5 93.4545
1244.5 131.455
1245.5 107.545
1246.5 137.909
1247.5 97.3636
1248.5 131.273
1249.5 102.909
1250.5 148.636
1251.5 91.9091
1252.5 102.909
1253.5 126.182
1254.5 101.636
1255.5 169.364
1256.5 144.818
1257.5 138.909
1258.5 144
1259.5 157.636
1260.5 185.636
1261.5 258.273
1262.5 289.909
1263.5 292.545
1264.5 188.545
1265.5 213.727
1266.5 216.273
1267.5 275.818
1268.5 196.455
1269.5 245.182
1270.5 133.909
1271.5 152.818
1272.5 97.3636
1273.5 136.636
1274.5 88.1818
1275.5 148.818
1276.5 191.182
1277.5 115.091
1278.5 134.909
1279.5 124.182
1280.5 96.5455
1281.5 132.091
1282.5 170.636
1283.5 137.364
1284.5 109.545
1285.5 137.636
1286.5 145
1287.5 124.091
1288.5 135.818
1289.5 127.091
1290.5 123.909
1291.5 118.727
1292.5 133.182
1293.5 129.455
1294.5 130.091
1295.5 83.7273
1296.5 109.545
1297.5 114.818
1298.5 105.182
1299.5 105.455
1300.5 131.727
1301.5 160
1302.5 128
1303.5 102.182
1304.5 102.273
1305.5 117.636
1306.5 125.818
1307.5 97.0909
1308.5 62
1309.5 47.5455
1310.5 95.1818
1311.5 89.1818
1312.5 103.909
1313.5 156.182
1314.5 134.545
1315.5 101.545
1316.5 153.818
1317.5 120.545
1318.5 96.3636
1319.5 97.0909
1320.5 91.7273
1321.5 119.727
1322.5 90.8182
1323.5 115.636
1324.5 145.545
1325.5 108.364
1326.5 96
1327.5 150.727
1328.5 109.455
1329.5 106.909
1330.5 106.273
1331.5 148.636
1332.5 76.9091
1333.5 164.727
1334.5 134
1335.5 132.091
1336.5 115.364
1337.5 136.091
1338.5 118
1339.5 112.182
1340.5 108.182
1341.5 115.545
1342.5 103.727
1343.5 118.818
1344.5 130
1345.5 130
1346.5 115.909
1347.5 158.727
1348.5 155.455
1349.5 127.636
1350.5 114
1351.5 144.182
1352.5 107.364
1353.5 134.727
1354.5 85.5455
1355.5 91.8182
1356.5 109.818
1357.5 91.0909
1358.5 130.727
1359.5 109.818
1360.5 128
1361.5 110.818
1362.5 80.5455
1363.5 119.182
1364.5 123.727
1365.5 171.818
1366.5 164.091
1367.5 154.545
1368.5 141.273
1369.5 94.5455
1370.5 117.727
1371.5 143.727
1372.5 198.818
1373.5 186.909
1374.5 223.727
1375.5 175.182
1376.5 203.909
1377.5 164.182
1378.5 198.909
1379.5 243.455
1380.5 225.727
1381.5 128.364
1382.5 144.182
1383.5 152.455
1384.5 130.182
1385.5 97.5455
1386.5 77.5455
1387.5 126.273
1388.5 106.455
1389.5 119
1390.5 145.455
1391.5 92.7273
1392.5 91.3636
1393.5 130
1394.5 109.727
1395.5 99.6364
1396.5 125.636
1397.5 140
1398.5 123.182
1399.5 94.2727
1400.5 181.182
1401.5 194.273
1402.5 159.545
1403.5 123.091
1404.5 117.182
1405.5 126.727
1406.5 111.909
1407.5 122.273
1408.5 166
1409.5 98.4545
1410.5 71
1411.5 125.636
1412.5 89.3636
1413.5 109
1414.5 116.727
1415.5 130.545
1416.5 94.1818
1417.5 113.727
1418.5 162.273
1419.5 164.455
1420.5 160.727
1421.5 113
1422.5 105.636
1423.5 88.4545
1424.5 115
1425.5 151.727
1426.5 166.091
1427.5 297.182
1428.5 430.455
1429.5 310.182
1430.5 194.636
1431.5 148.636
1432.5 105.909
1433.5 124.818
1434.5 112.909
1435.5 104.455
1436.5 75.8182
1437.5 67
1438.5 92.8182
1439.5 115.182
1440.5 133.636
1441.5 140.545
1442.5 95.2727
1443.5 166.636
1444.5 121.455
1445.5 102.273
1446.5 89.0909
1447.5 119.455
1448.5 121.818
1449.5 99.9091
1450.5 87.4545
1451.5 118.545
1452.5 94.8182
1453.5 113.455
1454.5 129.636
1455.5 108.636
1456.5 96.7273
1457.5 73.6364
1458.5 107
1459.5 167.727
1460.5 121.091
1461.5 200.182
1462.5 288.727
1463.5 244.545
1464.5 199.909
1465.5 115
1466.5 97
1467.5 97.2727
1468.5 106
1469.5 75.5455
1470.5 157.273
1471.5 99
1472.5 103.364
1473.5 106.636
1474.5 106
1475.5 133.182
1476.5 114.909
1477.5 121.455
1478.5 97.2727
1479.5 90
1480.5 131.636
1481.5 104.727
1482.5 142.545
1483.5 91.6364
1484.5 151.636
1485.5 114.727
1486.5 104
1487.5 149.909
1488.5 156.364
1489.5 158.455
1490.5 129.364
1491.5 113.091
1492.5 70.7273
1493.5 108.909
1494.5 134.818
1495.5 106.364
1496.5 248.455
1497.5 663.909
1498.5 1433.18
1499.5 2016.91
1500.5 1328.55
1501.5 513.818
1502.5 166.545
1503.5 96.8182
1504.5 111
1505.5 136.818
1506.5 107.818
1507.5 111
1508.5 99.0909
1509.5 150.818
1510.5 201.182
1511.5 212.182
1512.5 193.545
1513.5 173.364
1514.5 139.091
1515.5 100.364
1516.5 104.364
1517.5 93.1818
1518.5 120.091
1519.5 107.091
1520.5 132.273
1521.5 105.273
1522.5 66
1523.5 117.455
1524.5 81.0909
1525.5 119.636
1526.5 134.364
1527.5 99
1528.5 105.455
1529.5 131.636
1530.5 83.3636
1531.5 86.9091
1532.5 116.455
1533.5 112.182
1534.5 117.455
1535.5 155.727
1536.5 108.273
1537.5 131.636
1538.5 117.909
1539.5 159.364
1540.5 185.091
1541.5 152.727
1542.5 121.364
1543.5 102.636
1544.5 71.5455
1545.5 119.091
1546.5 120.273
1547.5 96.2727
1548.5 97.9091
1549.5 77.6364
1550.5 78.7273
1551.5 133
1552.5 97.5455
1553.5 99.7273
1554.5 78.0909
1555.5 61.3636
1556.5 75.1818
1557.5 79.3636
1558.5 73.0909
1559.5 94.7273
1560.5 114.727
1561.5 93.5455
1562.5 86.7273
1563.5 119.182
1564.5 53.4545
1565.5 96.5455
1566.5 102.182
1567.5 137.727
1568.5 111.818
1569.5 111.818
1570.5 113.455
1571.5 81.7273
1572.5 72
1573.5 88.0909
1574.5 129.727
1575.5 164.091
1576.5 186.818
1577.5 245.091
1578.5 199.273
1579.5 244.818
1580.5 379.818
1581.5 341.545
1582.5 202.909
1583.5 137.455
1584.5 145.182
1585.5 110.364
1586.5 143
1587.5 140.455
1588.5 125.909
1589.5 158.818
1590.5 102.182
1591.5 122.273
1592.5 116.455
1593.5 69.1818
1594.5 84.3636
1595.5 112.273
1596.5 104.182
1597.5 114
1598.5 92.3636
1599.5 103
1600.5 86.4545
1601.5 97.0909
1602.5 124.273
1603.5 102.636
1604.5 128.727
1605.5 112.545
1606.5 64.9091
1607.5 117.636
1608.5 102.455
1609.5 118.727
1610.5 114.182
1611.5 89.5455
1612.5 97.2727
1613.5 88.4545
1614.5 88.3636
1615.5 89
1616.5 75.3636
1617.5 129.091
1618.5 109.182
1619.5 186.636
1620.5 237.727
1621.5 224.727
1622.5 124.364
1623.5 109.364
1624.5 133.727
1625.5 135
1626.5 100.909
1627.5 116.818
1628.5 143.818
1629.5 175.182
1630.5 272.273
1631.5 372
1632.5 564.818
1633.5 830.364
1634.5 910.364
1635.5 571
1636.5 268.636
1637.5 190.182
1638.5 237.182
1639.5 239.636
1640.5 272.182
1641.5 249.091
1642.5 155.364
1643.5 158.455
1644.5 133
1645.5 117.364
1646.5 229.091
1647.5 358.545
1648.5 391.818
1649.5 344.727
1650.5 224
1651.5 94.0909
1652.5 114
1653.5 105.636
1654.5 98.6364
1655.5 112.818
1656.5 117.636
1657.5 108
1658.5 130.273
1659.5 86.3636
1660.5 105.364
1661.5 144.273
1662.5 126
1663.5 126.364
1664.5 104
1665.5 79.2727
1666.5 101
1667.5 102
1668.5 65.9091
1669.5 114.909
1670.5 130.091
1671.5 75.3636
1672.5 73
1673.5 74.7273
1674.5 104.818
1675.5 103.909
1676.5 88.6364
1677.5 135.909
1678.5 125.364
1679.5 103.182
1680.5 134.727
1681.5 112.364
1682.5 132.182
1683.5 114.273
1684.5 113.727
1685.5 122.273
1686.5 105.182
1687.5 91.8182
1688.5 158.091
1689.5 238.545
1690.5 295.182
1691.5 325.273
1692.5 192.909
1693.5 126.455
1694.5 82.4545
1695.5 81
1696.5 120.091
1697.5 118.727
1698.5 82.4545
1699.5 114.091
1700.5 112.545
1701.5 133.545
1702.5 100.273
1703.5 99.9091
1704.5 87.3636
1705.5 77.3636
1706.5 61.9091
1707.5 65.6364
1708.5 142.364
1709.5 42.3636
1710.5 96.2727
1711.5 120.545
1712.5 110.182
1713.5 119.909
1714.5 128.818
1715.5 51.9091
1716.5 98.2727
1717.5 129.182
1718.5 129.182
1719.5 132.636
1720.5 97.5455
1721.5 66.0909
1722.5 83.8182
1723.5 71.5455
1724.5 110.273
1725.5 207.818
1726.5 323.545
1727.5 443.182
1728.5 350.727
1729.5 216
1730.5 111.091
1731.5 70
1732.5 110
1733.5 78.8182
1734.5 39.5455
1735.5 74.6364
1736.5 86.4545
1737.5 98
1738.5 112.091
1739.5 138.909
1740.5 104.818
1741.5 118.818
1742.5 95.1818
1743.5 107.455
1744.5 78.7273
1745.5 95.3636
1746.5 64
1747.5 87.3636
1748.5 72.9091
1749.5 65.2727
1750.5 65
1751.5 117.182
1752.5 51.1818
1753.5 95.2727
1754.5 94.5455
1755.5 62.5455
1756.5 72.1818
1757.5 69.0909
1758.5 78
1759.5 82.2727
1760.5 71.9091
1761.5 103.909
1762.5 87.0909
1763.5 76.4545
1764.5 75.7273
1765.5 72.6364
1766.5 66.9091
1767.5 85.6364
1768.5 47.0909
1769.5 89.7273
1770.5 112.636
1771.5 114.909
1772.5 123.273
1773.5 98.0909
1774.5 79.7273
1775.5 63.1818
1776.5 94.8182
1777.5 87.4545
1778.5 92.9091
1779.5 115.364
1780.5 98.6364
1781.5 91.3636
1782.5 88.4545
1783.5 108.182
1784.5 105
1785.5 73.9091
1786.5 86.5455
1787.5 116.455
1788.5 106.273
1789.5 124
1790.5 217.182
1791.5 228.636
1792.5 156
1793.5 114.455
1794.5 97.9091
1795.5 91.3636
1796.5 47.4545
1797.5 27.7273
1798.5 69
1799.5 96.2727
1800.5 47.2727
1801.5 75.2727
1802.5 54.3636
1803.5 96.5455
1804.5 74.2727
1805.5 67.7273
1806.5 73.6364
1807.5 104.727
1808.5 164.455
1809.5 131.273
1810.5 115.727
1811.5 42.6364
1812.5 72.3636
1813.5 92.0909
1814.5 74.4545
1815.5 110.818
1816.5 115.273
1817.5 106.909
1818.5 117.727
1819.5 112.909
1820.5 89.1818
1821.5 93.8182
1822.5 119
1823.5 140.727
1824.5 129.727
1825.5 148.818
1826.5 121.818
1827.5 75.1818
1828.5 78.0909
1829.5 98.2727
1830.5 73.2727
1831.5 84.6364
1832.5 89.2727
1833.5 102.455
1834.5 58.8182
1835.5 76.3636
1836.5 55
1837.5 80.0909
1838.5 56.3636
1839.5 49.6364
1840.5 85.3636
1841.5 69.2727
1842.5 86.9091
1843.5 138.909
1844.5 147.091
1845.5 79
1846.5 128.727
1847.5 99.5455
1848.5 94.4545
1849.5 76.8182
1850.5 119.818
1851.5 70.8182
1852.5 79.4545
1853.5 93.8182
1854.5 89.5455
1855.5 45.6364
1856.5 77.7273
1857.5 58.9091
1858.5 80.2727
1859.5 75.9091
1860.5 66.3636
1861.5 82.1818
1862.5 84.1818
1863.5 82.9091
1864.5 96.7273
1865.5 56.9091
1866.5 69.0909
1867.5 66.3636
1868.5 72.2727
1869.5 33.2727
1870.5 161
1871.5 154.545
1872.5 154.636
1873.5 106
1874.5 68.6364
1875.5 93.0909
1876.5 102.545
1877.5 117.273
1878.5 67.7273
1879.5 79.8182
1880.5 85.6364
1881.5 62.6364
1882.5 82.8182
1883.5 237.818
1884.5 587.182
1885.5 1516.73
1886.5 2734.73
1887.5 2926.55
1888.5 1609.55
1889.5 509.818
1890.5 191.636
1891.5 126.364
1892.5 90.1818
1893.5 107.364
1894.5 129.818
1895.5 96.6364
1896.5 97
1897.5 73.4545
1898.5 97.2727
1899.5 75.9091
1900.5 64.6364
1901.5 98.3636
1902.5 49.0909
1903.5 87.3636
1904.5 74.9091
1905.5 107.455
1906.5 76.5455
1907.5 81
1908.5 75.4545
1909.5 91.6364
1910.5 73.2727
1911.5 134.364
1912.5 193
1913.5 270.364
1914.5 441
1915.5 513.909
1916.5 592.364
1917.5 555.545
1918.5 290
1919.5 141.818
1920.5 122.545
1921.5 86.0909
1922.5 62
1923.5 81.4545
1924.5 63.2727
1925.5 60.7273
1926.5 61.4545
1927.5 78.9091
1928.5 92.1818
1929.5 77.9091
1930.5 82.6364
1931.5 91.2727
1932.5 77.5455
1933.5 79.6364
1934.5 91
1935.5 60.3636
1936.5 90.3636
1937.5 64.2727
1938.5 65.1818
1939.5 59.0909
1940.5 90.8182
1941.5 134.091
1942.5 184.636
1943.5 140.818
1944.5 107.273
1945.5 66.5455
1946.5 120.727
1947.5 66.5455
1948.5 54.3636
1949.5 91.6364
1950.5 49.0909
1951.5 59.1818
1952.5 40.5455
1953.5 64
1954.5 42.7273
1955.5 90.4545
1956.5 71
1957.5 56.9091
1958.5 39.7273
1959.5 79.9091
1960.5 44.0909
1961.5 79.8182
1962.5 83.2727
1963.5 50.9091
1964.5 76.5455
1965.5 65.1818
1966.5 52.9091
1967.5 72.7273
1968.5 51.3636
1969.5 55.8182
1970.5 86.5455
1971.5 59.3636
1972.5 78.1818
1973.5 38.6364
1974.5 102.909
1975.5 54.4545
1976.5 90.5455
1977.5 64.4545
1978.5 66.3636
1979.5 86.3636
1980.5 90.8182
1981.5 59
1982.5 50.0909
1983.5 116
1984.5 115.545
1985.5 104.727
1986.5 95.0909
1987.5 90.2727
1988.5 84
1989.5 67.9091
1990.5 96.8182
1991.5 83.6364
1992.5 68.1818
1993.5 85.9091
1994.5 108.455
1995.5 71.8182
1996.5 83.0909
1997.5 35.4545
1998.5 88.0909
1999.5 83.9091
2000.5 93.9091
2001.5 33.3636
2002.5 34.8182
2003.5 52.8182
2004.5 85.4545
2005.5 48.8182
2006.5 66.6364
2007.5 58.9091
2008.5 47.2727
2009.5 65.8182
2010.5 87.2727
2011.5 83.7273
2012.5 103.636
2013.5 112.636
2014.5 170.455
2015.5 180.455
2016.5 152.455
2017.5 97.0909
2018.5 102.909
2019.5 59
2020.5 71.4545
2021.5 59.3636
2022.5 80.8182
2023.5 49.3636
2024.5 78
2025.5 54.8182
2026.5 74.6364
2027.5 61.2727
2028.5 91.9091
2029.5 80.4545
2030.5 55.7273
2031.5 74.2727
2032.5 82.9091
2033.5 64.1818
2034.5 77.8182
2035.5 61.1818
2036.5 79.7273
2037.5 59.5455
2038.5 49.3636
2039.5 65.0909
2040.5 46.2727
2041.5 51.5455
2042.5 68.4545
2043.5 59.4545
2044.5 53.1818
2045.5 78
2046.5 62.7273
2047.5 67.2727
2048.5 54.2727
2049.5 38.9091
2050.5 70.1818
2051.5 71.6364
2052.5 98.4545
2053.5 114.818
2054.5 49.9091
2055.5 46.6364
2056.5 81.2727
2057.5 69.2727
2058.5 55.1818
2059.5 59.7273
2060.5 94.4545
2061.5 45.8182
2062.5 56.9091
2063.5 73.4545
2064.5 45.7273
2065.5 72.4545
2066.5 48.4545
2067.5 69.1818
2068.5 54.2727
2069.5 56.4545
2070.5 71.1818
2071.5 70.1818
2072.5 65.2727
2073.5 62.4545
2074.5 51.9091
2075.5 51
2076.5 71.0909
2077.5 51.1818
2078.5 69.2727
2079.5 58.1818
2080.5 56.1818
2081.5 61.4545
2082.5 67
2083.5 75.3636
2084.5 39.4545
2085.5 90.0909
2086.5 84.5455
2087.5 104.364
2088.5 95.2727
2089.5 98.0909
2090.5 66.1818
2091.5 48.5455
2092.5 75.9091
2093.5 74.7273
2094.5 73.8182
2095.5 45
2096.5 41.0909
2097.5 78.7273
2098.5 106.182
2099.5 89.3636
2100.5 88.7273
2101.5 118.091
2102.5 69.7273
2103.5 47.2727
2104.5 67.4545
2105.5 50.8182
2106.5 87.0909
2107.5 73.9091
2108.5 80.9091
2109.5 81
2110.5 74.7273
2111.5 69
2112.5 79.6364
2113.5 71.9091
2114.5 87.1818
2115.5 77.6364
2116.5 81.6364
2117.5 70.7273
2118.5 91.6364
2119.5 62.2727
2120.5 66.8182
2121.5 66
2122.5 61.4545
2123.5 62.7273
2124.5 49.7273
2125.5 58.6364
2126.5 35.4545
2127.5 79.6364
2128.5 69.0909
2129.5 67.0909
2130.5 43.0909
2131.5 64.3636
2132.5 46.3636
2133.5 77
2134.5 44.5455
2135.5 60.7273
2136.5 25.3636
2137.5 47.6364
2138.5 44.2727
2139.5 80.4545
2140.5 89.9091
2141.5 133.818
2142.5 207.818
2143.5 364.273
2144.5 309.182
2145.5 185.364
2146.5 134.364
2147.5 176
2148.5 292.455
2149.5 504.455
2150.5 745.818
2151.5 597.455
2152.5 218.273
2153.5 119.091
2154.5 93.5455
2155.5 49.4545
2156.5 97.0909
2157.5 39.5455
2158.5 90.5455
2159.5 65
2160.5 48.2727
2161.5 49
2162.5 53
2163.5 47.6364
2164.5 41.4545
2165.5 30.7273
2166.5 51.7273
2167.5 42.0909
2168.5 64.2727
2169.5 55.1818
2170.5 24.4545
2171.5 15.5455
2172.5 37.4545
2173.5 51.3636
2174.5 69.2727
2175.5 58.1818
2176.5 59.2727
2177.5 51.1818
2178.5 63.0909
2179.5 42.5455
2180.5 68.9091
2181.5 56.8182
2182.5 66
2183.5 77.8182
2184.5 76.9091
2185.5 47.0909
2186.5 77.3636
2187.5 54.4545
2188.5 54
2189.5 76.1818
2190.5 60.0909
2191.5 68.8182
2192.5 81.8182
2193.5 71.8182
2194.5 71.4545
2195.5 89.0909
2196.5 82.5455
2197.5 149.455
2198.5 246.182
2199.5 383.636
2200.5 414.909
2201.5 266
2202.5 90.7273
2203.5 82.4545
2204.5 64.3636
2205.5 70.1818
2206.5 52.8182
2207.5 71.9091
2208.5 50.4545
2209.5 76.2727
2210.5 44.8182
2211.5 76.2727
2212.5 67.9091
2213.5 46.9091
2214.5 79.2727
2215.5 80.5455
2216.5 58.8182
2217.5 64.1818
2218.5 47.6364
2219.5 61.5455
2220.5 77.5455
2221.5 105
2222.5 139.182
2223.5 135.091
2224.5 100.091
2225.5 75.0909
2226.5 59.0909
2227.5 72.1818
2228.5 50.5455
2229.5 63.0909
2230.5 79.9091
2231.5 82.8182
2232.5 62.4545
2233.5 60.5455
2234.5 70.1818
2235.5 67.4545
2236.5 40.1818
2237.5 51.6364
2238.5 66.7273
2239.5 63.9091
2240.5 73
2241.5 59.9091
2242.5 72.8182
2243.5 76.8182
2244.5 76.7273
2245.5 46.2727
2246.5 96.5455
2247.5 60.6364
2248.5 92.5455
2249.5 62.5455
2250.5 54.8182
2251.5 39
2252.5 55.3636
2253.5 74.5455
2254.5 45.4545
2255.5 61.8182
2256.5 65.4545
2257.5 72.9091
2258.5 67.2727
2259.5 39.7273
2260.5 68
2261.5 42
2262.5 58.6364
2263.5 67.7273
2264.5 67.7273
2265.5 43.8182
2266.5 47.3636
2267.5 71.3636
2268.5 49.8182
2269.5 71.9091
2270.5 43.7273
2271.5 43.3636
2272.5 76
2273.5 65.5455
2274.5 67.8182
2275.5 55.6364
2276.5 64.9091
2277.5 62.6364
2278.5 120.455
2279.5 207.091
2280.5 259.273
2281.5 317.545
2282.5 253.818
2283.5 120.636
2284.5 77.9091
2285.5 75.2727
2286.5 49.5455
2287.5 32.9091
2288.5 61.6364
2289.5 71.2727
2290.5 61.2727
2291.5 58.8182
2292.5 36.7273
2293.5 65.0909
2294.5 43.3636
2295.5 55.1818
2296.5 94.7273
2297.5 90.7273
2298.5 75.4545
2299.5 81.6364
2300.5 125.636
2301.5 91.9091
2302.5 90.6364
2303.5 92.4545
2304.5 70.4545
2305.5 36.5455
2306.5 54.6364
2307.5 68.4545
2308.5 70
2309.5 52.2727
2310.5 65.8182
2311.5 70.1818
2312.5 47.3636
2313.5 54.5455
2314.5 71.4545
2315.5 30.2727
2316.5 68.1818
2317.5 55.1818
2318.5 47.6364
2319.5 54
2320.5 39.2727
2321.5 50.4545
2322.5 42.8182
2323.5 61.7273
2324.5 47.3636
2325.5 29.2727
2326.5 46.1818
2327.5 53.5455
2328.5 42.7273
2329.5 76.9091
2330.5 58.6364
2331.5 95.5455
2332.5 79.2727
2333.5 76
2334.5 107.909
2335.5 167.909
2336.5 202.818
2337.5 202
2338.5 198.091
2339.5 167.636
2340.5 85.6364
2341.5 70.5455
2342.5 41.1818
2343.5 56
2344.5 69.9091
2345.5 72.3636
2346.5 78.0909
2347.5 42.7273
2348.5 61.9091
2349.5 64.7273
2350.5 48.0909
2351.5 56.2727
2352.5 87
2353.5 154.273
2354.5 250.364
2355.5 521.818
2356.5 727.545
2357.5 596.364
2358.5 288.727
2359.5 138
2360.5 54.6364
2361.5 51.7273
2362.5 50.4545
2363.5 72.4545
2364.5 77
2365.5 52.1818
2366.5 45.3636
2367.5 45
2368.5 26.8182
2369.5 52.2727
2370.5 48.3636
2371.5 39.1818
2372.5 43.4545
2373.5 57.2727
2374.5 37.9091
2375.5 82.5455
2376.5 103.364
2377.5 104.818
2378.5 64.1818
2379.5 49.7273
2380.5 49.8182
2381.5 43.0909
2382.5 30
2383.5 37.9091
2384.5 81.8182
2385.5 57.5455
2386.5 45.9091
2387.5 55.9091
2388.5 62.9091
2389.5 74.1818
2390.5 46.7273
2391.5 38.7273
2392.5 34.8182
2393.5 65.8182
2394.5 45.3636
2395.5 42.9091
2396.5 114.909
2397.5 109.727
2398.5 140.727
2399.5 110
2400.5 88.1818
2401.5 73.2727
2402.5 58.0909
2403.5 68.2727
2404.5 71.6364
2405.5 37.2727
2406.5 35
2407.5 62.4545
2408.5 54.6364
2409.5 55.2727
2410.5 53.4545
2411.5 54.9091
2412.5 56.0909
2413.5 41.3636
2414.5 43
2415.5 25.8182
2416.5 44.9091
2417.5 43
2418.5 76.6364
2419.5 75.5455
2420.5 36.3636
2421.5 60.0909
2422.5 61.4545
2423.5 70.9091
2424.5 26.3636
2425.5 46.2727
2426.5 62.0909
2427.5 46.7273
2428.5 48.6364
2429.5 38.2727
2430.5 37
2431.5 52.1818
2432.5 33.6364
2433.5 45.5455
2434.5 75.3636
2435.5 37
2436.5 51.1818
2437.5 45.3636
2438.5 45.7273
2439.5 56
2440.5 58.8182
2441.5 54.8182
2442.5 49.7273
2443.5 45.3636
2444.5 45.2727
2445.5 47.7273
2446.5 34.3636
2447.5 55.3636
2448.5 79.2727
2449.5 63.0909
2450.5 55.3636
2451.5 44
2452.5 29.2727
2453.5 81.1818
2454.5 31.6364
2455.5 50
2456.5 50.0909
2457.5 58.3636
2458.5 62.6364
2459.5 57.0909
2460.5 43.8182
2461.5 21
2462.5 50.4545
2463.5 42.4545
2464.5 62
2465.5 55.2727
2466.5 53.6364
2467.5 63.2727
2468.5 45.2727
2469.5 43
2470.5 49.7273
2471.5 58.6364
2472.5 28.4545
2473.5 55.0909
2474.5 37.9091
2475.5 49.2727
2476.5 54
2477.5 54.7273
2478.5 50.9091
2479.5 40.2727
2480.5 44.2727
2481.5 48.0909
2482.5 80.8182
2483.5 45.0909
2484.5 56.4545
2485.5 40.0909
2486.5 80
2487.5 95.1818
2488.5 81.2727
2489.5 101.909
2490.5 85.3636
2491.5 91.4545
2492.5 85.0909
2493.5 79.0909
2494.5 109.909
2495.5 106.909
2496.5 102.545
2497.5 133.818
2498.5 109.818
2499.5 71.2727
2500.5 76.8182
2501.5 74.5455
2502.5 66.1818
2503.5 57.3636
2504.5 74.0909
2505.5 61.5455
2506.5 43.4545
2507.5 53.5455
2508.5 44
2509.5 53.2727
2510.5 43
2511.5 40.6364
2512.5 31.9091
2513.5 56.1818
2514.5 65.4545
2515.5 59
2516.5 62.3636
2517.5 100.636
2518.5 117.818
2519.5 173.182
2520.5 169.909
2521.5 136.545
2522.5 156.273
2523.5 106.818
2524.5 94.6364
2525.5 62.2727
2526.5 66.4545
2527.5 76
2528.5 64.6364
2529.5 37.0909
2530.5 58.5455
2531.5 71
2532.5 59.7273
2533.5 64.4545
2534.5 39.7273
2535.5 66.5455
2536.5 56.5455
2537.5 26
2538.5 46.6364
2539.5 73.4545
2540.5 96.7273
2541.5 101.364
2542.5 87.3636
2543.5 71
2544.5 66.7273
2545.5 53.2727
2546.5 56.0909
2547.5 36.5455
2548.5 51.2727
2549.5 55.0909
2550.5 37.9091
2551.5 59.6364
2552.5 77.2727
2553.5 29.6364
2554.5 72.1818
2555.5 69.2727
2556.5 81.2727
2557.5 49.0909
2558.5 54
2559.5 58.0909
2560.5 61.8182
2561.5 59.9091
2562.5 46.5455
2563.5 55.9091
2564.5 45.9091
2565.5 57.5455
2566.5 34.6364
2567.5 80.2727
2568.5 56.1818
2569.5 58.2727
2570.5 51.2727
2571.5 55.1818
2572.5 46.1818
2573.5 56.1818
2574.5 46.3636
2575.5 41.2727
2576.5 31.0909
2577.5 46.5455
2578.5 24.8182
2579.5 38.0909
2580.5 7.90909
2581.5 27.2727
2582.5 63.5455
2583.5 40
2584.5 50.9091
2585.5 48.9091
2586.5 46.9091
2587.5 54.7273
2588.5 28.2727
2589.5 46.3636
2590.5 79.8182
2591.5 42
2592.5 74
2593.5 59.1818
2594.5 63.8182
2595.5 60.9091
2596.5 60.8182
2597.5 59.1818
2598.5 63.7273
2599.5 65.3636
2600.5 69.9091
2601.5 49.6364
2602.5 52.8182
2603.5 46.6364
2604.5 73.7273
2605.5 70.7273
2606.5 64.1818
2607.5 62.1818
2608.5 65.6364
2609.5 87.0909
2610.5 56.6364
2611.5 77.2727
2612.5 60.3636
2613.5 76.7273
2614.5 57.3636
2615.5 53.6364
2616.5 76
2617.5 42.1818
2618.5 96.2727
2619.5 84.5455
2620.5 77.2727
2621.5 77.9091
2622.5 72.8182
2623.5 53.1818
2624.5 55.8182
2625.5 44.0909
2626.5 71.7273
2627.5 43.7273
2628.5 71.5455
2629.5 75.2727
2630.5 59.3636
2631.5 61.0909
2632.5 50.6364
2633.5 45.7273
2634.5 75.9091
2635.5 66.2727
2636.5 74.1818
2637.5 34.5455
2638.5 64.8182
2639.5 55.3636
2640.5 48.4545
2641.5 75.7273
2642.5 56.5455
2643.5 42.7273
2644.5 69.9091
2645.5 48
2646.5 57.2727
2647.5 70.3636
2648.5 41.1818
2649.5 76.4545
2650.5 59.4545
2651.5 61.5455
2652.5 82.1818
2653.5 93.4545
2654.5 128.182
2655.5 197.545
2656.5 204.273
2657.5 160.455
2658.5 106.182
2659.5 71.6364
2660.5 82.4545
2661.5 81.8182
2662.5 70.1818
2663.5 74.7273
2664.5 50.4545
2665.5 89.7273
2666.5 77.9091
2667.5 54.1818
2668.5 62.7273
2669.5 36.0909
2670.5 42.9091
2671.5 57.5455
2672.5 41.4545
2673.5 61.6364
2674.5 57.0909
2675.5 30.0909
2676.5 44.9091
2677.5 54.7273
2678.5 62.0909
2679.5 56.0909
2680.5 65.6364
2681.5 57.3636
2682.5 44.3636
2683.5 86
2684.5 70.8182
2685.5 65.5455
2686.5 97.7273
2687.5 72.7273
2688.5 93.0909
2689.5 110.545
2690.5 88.6364
2691.5 52
2692.5 71
2693.5 70.9091
2694.5 77.4545
2695.5 52.0909
2696.5 71.6364
2697.5 43.3636
2698.5 55.2727
2699.5 49.8182
2700.5 72
2701.5 63.6364
2702.5 74.6364
2703.5 77.8182
2704.5 66.1818
2705.5 74.0909
2706.5 38.5455
2707.5 56.8182
2708.5 55.5455
2709.5 79
2710.5 41.7273
2711.5 46.5455
2712.5 53.3636
2713.5 44.2727
2714.5 45.1818
2715.5 64.0909
2716.5 45.0909
2717.5 70.0909
2718.5 55.3636
2719.5 101.273
2720.5 155.273
2721.5 257.545
2722.5 388.273
2723.5 286.818
2724.5 169.545
2725.5 143.182
2726.5 137.545
2727.5 97.0909
2728.5 83.6364
2729.5 68
2730.5 64.8182
2731.5 107.364
2732.5 89
2733.5 70.2727
2734.5 86
2735.5 56.3636
2736.5 73
2737.5 53
2738.5 53.2727
2739.5 77.2727
2740.5 52.4545
2741.5 61.7273
2742.5 70.3636
2743.5 82.7273
2744.5 68.4545
2745.5 61.0909
2746.5 77.7273
2747.5 71.1818
2748.5 37.3636
2749.5 90.5455
2750.5 109.909
2751.5 92.1818
2752.5 166
2753.5 132.818
2754.5 97.7273
2755.5 85.0909
2756.5 58
2757.5 50.2727
2758.5 67.2727
2759.5 59.3636
2760.5 63.0909
2761.5 56.4545
2762.5 59.8182
2763.5 66.8182
2764.5 41.6364
2765.5 53.8182
2766.5 44.4545
2767.5 39.5455
2768.5 79.3636
2769.5 40.6364
2770.5 78.5455
2771.5 35.2727
2772.5 45.5455
2773.5 54
2774.5 62
2775.5 52.6364
2776.5 49.0909
2777.5 54.4545
2778.5 51.0909
2779.5 61.1818
2780.5 52.5455
2781.5 46.3636
2782.5 77.9091
2783.5 69.7273
2784.5 48.1818
2785.5 51.9091
2786.5 43.7273
2787.5 50.6364
2788.5 47
2789.5 52.3636
2790.5 72.6364
2791.5 65.8182
2792.5 34.1818
2793.5 52.9091
2794.5 56.3636
2795.5 61.3636
2796.5 46.4545
2797.5 50.4545
2798.5 34.4545
2799.5 63.7273
2800.5 43.9091
2801.5 60.9091
2802.5 67.4545
2803.5 74.0909
2804.5 38.2727
2805.5 74.0909
2806.5 66.8182
2807.5 41.7273
2808.5 25.3636
2809.5 57
2810.5 39.0909
2811.5 29.3636
2812.5 66.7273
2813.5 64.4545
2814.5 66.5455
2815.5 44
2816.5 83.7273
2817.5 45.5455
2818.5 48.6364
2819.5 49.7273
2820.5 21.5455
2821.5 53.4545
2822.5 46.5455
2823.5 58.6364
2824.5 36.1818
2825.5 42.2727
2826.5 49.5455
2827.5 46.9091
2828.5 28.5455
2829.5 72.7273
2830.5 48.9091
2831.5 76.4545
2832.5 56.4545
2833.5 40
2834.5 55.5455
2835.5 64
2836.5 44
2837.5 34.7273
2838.5 44.0909
2839.5 42.0909
2840.5 32
2841.5 43.0909
2842.5 38.1818
2843.5 46.6364
2844.5 9.18182
2845.5 74.1818
2846.5 68.0909
2847.5 71.4545
2848.5 67.0909
2849.5 62.8182
2850.5 54.2727
2851.5 67.0909
2852.5 65.2727
2853.5 96.7273
2854.5 105
2855.5 130.364
2856.5 116.455
2857.5 60.6364
2858.5 62.8182
2859.5 49.2727
2860.5 32
2861.5 42
2862.5 38.1818
2863.5 43
2864.5 79.1818
2865.5 50.6364
2866.5 37.2727
2867.5 37.4545
2868.5 46.6364
2869.5 38.6364
2870.5 44.8182
2871.5 44.7273
2872.5 26.4545
2873.5 45.3636
2874.5 42.8182
2875.5 48.7273
2876.5 48
2877.5 39.0909
2878.5 48.4545
2879.5 51.5455
2880.5 45.5455
2881.5 42.9091
2882.5 48.3636
2883.5 46.8182
2884.5 44.1818
2885.5 57.3636
2886.5 37.1818
2887.5 39.7273
2888.5 50
2889.5 41.4545
2890.5 28.6364
2891.5 32.5455
2892.5 31.1818
2893.5 35.7273
2894.5 33.3636
2895.5 52.2727
2896.5 59.1818
2897.5 54.9091
2898.5 26.6364
2899.5 48.5455
2900.5 47.9091
2901.5 53
2902.5 54.7273
2903.5 47.3636
2904.5 62.0909
2905.5 77.3636
2906.5 101.455
2907.5 301.273
2908.5 553.455
2909.5 796.636
2910.5 992.545
2911.5 703
2912.5 354.818
2913.5 183.364
2914.5 95.8182
2915.5 42.7273
2916.5 53.3636
2917.5 65.0909
2918.5 45.6364
2919.5 45.8182
2920.5 51.7273
2921.5 25.6364
2922.5 50.8182
2923.5 43.4545
2924.5 48.7273
2925.5 48.7273
2926.5 34.4545
2927.5 30.0909
2928.5 30.8182
2929.5 36.0909
2930.5 29.0909
2931.5 44.2727
2932.5 28.9091
2933.5 42.9091
2934.5 62.4545
2935.5 38.7273
2936.5 37.2727
2937.5 60.8182
2938.5 50.6364
2939.5 45.7273
2940.5 40.3636
2941.5 43.7273
2942.5 30.3636
2943.5 35.5455
2944.5 68.6364
2945.5 39.0909
2946.5 93.2727
2947.5 154.091
2948.5 112.182
2949.5 61.4545
2950.5 61.6364
2951.5 23.9091
2952.5 51.6364
2953.5 51.0909
2954.5 44.9091
2955.5 51.3636
2956.5 62.5455
2957.5 54.1818
2958.5 23.6364
2959.5 23.6364
2960.5 35.2727
2961.5 40.6364
2962.5 28.4545
2963.5 27.1818
2964.5 48.2727
2965.5 53.0909
2966.5 36.7273
2967.5 23.8182
2968.5 61.0909
2969.5 30.6364
2970.5 62.3636
2971.5 40.0909
2972.5 34.1818
2973.5 45.3636
2974.5 36.7273
2975.5 24.4545
2976.5 46.4545
2977.5 32.9091
2978.5 50.3636
2979.5 53.6364
2980.5 27
2981.5 20.0909
2982.5 27.6364
2983.5 40
2984.5 40.8182
2985.5 38.0909
2986.5 33
2987.5 47.9091
2988.5 27.3636
2989.5 27.9091
2990.5 23.7273
2991.5 51.9091
2992.5 56.2727
2993.5 60.6364
2994.5 51.2727
2995.5 78.3636
2996.5 110
2997.5 199.727
2998.5 276.273
2999.5 395.364
3000.5 396.818
3001.5 357.818
3002.5 261.727
3003.5 250.636
3004.5 347
3005.5 508
3006.5 643.909
3007.5 569
3008.5 425.636
3009.5 227.182
3010.5 113.091
3011.5 75.4545
3012.5 79.0909
3013.5 48.0909
3014.5 22.7273
3015.5 21.9091
3016.5 21.6364
3017.5 29.2727
3018.5 36.0909
3019.5 51.5455
3020.5 47.6364
3021.5 61.7273
3022.5 37.1818
3023.5 49
3024.5 29.7273
3025.5 48.8182
3026.5 29
3027.5 37.8182
3028.5 31.3636
3029.5 44.4545
3030.5 22.5455
3031.5 26.1818
3032.5 33.5455
3033.5 45.2727
3034.5 19.2727
3035.5 47.0909
3036.5 87.0909
3037.5 125.909
3038.5 100.636
3039.5 62.9091
3040.5 107.727
3041.5 57.5455
3042.5 43.4545
3043.5 42.9091
3044.5 33.1818
3045.5 59
3046.5 49.2727
3047.5 50.5455
3048.5 65
3049.5 78.6364
3050.5 115.818
3051.5 171.455
3052.5 172.273
3053.5 180.091
3054.5 136.727
3055.5 72.7273
3056.5 78.8182
3057.5 68.7273
3058.5 67.3636
3059.5 66.5455
3060.5 70.0909
3061.5 40.3636
3062.5 30.3636
3063.5 39.3636
3064.5 48.9091
3065.5 17.1818
3066.5 29.6364
3067.5 47.8182
3068.5 38
3069.5 26.9091
3070.5 36.3636
3071.5 43.0909
3072.5 43.9091
3073.5 38.5455
3074.5 23.5455
3075.5 42.4545
3076.5 23.0909
3077.5 54.9091
3078.5 41.7273
3079.5 41.5455
3080.5 39.3636
3081.5 33.6364
3082.5 17.5455
3083.5 24.1818
3084.5 35.3636
3085.5 32.6364
3086.5 20.1818
3087.5 33
3088.5 34.4545
3089.5 29.7273
3090.5 48.8182
3091.5 45.7273
3092.5 25.9091
3093.5 47.8182
3094.5 47.9091
3095.5 29.8182
3096.5 34.0909
3097.5 42
3098.5 44.1818
3099.5 58.3636
3100.5 75.2727
3101.5 67.4545
3102.5 56.2727
3103.5 66.3636
3104.5 57.6364
3105.5 46.2727
3106.5 42.1818
3107.5 81.2727
3108.5 63.9091
3109.5 67.4545
3110.5 58.9091
3111.5 49.8182
3112.5 55.9091
3113.5 54.4545
3114.5 31.5455
3115.5 16.1818
3116.5 67.5455
3117.5 62.9091
3118.5 33.2727
3119.5 54.9091
3120.5 28
3121.5 33.4545
3122.5 22.2727
3123.5 38.9091
3124.5 40.0909
3125.5 25.7273
3126.5 28.0909
3127.5 42.6364
3128.5 34.5455
3129.5 30.2727
3130.5 25.1818
3131.5 52.2727
3132.5 46.8182
3133.5 24.1818
3134.5 40.8182
3135.5 42.4545
3136.5 26.9091
3137.5 38.6364
3138.5 43.3636
3139.5 43.7273
3140.5 49.3636
3141.5 47.7273
3142.5 26.7273
3143.5 60.6364
3144.5 42.8182
3145.5 29.6364
3146.5 43.1818
3147.5 30.1818
3148.5 51
3149.5 49.7273
3150.5 57.8182
3151.5 37.1818
3152.5 26.4545
3153.5 46.2727
3154.5 30.5455
3155.5 41.6364
3156.5 41.9091
3157.5 46
3158.5 62.9091
3159.5 48.4545
3160.5 41.2727
3161.5 47.3636
3162.5 36
3163.5 33.2727
3164.5 47.9091
3165.5 50.4545
3166.5 44.8182
3167.5 40
3168.5 41.2727
3169.5 36.5455
3170.5 50.7273
3171.5 31.4545
3172.5 58.9091
3173.5 44.7273
3174.5 59.0909
3175.5 65.0909
3176.5 31.4545
3177.5 54.3636
3178.5 57.2727
3179.5 24.4545
3180.5 39
3181.5 37.9091
3182.5 8.72727
3183.5 15.1818
3184.5 32
3185.5 30.6364
3186.5 4.27273
3187.5 16.7273
3188.5 19.1818
3189.5 15
3190.5 44.1818
3191.5 25.5455
3192.5 25.5455
3193.5 48.0909
3194.5 41.8182
3195.5 38.0909
3196.5 47.8182
3197.5 51.4545
3198.5 53
3199.5 44.1818
3200.5 49
3201.5 61.2727
3202.5 38.2727
3203.5 55.0909
3204.5 72
3205.5 75.6364
3206.5 70.8182
3207.5 75.7273
3208.5 115.636
3209.5 119.909
3210.5 103
3211.5 124.545
3212.5 95.8182
3213.5 50.5455
3214.5 57.6364
3215.5 30.3636
3216.5 50.3636
3217.5 38.0909
3218.5 26.4545
3219.5 28.2727
3220.5 28.4545
3221.5 28.8182
3222.5 18.2727
3223.5 29.0909
3224.5 42.6364
3225.5 34.5455
3226.5 28.8182
3227.5 19
3228.5 24.0909
3229.5 43.3636
3230.5 32.2727
3231.5 55.1818
3232.5 35
3233.5 43.4545
3234.5 43.0909
3235.5 64.8182
3236.5 67.4545
3237.5 52.0909
3238.5 52.6364
3239.5 54
3240.5 107.455
3241.5 107.182
3242.5 133.636
3243.5 108.909
3244.5 77.5455
3245.5 62
3246.5 40.6364
3247.5 49.1818
3248.5 51.7273
3249.5 43
3250.5 45.8182
3251.5 27.4545
3252.5 49.2727
3253.5 51
3254.5 47.3636
3255.5 52
3256.5 19.5455
3257.5 29.5455
3258.5 18.6364
3259.5 38.9091
3260.5 40.8182
3261.5 45.1818
3262.5 48.5455
3263.5 39.2727
3264.5 53.3636
3265.5 48.3636
3266.5 46.8182
3267.5 58.7273
3268.5 44.0909
3269.5 38.6364
3270.5 49.3636
3271.5 31.1818
3272.5 39.6364
3273.5 45
3274.5 50.7273
3275.5 41.9091
3276.5 51.0909
3277.5 39.3636
3278.5 20.4545
3279.5 49.7273
3280.5 57.7273
3281.5 53.8182
3282.5 54
3283.5 50.6364
3284.5 41.5455
3285.5 28.0909
3286.5 37.7273
3287.5 44.6364
3288.5 36.7273
3289.5 50.3636
3290.5 39.0909
3291.5 43.5455
3292.5 30.2727
3293.5 33.4545
3294.5 48.4545
3295.5 33.6364
3296.5 53.1818
3297.5 74
3298.5 63
3299.5 63.6364
3300.5 130.545
3301.5 147.455
3302.5 108.818
3303.5 64.2727
3304.5 46.6364
3305.5 38.8182
3306.5 37.9091
3307.5 56.5455
3308.5 37.9091
3309.5 44.7273
3310.5 56.9091
3311.5 46.0909
3312.5 53.1818
3313.5 40.3636
3314.5 50.9091
3315.5 54.4545
3316.5 48.0909
3317.5 56.4545
3318.5 41.3636
3319.5 38.0909
3320.5 47.9091
3321.5 54.1818
3322.5 36.9091
3323.5 60
3324.5 33.5455
3325.5 52.0909
3326.5 39.8182
3327.5 33.6364
3328.5 44.0909
3329.5 49.4545
3330.5 43.3636
3331.5 50.2727
3332.5 45.1818
3333.5 38.6364
3334.5 52.4545
3335.5 46.3636
3336.5 29.9091
3337.5 50.2727
3338.5 56.6364
3339.5 38.8182
3340.5 49.8182
3341.5 21.4545
3342.5 51.6364
3343.5 49.9091
3344.5 39.6364
3345.5 36.1818
3346.5 30.0909
3347.5 44.1818
3348.5 42
3349.5 31.3636
3350.5 57
3351.5 35.5455
3352.5 50.3636
3353.5 45.7273
3354.5 26.5455
3355.5 26.2727
3356.5 83.0909
3357.5 59.0909
3358.5 71.6364
3359.5 42.2727
3360.5 74.4545
3361.5 79.2727
3362.5 106.182
3363.5 165
3364.5 223.545
3365.5 253.636
3366.5 279.455
3367.5 241.636
3368.5 197.909
3369.5 84.4545
3370.5 68.3636
3371.5 54.7273
3372.5 67
3373.5 46.3636
3374.5 52.6364
3375.5 66.0909
3376.5 47.2727
3377.5 56.9091
3378.5 67.0909
3379.5 52.1818
3380.5 30.5455
3381.5 42.4545
3382.5 37.6364
3383.5 42.0909
3384.5 28.8182
3385.5 54.4545
3386.5 52.0909
3387.5 43.4545
3388.5 42.7273
3389.5 50.2727
3390.5 38.9091
3391.5 29.7273
3392.5 48.4545
3393.5 41.2727
3394.5 38.2727
3395.5 41.2727
3396.5 47.2727
3397.5 38.8182
3398.5 40.3636
3399.5 51.7273
3400.5 51.1818
3401.5 40.0909
3402.5 60.0909
3403.5 45.9091
3404.5 47.6364
3405.5 45.9091
3406.5 23.1818
3407.5 46.9091
3408.5 36
3409.5 36.4545
3410.5 27.5455
3411.5 21.3636
3412.5 38.2727
3413.5 30.9091
3414.5 49.6364
3415.5 37.1818
3416.5 54.6364
3417.5 36.3636
3418.5 42.6364
3419.5 56.3636
3420.5 34.2727
3421.5 45.2727
3422.5 58.3636
3423.5 61.6364
3424.5 71.4545
3425.5 72.1818
3426.5 146.818
3427.5 126.818
3428.5 149.455
3429.5 59.6364
3430.5 47.4545
3431.5 38.3636
3432.5 54.1818
3433.5 29.0909
3434.5 52.6364
3435.5 33.2727
3436.5 20.6364
3437.5 40.9091
3438.5 56.3636
3439.5 40.9091
3440.5 37.6364
3441.5 42
3442.5 46
3443.5 41.2727
3444.5 38.9091
3445.5 34.6364
3446.5 58.6364
3447.5 89.9091
3448.5 83.8182
3449.5 177.273
3450.5 140.091
3451.5 137.909
3452.5 81.3636
3453.5 55.2727
3454.5 46.0909
3455.5 43.4545
3456.5 33
3457.5 34.2727
3458.5 43.5455
3459.5 20.2727
3460.5 30.9091
3461.5 38
3462.5 48.7273
3463.5 58.3636
3464.5 48.4545
3465.5 36.3636
3466.5 37.1818
3467.5 32.8182
3468.5 47.8182
3469.5 36.1818
3470.5 46.3636
3471.5 47.3636
3472.5 42.7273
3473.5 48.9091
3474.5 31.3636
3475.5 46
3476.5 53
3477.5 45.0909
3478.5 39.6364
3479.5 42
3480.5 41.0909
3481.5 46.6364
3482.5 66.3636
3483.5 46.7273
3484.5 52.2727
3485.5 35
3486.5 36.8182
3487.5 42
3488.5 52.8182
3489.5 49.5455
3490.5 43.8182
3491.5 68.1818
3492.5 54.5455
3493.5 37.4545
3494.5 29.2727
3495.5 14.5455
3496.5 12.0909
3497.5 38.0909
3498.5 30.1818
3499.5 36.5455
3500.5 47
3501.5 24.4545
3502.5 33.3636
3503.5 49.7273
3504.5 33.5455
3505.5 28.4545
3506.5 19.3636
3507.5 50.4545
3508.5 56.2727
3509.5 31.3636
3510.5 32
3511.5 37.5455
3512.5 33.3636
3513.5 24.6364
3514.5 46.6364
3515.5 53.2727
3516.5 40.3636
3517.5 40
3518.5 54.7273
3519.5 37.9091
3520.5 50.2727
3521.5 44.1818
3522.5 20.9091
3523.5 55.1818
3524.5 46.8182
3525.5 36.7273
3526.5 38
3527.5 38.6364
3528.5 31.0909
3529.5 60.6364
3530.5 69.0909
3531.5 43.8182
3532.5 21.5455
3533.5 30.2727
3534.5 37.4545
3535.5 25.8182
3536.5 13.8182
3537.5 42.3636
3538.5 42.1818
3539.5 35.8182
3540.5 26.4545
3541.5 37.8182
3542.5 18.0909
3543.5 7.27273
3544.5 27.8182
3545.5 6.09091
3546.5 33.4545
3547.5 44.7273
3548.5 31.6364
3549.5 54.0909
3550.5 47
3551.5 45.8182
3552.5 40.4545
3553.5 35.5455
3554.5 39
3555.5 45
3556.5 49.8182
3557.5 50.5455
3558.5 74
3559.5 112.818
3560.5 209.818
3561.5 316.182
3562.5 590.091
3563.5 693.545
3564.5 707.091
3565.5 512.909
3566.5 250.818
3567.5 97.5455
3568.5 53.3636
3569.5 35.7273
3570.5 29.0909
3571.5 36.8182
3572.5 41.1818
3573.5 41.9091
3574.5 35.7273
3575.5 35.9091
3576.5 29.3636
3577.5 40.4545
3578.5 45
3579.5 53.2727
3580.5 43.2727
3581.5 47.9091
3582.5 46.9091
3583.5 48.1818
3584.5 45.8182
3585.5 44.7273
3586.5 39.5455
3587.5 33
3588.5 43.7273
3589.5 35.1818
3590.5 32.8182
3591.5 47.6364
3592.5 30
3593.5 48.3636
3594.5 35.2727
3595.5 45.6364
3596.5 40
3597.5 37.2727
3598.5 43.7273
3599.5 39.6364
3600.5 46.3636
3601.5 51.1818
3602.5 34.2727
3603.5 58.3636
3604.5 41.3636
3605.5 56.8182
3606.5 42.6364
3607.5 75.9091
3608.5 44.1818
3609.5 87.5455
3610.5 111.909
3611.5 137.727
3612.5 183.727
3613.5 197.364
3614.5 281.818
3615.5 265.818
3616.5 191.909
3617.5 175.636
3618.5 155
3619.5 175.545
3620.5 187.364
3621.5 178.727
3622.5 216.364
3623.5 136.364
3624.5 102.455
3625.5 64.8182
3626.5 61.6364
3627.5 73.5455
3628.5 70.1818
3629.5 44.3636
3630.5 45.2727
3631.5 34.7273
3632.5 56.8182
3633.5 50.1818
3634.5 60
3635.5 38.8182
3636.5 43.7273
3637.5 53.4545
3638.5 35.4545
3639.5 27.5455
3640.5 23.1818
3641.5 41.4545
3642.5 38.7273
3643.5 45
3644.5 25.1818
3645.5 52.1818
3646.5 56.3636
3647.5 53.2727
3648.5 55.8182
3649.5 47.2727
3650.5 32.3636
3651.5 51.9091
3652.5 47.9091
3653.5 45.0909
3654.5 46.8182
3655.5 41.6364
3656.5 62.2727
3657.5 49.4545
3658.5 29.2727
3659.5 51.2727
3660.5 35.1818
3661.5 28
3662.5 52.9091
3663.5 33.8182
3664.5 32
3665.5 26.1818
3666.5 29.1818
3667.5 18.2727
3668.5 44.9091
3669.5 34.2727
3670.5 34
3671.5 38.2727
3672.5 35.2727
3673.5 38.3636
3674.5 31.5455
3675.5 44.7273
3676.5 27.3636
3677.5 32.5455
3678.5 56.2727
3679.5 37.5455
3680.5 57.5455
3681.5 25.8182
3682.5 51
3683.5 29.3636
3684.5 35.3636
3685.5 45.9091
3686.5 51.2727
3687.5 64.2727
3688.5 36.9091
3689.5 48.5455
3690.5 35.7273
3691.5 26.7273
3692.5 29.1818
3693.5 40.2727
3694.5 33.6364
3695.5 21.7273
3696.5 37.3636
3697.5 29.3636
3698.5 35.0909
3699.5 36.5455
3700.5 55.3636
3701.5 29
3702.5 45.9091
3703.5 33.4545
3704.5 39.0909
3705.5 46
3706.5 35.2727
3707.5 41.4545
3708.5 39.4545
3709.5 34.7273
3710.5 30.4545
3711.5 45.2727
3712.5 32.7273
3713.5 46.0909
3714.5 36.7273
3715.5 27.4545
3716.5 34.4545
3717.5 33.8182
3718.5 22.5455
3719.5 36.6364
3720.5 46.7273
3721.5 57.3636
3722.5 24.1818
3723.5 56.6364
3724.5 25.5455
3725.5 31.0909
3726.5 38.7273
3727.5 41.5455
3728.5 18.2727
3729.5 35.1818
3730.5 38
3731.5 26
3732.5 34.9091
3733.5 32.7273
3734.5 39.9091
3735.5 30.9091
3736.5 25.5455
3737.5 38.7273
3738.5 24.0909
3739.5 37
3740.5 42.2727
3741.5 30.7273
3742.5 51.9091
3743.5 52.8182
3744.5 40
3745.5 66.9091
3746.5 65.1818
3747.5 65.5455
3748.5 56.6364
3749.5 59.5455
3750.5 64.0909
3751.5 101.545
3752.5 115.182
3753.5 118
3754.5 121
3755.5 109.182
3756.5 107.091
3757.5 55.7273
3758.5 53.0909
3759.5 37.5455
3760.5 38.0909
3761.5 37.2727
3762.5 41
3763.5 31.8182
3764.5 34.0909
3765.5 18.6364
3766.5 23.7273
3767.5 21.9091
3768.5 30.3636
3769.5 21.5455
3770.5 31.9091
3771.5 34.2727
3772.5 44.1818
3773.5 21.5455
3774.5 50.2727
3775.5 34.3636
3776.5 32.2727
3777.5 44.4545
3778.5 36.4545
3779.5 46.4545
3780.5 47.9091
3781.5 16.7273
3782.5 16.7273
3783.5 35.0909
3784.5 29.6364
3785.5 24.1818
3786.5 21.5455
3787.5 35.3636
3788.5 31.5455
3789.5 31.5455
3790.5 40.4545
3791.5 25.2727
3792.5 28.8182
3793.5 12.4545
3794.5 23.7273
3795.5 42.7273
3796.5 49.4545
3797.5 33.2727
3798.5 34.9091
3799.5 41.1818
3800.5 31.3636
3801.5 33
3802.5 35.5455
3803.5 33.5455
3804.5 39.6364
3805.5 24.8182
3806.5 42.5455
3807.5 40.9091
3808.5 49.5455
3809.5 48.1818
3810.5 27
3811.5 46.4545
3812.5 37.9091
3813.5 36
3814.5 36.0909
3815.5 41.8182
3816.5 30.3636
3817.5 23.2727
3818.5 37.7273
3819.5 37.9091
3820.5 35.8182
3821.5 41.8182
3822.5 24.7273
3823.5 20.8182
3824.5 40.9091
3825.5 37.1818
3826.5 42.5455
3827.5 41.8182
3828.5 22.3636
3829.5 18.4545
3830.5 40.3636
3831.5 32.2727
3832.5 43.6364
3833.5 22
3834.5 25.7273
3835.5 36.4545
3836.5 21.3636
3837.5 19.6364
3838.5 38.8182
3839.5 34
3840.5 45.7273
3841.5 34.4545
3842.5 43.1818
3843.5 33.4545
3844.5 26.3636
3845.5 33.8182
3846.5 50.0909
3847.5 33.9091
3848.5 53.5455
3849.5 49.1818
3850.5 28.1818
3851.5 35.5455
3852.5 25.6364
3853.5 39.3636
3854.5 30.0909
3855.5 30.8182
3856.5 31
3857.5 26
3858.5 14.7273
3859.5 23.7273
3860.5 22.9091
3861.5 14
3862.5 33.0909
3863.5 29.0909
3864.5 36.4545
3865.5 62.0909
3866.5 33.0909
3867.5 39.3636
3868.5 56.6364
3869.5 68
3870.5 55.6364
3871.5 106.273
3872.5 190.364
3873.5 306.636
3874.5 540.545
3875.5 932.545
3876.5 1179.09
3877.5 1231.18
3878.5 974.455
3879.5 568.273
3880.5 261.182
3881.5 118.091
3882.5 58
3883.5 45.2727
3884.5 56.5455
3885.5 30.9091
3886.5 31.3636
3887.5 20.0909
3888.5 31.7273
3889.5 37.4545
3890.5 11.0909
3891.5 16.4545
3892.5 29.2727
3893.5 11.6364
3894.5 27.0909
3895.5 26.3636
3896.5 29.6364
3897.5 21.9091
3898.5 33
3899.5 27.1818
3900.5 31.8182
3901.5 25.1818
3902.5 16.6364
3903.5 16.7273
3904.5 16.6364
3905.5 16.2727
3906.5 34.4545
3907.5 21.0909
3908.5 22.2727
3909.5 30
3910.5 31.3636
3911.5 28.4545
3912.5 31.4545
3913.5 31
3914.5 27
3915.5 33.6364
3916.5 31.3636
3917.5 22.4545
3918.5 17.8182
3919.5 39.1818
3920.5 32.7273
3921.5 32.3636
3922.5 25.4545
3923.5 47.6364
3924.5 20.7273
3925.5 31
3926.5 24.7273
3927.5 41.4545
3928.5 31.7273
3929.5 33.6364
3930.5 20.6364
3931.5 29.3636
3932.5 30.2727
3933.5 37.6364
3934.5 27.6364
3935.5 12.8182
3936.5 30.0909
3937.5 24.2727
3938.5 29.0909
3939.5 29.8182
3940.5 21.8182
3941.5 34.8182
3942.5 45.9091
3943.5 36
3944.5 31.1818
3945.5 38.5455
3946.5 30.2727
3947.5 30.6364
3948.5 32
3949.5 29.4545
3950.5 26
3951.5 35.5455
3952.5 28.2727
3953.5 21.8182
3954.5 21.2727
3955.5 24.2727
3956.5 19.8182
3957.5 31.0909
3958.5 39.3636
3959.5 27.9091
3960.5 26.8182
3961.5 18.4545
3962.5 33.7273
3963.5 30.4545
3964.5 23
3965.5 31.1818
3966.5 26.5455
3967.5 21.3636
3968.5 38.2727
3969.5 46
3970.5 34.7273
3971.5 42.8182
3972.5 52.6364
3973.5 63.5455
3974.5 60.0909
3975.5 38.8182
3976.5 43.3636
3977.5 24
3978.5 19.6364
3979.5 29.9091
3980.5 36.9091
3981.5 29.1818
3982.5 37
3983.5 24.1818
3984.5 9.45455
3985.5 22.4545
3986.5 30.8182
3987.5 38.6364
3988.5 18.2727
3989.5 33.7273
3990.5 26.8182
3991.5 23.0909
3992.5 39.7273
3993.5 36.3636
3994.5 29.2727
3995.5 32.1818
3996.5 32.3636
3997.5 38.3636
3998.5 33.6364
3999.5 23.7273
4000.5 25.4545
4001.5 35.6364
4002.5 39.1818
4003.5 25
4004.5 30.5455
4005.5 25.4545
4006.5 19.6364
4007.5 46.0909
4008.5 38.6364
4009.5 33.3636
4010.5 39.1818
4011.5 30.3636
4012.5 31.4545
4013.5 23.3636
4014.5 26.9091
4015.5 36.6364
4016.5 28.2727
4017.5 21.4545
4018.5 36.4545
4019.5 29.6364
4020.5 34.5455
4021.5 32.6364
4022.5 24.4545
4023.5 27.1818
4024.5 18.3636
4025.5 11.0909
4026.5 25.2727
4027.5 43.9091
4028.5 27.8182
4029.5 22.6364
4030.5 34.8182
4031.5 9
4032.5 14
4033.5 23.8182
4034.5 32.8182
4035.5 27.2727
4036.5 26.4545
4037.5 36.1818
4038.5 22.4545
4039.5 29.3636
4040.5 39.5455
4041.5 34
4042.5 19.6364
4043.5 28.4545
4044.5 24.4545
4045.5 22.8182
4046.5 18.4545
4047.5 32.2727
4048.5 23.6364
4049.5 26.7273
4050.5 19.5455
4051.5 27.5455
4052.5 30.2727
4053.5 24.2727
4054.5 34.3636
4055.5 23.1818
4056.5 19.9091
4057.5 27.6364
4058.5 27.1818
4059.5 14.9091
4060.5 22.1818
4061.5 19.0909
4062.5 37.1818
4063.5 21.8182
4064.5 26.4545
4065.5 24.5455
4066.5 25.4545
4067.5 13.3636
4068.5 28.6364
4069.5 27.3636
4070.5 11.4545
4071.5 31.4545
4072.5 9.63636
4073.5 26
4074.5 25
4075.5 24.8182
4076.5 22.9091
4077.5 20.5455
4078.5 25.2727
4079.5 24.8182
4080.5 20.0909
4081.5 33.2727
4082.5 33.8182
4083.5 12.1818
4084.5 25.6364
4085.5 17.4545
4086.5 16.9091
4087.5 27.5455
4088.5 21.5455
4089.5 26.2727
4090.5 20.2727
4091.5 24.5455
4092.5 33.7273
4093.5 5
4094.5 14.9091
4095.5 10.3636
4096.5 25.3636
4097.5 15.5455
4098.5 29
4099.5 33.6364
4100.5 34.5455
4101.5 17.0909
4102.5 15.9091
4103.5 12
4104.5 26.6364
4105.5 18.4545
4106.5 27.4545
4107.5 20.2727
4108.5 21.5455
4109.5 25.4545
4110.5 39.4545
4111.5 26.2727
4112.5 19.5455
4113.5 31.9091
4114.5 31.1818
4115.5 33.5455
4116.5 27.7273
4117.5 32.5455
4118.5 36.6364
4119.5 60.0909
4120.5 63.3636
4121.5 96.2727
4122.5 131.364
4123.5 158.182
4124.5 250.182
4125.5 293.455
4126.5 379.091
4127.5 342.545
4128.5 295.182
4129.5 246.545
4130.5 159.091
4131.5 113.091
4132.5 78
4133.5 66.8182
4134.5 24.9091
4135.5 31.0909
4136.5 32.1818
4137.5 22.1818
4138.5 20.3636
4139.5 39.5455
4140.5 36.3636
4141.5 19.6364
4142.5 24.9091
4143.5 27.3636
4144.5 28.9091
4145.5 32.0909
4146.5 19.6364
4147.5 19.8182
4148.5 36.9091
4149.5 18.4545
4150.5 28.9091
4151.5 35.0909
4152.5 24.8182
4153.5 27.7273
4154.5 28.9091
4155.5 30.3636
4156.5 27.2727
4157.5 12.0909
4158.5 25.5455
4159.5 30.8182
4160.5 23.4545
4161.5 27.4545
4162.5 36.1818
4163.5 21.4545
4164.5 37.4545
4165.5 59.1818
4166.5 53.1818
4167.5 86.9091
4168.5 86.9091
4169.5 65.0909
4170.5 58.5455
4171.5 32.1818
4172.5 31
4173.5 13.7273
4174.5 17.9091
4175.5 45.0909
4176.5 20.5455
4177.5 23.8182
4178.5 28.1818
4179.5 26.4545
4180.5 28.9091
4181.5 25.4545
4182.5 25.7273
4183.5 31.1818
4184.5 24.7273
4185.5 33.5455
4186.5 27.9091
4187.5 34.3636
4188.5 18.1818
4189.5 22.8182
4190.5 33.5455
4191.5 15.9091
4192.5 17.9091
4193.5 33.1818
4194.5 34.5455
4195.5 28.5455
4196.5 33.0909
4197.5 27.8182
4198.5 24.5455
4199.5 24.4545
4200.5 20
4201.5 18.0909
4202.5 38.1818
4203.5 15.8182
4204.5 22.6364
4205.5 15
4206.5 19.2727
4207.5 14.4545
4208.5 7.54545
4209.5 4.90909
4210.5 42.0909
4211.5 33.3636
4212.5 20.8182
4213.5 38
4214.5 32.8182
4215.5 28.0909
4216.5 21.7273
4217.5 40.5455
4218.5 31
4219.5 33.5455
4220.5 29.3636
4221.5 31.3636
4222.5 36.1818
4223.5 26.4545
4224.5 13.0909
4225.5 27.2727
4226.5 39.5455
4227.5 22.4545
4228.5 31.3636
4229.5 29.4545
4230.5 21.6364
4231.5 21.7273
4232.5 26.3636
4233.5 20.4545
4234.5 29.3636
4235.5 20.4545
4236.5 26.3636
4237.5 18.4545
4238.5 16.7273
4239.5 28.0909
4240.5 26.7273
4241.5 23.3636
4242.5 35.2727
4243.5 30.5455
4244.5 8.63636
4245.5 27.7273
4246.5 25.5455
4247.5 40.3636
4248.5 25.3636
4249.5 38.0909
4250.5 20.8182
4251.5 26.9091
4252.5 32.9091
4253.5 36.9091
4254.5 30.2727
4255.5 22.0909
4256.5 31
4257.5 32.4545
4258.5 43.0909
4259.5 53.3636
4260.5 94.1818
4261.5 154.273
4262.5 221.909
4263.5 345.545
4264.5 480.545
4265.5 429.818
4266.5 355.818
4267.5 176.455
4268.5 89.9091
4269.5 53.9091
4270.5 27.4545
4271.5 44.1818
4272.5 21.5455
4273.5 24.4545
4274.5 31.9091
4275.5 17
4276.5 18.9091
4277.5 20.2727
4278.5 27
4279.5 43.3636
4280.5 23.1818
4281.5 11.1818
4282.5 26.0909
4283.5 12.7273
4284.5 22.0909
4285.5 25.4545
4286.5 36.5455
4287.5 32.4545
4288.5 18.1818
4289.5 32.9091
4290.5 23.1818
4291.5 13.3636
4292.5 31.1818
4293.5 31.9091
4294.5 26.4545
4295.5 29.1818
4296.5 20
4297.5 36.3636
4298.5 29.0909
4299.5 49.5455
4300.5 35.6364
4301.5 50.9091
4302.5 23.3636
4303.5 49.5455
4304.5 39.3636
4305.5 35.1818
4306.5 33.8182
4307.5 31.0909
4308.5 19.6364
4309.5 28.2727
4310.5 21.8182
4311.5 19.3636
4312.5 24
4313.5 12.1818
4314.5 31.0909
4315.5 37.5455
4316.5 33.2727
4317.5 13.5455
4318.5 44.3636
4319.5 8.90909
4320.5 25.9091
4321.5 25.1818
4322.5 36.0909
4323.5 25.8182
4324.5 22.4545
4325.5 29.4545
4326.5 28
4327.5 25
4328.5 21.9091
4329.5 25.0909
4330.5 36.6364
4331.5 33.9091
4332.5 17.9091
4333.5 29.6364
4334.5 33
4335.5 10.1818
4336.5 23.7273
4337.5 35
4338.5 31.3636
4339.5 23.6364
4340.5 35.5455
4341.5 30.7273
4342.5 27.6364
4343.5 29
4344.5 36.0909
4345.5 30.4545
4346.5 26.7273
4347.5 14.6364
4348.5 25.7273
4349.5 18.3636
4350.5 22.9091
4351.5 24.7273
4352.5 27.0909
4353.5 31.7273
4354.5 29.0909
4355.5 29.6364
4356.5 25.8182
4357.5 40.5455
4358.5 25.7273
4359.5 37.5455
4360.5 44.4545
4361.5 29
4362.5 39.0909
4363.5 28.9091
4364.5 26.0909
4365.5 28.0909
4366.5 31.9091
4367.5 38.1818
4368.5 31.0909
4369.5 28.1818
4370.5 38.0909
4371.5 32.5455
4372.5 27.0909
4373.5 29.2727
4374.5 46.6364
4375.5 37.1818
4376.5 33.0909
4377.5 32.7273
4378.5 31.3636
4379.5 33.8182
4380.5 30.7273
4381.5 25.5455
4382.5 36.9091
4383.5 36.3636
4384.5 48.3636
4385.5 25.9091
4386.5 40.2727
4387.5 42.9091
4388.5 63.6364
4389.5 51.1818
4390.5 36.3636
4391.5 37.8182
4392.5 42.2727
4393.5 29.6364
4394.5 25.8182
4395.5 25.6364
4396.5 25.3636
4397.5 39.2727
4398.5 28.4545
4399.5 30.7273
4400.5 36.2727
4401.5 20.5455
4402.5 47.4545
4403.5 34
4404.5 29.3636
4405.5 27.6364
4406.5 29.4545
4407.5 29.8182
4408.5 25.5455
4409.5 25
4410.5 10.7273
4411.5 24.1818
4412.5 18.0909
4413.5 31.8182
4414.5 42.9091
4415.5 27.7273
4416.5 19.4545
4417.5 43.3636
4418.5 29.1818
4419.5 14.6364
4420.5 16.8182
4421.5 27.3636
4422.5 24.5455
4423.5 27.9091
4424.5 38.7273
4425.5 34.5455
4426.5 29.0909
4427.5 20.5455
4428.5 22.7273
4429.5 23.3636
4430.5 17.8182
4431.5 18.6364
4432.5 23.8182
4433.5 33.7273
4434.5 27.3636
4435.5 24.7273
4436.5 36.6364
4437.5 26.6364
4438.5 29
4439.5 20.4545
4440.5 20.8182
4441.5 26.6364
4442.5 22.8182
4443.5 19.6364
4444.5 21
4445.5 27.6364
4446.5 18.9091
4447.5 27.3636
4448.5 28.4545
4449.5 32.7273
4450.5 30.7273
4451.5 37.9091
4452.5 15
4453.5 20.1818
4454.5 27.5455
4455.5 20.8182
4456.5 27.5455
4457.5 9.18182
4458.5 14.5455
4459.5 40.0909
4460.5 20.0909
4461.5 31.1818
4462.5 13.7273
4463.5 18.2727
4464.5 28
4465.5 28.1818
4466.5 34.4545
4467.5 24.8182
4468.5 18.3636
4469.5 19.8182
4470.5 27.0909
4471.5 28.6364
4472.5 25.6364
4473.5 22.8182
4474.5 16.2727
4475.5 11.5455
4476.5 33.6364
4477.5 22.6364
4478.5 20.3636
4479.5 31.7273
4480.5 18.9091
4481.5 15.8182
4482.5 12.7273
4483.5 23.3636
4484.5 26.1818
4485.5 20.1818
4486.5 14.0909
4487.5 24.3636
4488.5 23.1818
4489.5 3.27273
4490.5 21.6364
4491.5 14.5455
4492.5 46.1818
4493.5 39
4494.5 28.3636
4495.5 43.5455
4496.5 19.4545
4497.5 28.3636
4498.5 33.9091
4499.5 26.4545
4500.5 24.4545
4501.5 17.2727
4502.5 31.0909
4503.5 26.2727
4504.5 12
4505.5 29
4506.5 25
4507.5 22.1818
4508.5 21
4509.5 17.5455
4510.5 19.3636
4511.5 16.7273
4512.5 21.7273
4513.5 16.3636
4514.5 11.7273
4515.5 17.4545
4516.5 4.81818
4517.5 17.2727
4518.5 17.0909
4519.5 15.5455
4520.5 19
4521.5 10.8182
4522.5 9.09091
4523.5 9.36364
4524.5 19
4525.5 5.72727
4526.5 10.7273
4527.5 19.6364
4528.5 4.81818
4529.5 3.90909
4530.5 23.7273
4531.5 15.6364
4532.5 9.54545
4533.5 12.4545
4534.5 3.36364
4535.5 12.6364
4536.5 13.2727
4537.5 13.4545
4538.5 14.2727
4539.5 2.81818
4540.5 5.18182
4541.5 2.09091
4542.5 25.1818
4543.5 14.1818
4544.5 7.81818
4545.5 9
4546.5 6.72727
4547.5 10.1818
4548.5 14.6364
4549.5 0.727273
4550.5 21
4551.5 4.54545
4552.5 5.36364
4553.5 22.7273
4554.5 14.2727
4555.5 -2.36364
4556.5 15.4545
4557.5 -2.54545
4558.5 24.0909
4559.5 12.2727
4560.5 15.9091
4561.5 20.0909
4562.5 18
4563.5 9.18182
4564.5 17.3636
4565.5 10.1818
4566.5 2.90909
4567.5 5.27273
4568.5 10.0909
4569.5 17.8182
4570.5 12.8182
4571.5 -1.54545
4572.5 16.5455
4573.5 5
4574.5 5.81818
4575.5 10.3636
4576.5 10
4577.5 18.5455
4578.5 19.1818
4579.5 8
4580.5 6.09091
4581.5 23.7273
4582.5 0.636364
4583.5 2.90909
4584.5 -0.272727
4585.5 8.81818
4586.5 3.45455
4587.5 -0.090909
4588.5 3.09091
4589.5 14.2727
4590.5 1.09091
4591.5 14.6364
4592.5 5.36364
4593.5 14.1818
4594.5 12.3636
4595.5 10.3636
4596.5 4.81818
4597.5 12.9091
4598.5 11.4545
4599.5 20.6364
4600.5 1.27273
4601.5 11.3636
4602.5 6.63636
4603.5 15.3636
4604.5 0.454546
4605.5 9.63636
4606.5 -3.09091
4607.5 12
4608.5 12.7273
4609.5 4.90909
4610.5 1.81818
4611.5 0.181818
4612.5 -4.09091
4613.5 -18.8182
4614.5 -4.72727
4615.5 -45.1818
4616.5 -20.3636
4617.5 -16.0909
4618.5 -19.9091
4619.5 6.45455
4620.5 18.3636
4621.5 2.09091
4622.5 1.18182
4623.5 2.27273
4624.5 4.18182
4625.5 -10.2727
4626.5 12.6364
4627.5 19.4545
4628.5 40.8182
4629.5 62.1818
4630.5 75.8182
4631.5 115.818
4632.5 179
4633.5 246.545
4634.5 488.182
4635.5 740.545
4636.5 1107.55
4637.5 1462.09
4638.5 1473.55
4639.5 1105.27
4640.5 663.727
4641.5 328.364
4642.5 139.636
4643.5 64.9091
4644.5 36.0909
4645.5 28.8182
4646.5 16.1818
4647.5 10.9091
4648.5 13.2727
4649.5 7.45455
4650.5 17.8182
4651.5 -3.27273
4652.5 3.72727
4653.5 11
4654.5 9.54545
4655.5 1.27273
4656.5 -5.36364
4657.5 1.90909
4658.5 6.36364
4659.5 -1.09091
4660.5 1.45455
4661.5 1.36364
4662.5 -8.36364
4663.5 1.81818
4664.5 3.63636
4665.5 5
4666.5 5.54545
4667.5 3.18182
4668.5 -1.36364
4669.5 2.90909
4670.5 8
4671.5 9.45455
4672.5 1.81818
4673.5 3.36364
4674.5 -3.45455
4675.5 4
4676.5 3.63636
4677.5 5
4678.5 4.36364
4679.5 0.181818
4680.5 1.81818
4681.5 4.18182
4682.5 -3.63636
4683.5 1.72727
4684.5 5.27273
4685.5 3.45455
4686.5 7.45455
4687.5 -0.727273
4688.5 2.72727
4689.5 0.454546
4690.5 1.18182
4691.5 3.45455
4692.5 8.63636
4693.5 -1.27273
4694.5 -6.54545
4695.5 3.45455
4696.5 0.363636
4697.5 -1.09091
4698.5 10.4545
4699.5 1.09091
4700.5 -2.63636
4701.5 6.18182
4702.5 5.96046e-08
4703.5 -2.81818
4704.5 3
4705.5 1.63636
4706.5 4.45455
4707.5 -8.90909
4708.5 4.27273
4709.5 7.09091
4710.5 5.81818
4711.5 6.63636
4712.5 -0.818182
4713.5 6.63636
4714.5 -0.363636
4715.5 6.18182
4716.5 5.90909
4717.5 2
4718.5 6.36364
4719.5 5.63636
4720.5 5.54545
4721.5 3.45455
4722.5 8.63636
4723.5 -1.09091
4724.5 -1.63636
4725.5 6
4726.5 -2.72727
4727.5 6
4728.5 2.63636
4729.5 1.27273
4730.5 7.18182
4731.5 7.36364
4732.5 11.8182
4733.5 23.2727
4734.5 28.6364
4735.5 4.90909
4736.5 11.4545
4737.5 21.8182
4738.5 5
4739.5 6.27273
4740.5 6.90909
4741.5 8.63636
4742.5 4.81818
4743.5 4
4744.5 4.36364
4745.5 3.36364
4746.5 0.545455
4747.5 2.72727
4748.5 1.54545
4749.5 1.18182
4750.5 -1
4751.5 0.545455
4752.5 8.45455
4753.5 5.90909
4754.5 5.27273
4755.5 1.63636
4756.5 3.45455
4757.5 1.63636
4758.5 1.18182
4759.5 2.81818
4760.5 1.63636
4761.5 1.27273
4762.5 5.63636
4763.5 -3.27273
4764.5 6.72727
4765.5 5.96046e-08
4766.5 10
4767.5 1.18182
4768.5 2.54545
4769.5 -6.27273
4770.5 -7.36364
4771.5 -5.18182
4772.5 1.18182
4773.5 4.72727
4774.5 7.09091
4775.5 -0.636364
4776.5 2.45455
4777.5 4.90909
4778.5 -4.36364
4779.5 8.18182
4780.5 2.18182
4781.5 4.63636
4782.5 0.545455
4783.5 2.81818
4784.5 3.81818
4785.5 9
4786.5 2.63636
4787.5 2.81818
4788.5 7.81818
4789.5 -4.90909
4790.5 1.54545
4791.5 3.63636
4792.5 3.81818
4793.5 0.363636
4794.5 3
4795.5 5.63636
4796.5 4.81818
4797.5 1.63636
4798.5 4.45455
4799.5 2.90909
4800.5 -1
4801.5 -2.81818
4802.5 4.81818
4803.5 -0.909091
4804.5 -1.18182
4805.5 2.72727
4806.5 15.7273
4807.5 -5.45455
4808.5 1.63636
4809.5 4.72727
4810.5 1.90909
4811.5 10
4812.5 0.727273
4813.5 5.27273
4814.5 7.81818
4815.5 4
4816.5 1.81818
4817.5 6.63636
4818.5 1.63636
4819.5 3.63636
4820.5 0.636364
4821.5 -3.27273
4822.5 -3.90909
4823.5 -0.181818
4824.5 0.454545
4825.5 5.81818
4826.5 8.81818
4827.5 0.636364
4828.5 4.63636
4829.5 5.27273
4830.5 0.363636
4831.5 -3.54545
4832.5 -3.18182
4833.5 6.72727
4834.5 2.81818
4835.5 2.54545
4836.5 8
4837.5 0.272727
4838.5 -3.09091
4839.5 0.727273
4840.5 -6.90909
4841.5 -9
4842.5 1.81818
4843.5 -0.818182
4844.5 2.90909
4845.5 5.36364
4846.5 3.90909
4847.5 15.0909
4848.5 -1.27273
4849.5 6.54545
4850.5 0.545455
4851.5 2.63636
4852.5 -1.27273
4853.5 -0.090909
4854.5 -4.54545
4855.5 -7
4856.5 9.63636
4857.5 6.90909
4858.5 -1.09091
4859.5 -4.09091
4860.5 -2.09091
4861.5 5.96046e-08
4862.5 0.727273
4863.5 2.36364
4864.5 2
4865.5 3.36364
4866.5 8.45455
4867.5 7.27273
4868.5 5.54545
4869.5 0.363636
4870.5 2.54545
4871.5 -4.63636
4872.5 1.36364
4873.5 -0.727273
4874.5 7.63636
4875.5 1
4876.5 8.54545
4877.5 11.5455
4878.5 -1.09091
4879.5 4.09091
4880.5 -1.54545
4881.5 -3.09091
4882.5 -0.909091
4883.5 3.81818
4884.5 12.7273
4885.5 2.81818
4886.5 -10
4887.5 11.9091
4888.5 1.36364
4889.5 -3.27273
4890.5 3.54545
4891.5 6.63636
4892.5 6
4893.5 2.18182
4894.5 9.09091
4895.5 3.18182
4896.5 5.36364
4897.5 10.2727
4898.5 5.81818
4899.5 4.81818
4900.5 7.54545
4901.5 3.36364
4902.5 4.18182
4903.5 -3.72727
4904.5 -4.18182
4905.5 -1.63636
4906.5 5.36364
4907.5 2.36364
4908.5 0.818182
4909.5 1.63636
4910.5 3.90909
4911.5 0.818182
4912.5 1.45455
4913.5 4.63636
4914.5 4.81818
4915.5 4.81818
4916.5 2.36364
4917.5 5.81818
4918.5 1.36364
4919.5 1
4920.5 6.54545
4921.5 -0.818182
4922.5 -3.18182
4923.5 7.09091
4924.5 1.81818
4925.5 -1.63636
4926.5 3.18182
4927.5 4
4928.5 9.63636
4929.5 -0.636364
4930.5 3.45455
4931.5 -3.90909
4932.5 -2.81818
4933.5 8.09091
4934.5 5.54545
4935.5 1.09091
4936.5 9.27273
4937.5 5
4938.5 4.63636
4939.5 4.63636
4940.5 4.27273
4941.5 1.27273
4942.5 7.45455
4943.5 -3.81818
4944.5 11.8182
4945.5 1.54545
4946.5 4
4947.5 0.636364
4948.5 4.27273
4949.5 7.09091
4950.5 0.818182
4951.5 10.9091
4952.5 6.09091
4953.5 -5.45455
4954.5 -3.27273
4955.5 -4.09091
4956.5 2.09091
4957.5 0.909091
4958.5 4.72727
4959.5 -1.54545
4960.5 1.81818
4961.5 -1.27273
4962.5 -5.72727
4963.5 6.09091
4964.5 10
4965.5 -5
4966.5 6.72727
4967.5 3.63636
4968.5 -3.90909
4969.5 4.81818
4970.5 6.36364
4971.5 0.181818
4972.5 5.96046e-08
4973.5 6.27273
4974.5 -5.45455
4975.5 -1.81818
4976.5 6
4977.5 4
4978.5 2.36364
4979.5 3.63636
4980.5 6.27273
4981.5 6
4982.5 7
4983.5 6
4984.5 -7.27273
4985.5 1.18182
4986.5 8.45455
4987.5 -7.09091
4988.5 12.2727
4989.5 1.18182
4990.5 7.27273
4991.5 -0.090909
4992.5 0.818182
4993.5 7.63636
4994.5 -1.81818
4995.5 2.72727
4996.5 0.181818
4997.5 -6.45455
4998.5 3.18182
4999.5 -3
5000.5 0.363636
5001.5 4.63636
5002.5 17.4545
5003.5 12
5004.5 -2.54545
5005.5 -5.54545
5006.5 -1.72727
5007.5 4.27273
5008.5 6
5009.5 -2.63636
5010.5 -0.272727
5011.5 -2
5012.5 12.4545
5013.5 1.18182
5014.5 3.81818
5015.5 5.45455
5016.5 6.90909
5017.5 -4.36364
5018.5 5.27273
5019.5 -1
5020.5 5
5021.5 4.72727
5022.5 3.72727
5023.5 0.545455
5024.5 -12.0909
5025.5 5.72727
5026.5 -3.81818
5027.5 9.45455
5028.5 -0.181818
5029.5 0.545455
5030.5 -2.45455
5031.5 13.9091
5032.5 3.45455
5033.5 8.45455
5034.5 4.09091
5035.5 12.1818
5036.5 -3.54545
5037.5 14.6364
5038.5 2.27273
5039.5 5.90909
5040.5 5.27273
5041.5 3.81818
5042.5 3.18182
5043.5 0.363636
5044.5 -2.27273
5045.5 5.72727
5046.5 -1
5047.5 -2.09091
5048.5 4.45455
5049.5 2.45455
5050.5 -2.81818
5051.5 5.63636
5052.5 9.81818
5053.5 2.27273
5054.5 -2
5055.5 2.63636
5056.5 0.636364
5057.5 2.81818
5058.5 1.63636
5059.5 8.09091
5060.5 1.36364
5061.5 4.09091
5062.5 3.18182
5063.5 0.545455
5064.5 4
5065.5 8.63636
5066.5 -0.727273
5067.5 5.18182
5068.5 4.81818
5069.5 4.45455
5070.5 2.54545
5071.5 5.18182
5072.5 0.272727
5073.5 2.09091
5074.5 1.36364
5075.5 0.272727
5076.5 15.2727
5077.5 7.81818
5078.5 12.3636
5079.5 0.727273
5080.5 7.18182
5081.5 -0.090909
5082.5 -4.36364
5083.5 12.4545
5084.5 4.09091
5085.5 2.36364
5086.5 1.27273
5087.5 -0.818182
5088.5 3.54545
5089.5 -1.72727
5090.5 -3.45455
5091.5 4.90909
5092.5 -2.27273
5093.5 3.45455
5094.5 -0.636364
5095.5 7.45455
5096.5 -1
5097.5 -2.36364
5098.5 -9.54545
5099.5 3.36364
5100.5 5
5101.5 -1
5102.5 6
5103.5 -0.272727
5104.5 4.81818
5105.5 -0.454545
5106.5 -6.09091
5107.5 3.81818
5108.5 1.54545
5109.5 3.81818
5110.5 0.636364
5111.5 4.27273
5112.5 2.18182
5113.5 -6
5114.5 12
5115.5 2.72727
5116.5 -4.72727
5117.5 5.90909
5118.5 5.90909
5119.5 -3
5120.5 1.45455
5121.5 6.18182
5122.5 5
5123.5 2
5124.5 5.81818
5125.5 5.36364
5126.5 8.27273
5127.5 -0.727273
5128.5 -3.45455
5129.5 3.09091
5130.5 7.09091
5131.5 5.96046e-08
5132.5 5.09091
5133.5 -0.818182
5134.5 2.09091
5135.5 3.36364
5136.5 -2
5137.5 5.45455
5138.5 7.45455
5139.5 -0.636364
5140.5 1.72727
5141.5 4.81818
5142.5 2.90909
5143.5 -0.727273
5144.5 5.96046e-08
5145.5 4.09091
5146.5 2.36364
5147.5 8.81818
5148.5 2
5149.5 3.45455
5150.5 3.81818
5151.5 9.45455
5152.5 4.81818
5153.5 3.27273
5154.5 -2
5155.5 -4.09091
5156.5 2.81818
5157.5 -1.81818
5158.5 10.1818
5159.5 5.09091
5160.5 -2.36364
5161.5 7.54545
5162.5 8.27273
5163.5 6.09091
5164.5 3.45455
5165.5 4.72727
5166.5 -3.18182
5167.5 3.72727
5168.5 -2.09091
5169.5 -3.18182
5170.5 -2.36364
5171.5 4.81818
5172.5 -2
5173.5 8.72727
5174.5 -1
5175.5 1.36364
5176.5 1.54545
5177.5 -0.363636
5178.5 1.81818
5179.5 -2.18182
5180.5 2.81818
5181.5 3.63636
5182.5 5.72727
5183.5 -0.818182
5184.5 0.0909091
5185.5 8.54545
5186.5 -1.18182
5187.5 6.90909
5188.5 1.18182
5189.5 2.18182
5190.5 9
5191.5 -6.09091
5192.5 9.18182
5193.5 11.3636
5194.5 11.0909
5195.5 4
5196.5 -1.63636
5197.5 4
5198.5 8
5199.5 -2.09091
5200.5 -0.090909
5201.5 -1.27273
5202.5 5.63636
5203.5 5.18182
5204.5 4.27273
5205.5 2.63636
5206.5 5.72727
5207.5 3.45455
5208.5 -1.27273
5209.5 -5.63636
5210.5 1.54545
5211.5 6.09091
5212.5 3.27273
5213.5 -3.81818
5214.5 -2.63636
5215.5 -0.909091
5216.5 -0.545455
5217.5 2.18182
5218.5 4.27273
5219.5 -2.63636
5220.5 -1.18182
5221.5 -0.0909091
5222.5 0.0909091
5223.5 1
5224.5 -5.18182
5225.5 2.36364
5226.5 4.63636
5227.5 5.72727
5228.5 -3.81818
5229.5 1.18182
5230.5 5.96046e-08
5231.5 -1
5232.5 -2.09091
5233.5 -1.27273
5234.5 0.181818
5235.5 0.363636
5236.5 -8.18182
5237.5 0.909091
5238.5 -8.09091
5239.5 11.8182
5240.5 12.9091
5241.5 10.1818
5242.5 38.7273
5243.5 29.5455
5244.5 32.9091
5245.5 32.1818
5246.5 19.0909
5247.5 20.0909
5248.5 6.27273
5249.5 8.81818
5250.5 3.45455
5251.5 6.63636
5252.5 -2.18182
5253.5 9.63636
5254.5 9.27273
5255.5 7.63636
5256.5 10.8182
5257.5 1.81818
5258.5 10.6364
5259.5 6.54545
5260.5 9.81818
5261.5 10.9091
5262.5 2.63636
5263.5 3
5264.5 5.09091
5265.5 6.18182
5266.5 -2.81818
5267.5 7.90909
5268.5 5.45455
5269.5 -8.09091
5270.5 9.27273
5271.5 3.72727
5272.5 5.27273
5273.5 -2
5274.5 1.45455
5275.5 5.90909
5276.5 2
5277.5 -0.181818
5278.5 3.27273
5279.5 -4.63636
5280.5 3.18182
5281.5 -1.45455
5282.5 -5.45455
5283.5 -1.54545
5284.5 2.18182
5285.5 3.72727
5286.5 1.90909
5287.5 -3.09091
5288.5 7
5289.5 -5.90909
5290.5 11.4545
5291.5 -1.54545
5292.5 2.63636
5293.5 0.636364
5294.5 -1
5295.5 2.45455
5296.5 9.54545
5297.5 7.09091
5298.5 4.45455
5299.5 0.818182
5300.5 5.63636
5301.5 0.454545
5302.5 -0.181818
5303.5 -2.18182
5304.5 2.45455
5305.5 1.45455
5306.5 6.45455
5307.5 4.27273
5308.5 -1.81818
5309.5 13.0909
5310.5 2.27273
5311.5 4.09091
5312.5 2.27273
5313.5 5.63636
5314.5 0.272727
5315.5 3.90909
5316.5 5.09091
5317.5 7.09091
5318.5 3.09091
5319.5 3.72727
5320.5 2.81818
5321.5 8.72727
5322.5 9.72727
5323.5 3.63636
5324.5 2.27273
5325.5 9.72727
5326.5 2.27273
5327.5 2.63636
5328.5 -11.9091
5329.5 -2.81818
5330.5 11.3636
5331.5 -2.90909
5332.5 1.45455
5333.5 7.27273
5334.5 3.90909
5335.5 -1
5336.5 -1.18182
5337.5 -3.36364
5338.5 1.45455
5339.5 4.90909
5340.5 8.09091
5341.5 -2
5342.5 3.81818
5343.5 3.54545
5344.5 6.81818
5345.5 1.36364
5346.5 11.6364
5347.5 13.1818
5348.5 4.36364
5349.5 11.5455
5350.5 7.36364
5351.5 -2.36364
5352.5 -17.8182
5353.5 11.0909
5354.5 6.63636
5355.5 9.18182
5356.5 23.8182
5357.5 12.9091
5358.5 -0.545454
5359.5 3.81818
5360.5 10.9091
5361.5 4.09091
5362.5 3.27273
5363.5 6.45455
5364.5 -4.36364
5365.5 2.90909
5366.5 -1.36364
5367.5 7.27273
5368.5 4.54545
5369.5 5.09091
5370.5 -2.54545
5371.5 -3.18182
5372.5 1
5373.5 4.09091
5374.5 2.27273
5375.5 7.27273
5376.5 1.09091
5377.5 2.09091
5378.5 9.90909
5379.5 7.36364
5380.5 2.09091
5381.5 2.27273
5382.5 -1.45455
5383.5 7.90909
5384.5 6.09091
5385.5 8.72727
5386.5 -0.363636
5387.5 3.45455
5388.5 2.90909
5389.5 -0.636364
5390.5 6.09091
5391.5 7.54545
5392.5 -0.181818
5393.5 4.45455
5394.5 -3.81818
5395.5 5.54545
5396.5 4.90909
5397.5 -10.8182
5398.5 1.72727
5399.5 6.36364
5400.5 -5.90909
5401.5 1.72727
5402.5 -2
5403.5 6.90909
5404.5 2.09091
5405.5 0.909091
5406.5 3.54545
5407.5 5.27273
5408.5 6.90909
5409.5 -0.727273
5410.5 1.90909
5411.5 1.54545
5412.5 2.09091
5413.5 4
5414.5 1.63636
5415.5 5.45455
5416.5 6.09091
5417.5 4.45455
5418.5 3.27273
5419.5 6.27273
5420.5 6.09091
5421.5 3.90909
5422.5 2.09091
5423.5 2.09091
5424.5 4.09091
5425.5 2.09091
5426.5 -0.454545
5427.5 3.72727
5428.5 -0.0909091
5429.5 5.27273
5430.5 4.54545
5431.5 2.72727
5432.5 3.54545
5433.5 5.36364
5434.5 4.45455
5435.5 2.27273
5436.5 5.72727
5437.5 -2.54545
5438.5 11.7273
5439.5 0.545455
5440.5 0.454545
5441.5 7.36364
5442.5 -3.81818
5443.5 1.27273
5444.5 -1
5445.5 1.90909
5446.5 1.54545
5447.5 1.90909
5448.5 4.72727
5449.5 1.27273
5450.5 5.09091
5451.5 1.90909
5452.5 4.27273
5453.5 -4.18182
5454.5 4.45455
5455.5 2.36364
5456.5 13.5455
5457.5 -2
5458.5 4.18182
5459.5 -4.09091
5460.5 -2.09091
5461.5 -2.54545
5462.5 5.72727
5463.5 7
5464.5 -5
5465.5 2.09091
5466.5 2.27273
5467.5 1.81818
5468.5 1.81818
5469.5 1.09091
5470.5 8.36364
5471.5 3.81818
5472.5 5.18182
5473.5 -1.27273
5474.5 -3.90909
5475.5 9
5476.5 10.2727
5477.5 -0.090909
5478.5 3.90909
5479.5 -3.18182
5480.5 8.09091
5481.5 5.09091
5482.5 7.72727
5483.5 2.36364
5484.5 4.27273
5485.5 5.90909
5486.5 6.54545
5487.5 3.90909
5488.5 -1.81818
5489.5 1.90909
5490.5 4.27273
5491.5 -2.54545
5492.5 5.09091
5493.5 6.90909
5494.5 6.27273
5495.5 -1.90909
5496.5 4.54545
5497.5 -1.45455
5498.5 1.09091
5499.5 5.27273
5500.5 8.72727
5501.5 8.54545
5502.5 3.54545
5503.5 6.09091
5504.5 4.09091
5505.5 6.72727
5506.5 1.27273
5507.5 5.90909
5508.5 4.63636
5509.5 0.545455
5510.5 4.36364
5511.5 9.90909
5512.5 3.72727
5513.5 8.45455
5514.5 -0.363636
5515.5 8.09091
5516.5 6.90909
5517.5 4.36364
5518.5 0.272727
5519.5 3.90909
5520.5 0.909091
5521.5 7.36364
5522.5 7.27273
5523.5 5.09091
5524.5 1.90909
5525.5 2.72727
5526.5 5.72727
5527.5 2.09091
5528.5 0.909091
5529.5 5.72727
5530.5 11.7273
5531.5 1
5532.5 -5
5533.5 -3.18182
5534.5 8.81818
5535.5 -8.27273
5536.5 3.45455
5537.5 -8.54545
5538.5 -6.45455
5539.5 -12.4545
5540.5 -6.09091
5541.5 -4.90909
5542.5 3
5543.5 7.27273
5544.5 5.09091
5545.5 2.72727
5546.5 0.454545
5547.5 6.36364
5548.5 -1.36364
5549.5 2.27273
5550.5 2.09091
5551.5 -2.09091
5552.5 2.09091
5553.5 -0.0909091
5554.5 3.72727
5555.5 3.27273
5556.5 -0.0909091
5557.5 3.54545
5558.5 3.72727
5559.5 -1.54545
5560.5 5.18182
5561.5 3.36364
5562.5 5.36364
5563.5 -1.72727
5564.5 8.36364
5565.5 2.09091
5566.5 1.72727
5567.5 3.18182
5568.5 5.54545
5569.5 3.54545
5570.5 -0.545455
5571.5 11.1818
5572.5 2.54545
5573.5 0.545455
5574.5 3.72727
5575.5 5.54545
5576.5 10.7273
5577.5 -1.81818
5578.5 -1.18182
5579.5 3.36364
5580.5 8.18182
5581.5 -4.45455
5582.5 0.454546
5583.5 0.181818
5584.5 -5.54545
5585.5 1.63636
5586.5 5.09091
5587.5 0.454545
5588.5 -2.63636
5589.5 3.72727
5590.5 0.272727
5591.5 1.36364
5592.5 1.81818
5593.5 -0.818182
5594.5 12.3636
5595.5 2.09091
5596.5 4.90909
5597.5 -0.545455
5598.5 -2.90909
5599.5 11.5455
5600.5 0.545455
5601.5 3.90909
5602.5 2.36364
5603.5 2.09091
5604.5 6.54545
5605.5 -0.545455
5606.5 0.545455
5607.5 -3.54545
5608.5 6.36364
5609.5 1.27273
5610.5 -0.727273
5611.5 9.18182
5612.5 3.90909
5613.5 0.727273
5614.5 1.90909
5615.5 2.90909
5616.5 1.72727
5617.5 2.72727
5618.5 4.18182
5619.5 4.72727
5620.5 0.727273
5621.5 -0.727273
5622.5 0.0909091
5623.5 -2.72727
5624.5 0.0909091
5625.5 2.09091
5626.5 4.45455
5627.5 4.09091
5628.5 6.90909
5629.5 -1.18182
5630.5 3.45455
5631.5 4.90909
5632.5 6
5633.5 -0.454545
5634.5 -0.909091
5635.5 4.54545
5636.5 -1.72727
5637.5 0.272727
5638.5 3.90909
5639.5 1.09091
5640.5 4.54545
5641.5 7.72727
5642.5 -0.0909091
5643.5 2.72727
5644.5 -1.90909
5645.5 2.72727
5646.5 -4.54545
5647.5 -1.09091
5648.5 3.90909
5649.5 7.90909
5650.5 -0.545455
5651.5 3.36364
5652.5 -2.90909
5653.5 5.72727
5654.5 -6
5655.5 1.27273
5656.5 0.272727
5657.5 0.545455
5658.5 -2.72727
5659.5 4.18182
5660.5 4.36364
5661.5 -2.45455
5662.5 2.54545
5663.5 5.36364
5664.5 -0.0909091
5665.5 6.72727
5666.5 0.727273
5667.5 0.0909091
5668.5 0.0909091
5669.5 -0.545455
5670.5 5.81818
5671.5 3.90909
5672.5 6.81818
5673.5 -1
5674.5 -0.727273
5675.5 -3.18182
5676.5 5.36364
5677.5 1.54545
5678.5 2.72727
5679.5 0.545455
5680.5 5
5681.5 -0.909091
5682.5 1.90909
5683.5 -3.36364
5684.5 4.90909
5685.5 1.63636
5686.5 2.18182
5687.5 1.18182
5688.5 -1.36364
5689.5 8.63636
5690.5 -1.36364
5691.5 2.27273
5692.5 2.27273
5693.5 -1.09091
5694.5 4.54545
5695.5 2.09091
5696.5 -0.0909091
5697.5 7.18182
5698.5 -1.72727
5699.5 -3.54545
5700.5 -1.90909
5701.5 0.545455
5702.5 -1.72727
5703.5 2.72727
5704.5 1.18182
5705.5 -2.54545
5706.5 1.90909
5707.5 1.90909
5708.5 1.72727
5709.5 1.09091
5710.5 7.90909
5711.5 2.54545
5712.5 1.72727
5713.5 -1.09091
5714.5 3.27273
5715.5 0.0909091
5716.5 4.90909
5717.5 5.54545
5718.5 2.54545
5719.5 -0.0909091
5720.5 2.54545
5721.5 -1.09091
5722.5 0.545455
5723.5 3.36364
5724.5 2.36364
5725.5 3.72727
5726.5 1.09091
5727.5 -0.909091
5728.5 -0.454545
5729.5 -3.54545
5730.5 0.909091
5731.5 2.72727
5732.5 1.54545
5733.5 -7.18182
5734.5 -1.90909
5735.5 1.90909
5736.5 -1.09091
5737.5 4.36364
5738.5 -0.272727
5739.5 -4.54545
5740.5 0.454545
5741.5 2.90909
5742.5 2.18182
5743.5 0.363636
5744.5 2.36364
5745.5 0.363636
5746.5 7.36364
5747.5 0.909091
5748.5 1.09091
5749.5 17.5455
5750.5 25.9091
5751.5 20.0909
5752.5 18.8182
5753.5 49.2727
5754.5 56.4545
5755.5 78.7273
5756.5 58.5455
5757.5 49.0909
5758.5 43.8182
5759.5 25
5760.5 16.5455
5761.5 11.7273
5762.5 15.7273
5763.5 8.54545
5764.5 12.5455
5765.5 8.36364
5766.5 3.90909
5767.5 2.36364
5768.5 5.36364
5769.5 1.27273
5770.5 -0.363636
5771.5 3.09091
5772.5 3
5773.5 -0.0909091
5774.5 5.54545
5775.5 1.54545
5776.5 -1.27273
5777.5 3.54545
5778.5 -1.09091
5779.5 -1.63636
5780.5 5
5781.5 3.36364
5782.5 -1.90909
5783.5 0.363636
5784.5 2.54545
5785.5 -0.909091
5786.5 -3.54545
5787.5 -1.72727
5788.5 -5
5789.5 6.90909
5790.5 -2.72727
5791.5 0.272727
5792.5 7.54545
5793.5 2.36364
5794.5 2.90909
5795.5 -4.90909
5796.5 -0.909091
5797.5 0.545455
5798.5 0.727273
5799.5 1.54545
5800.5 0.727273
5801.5 -1.90909
5802.5 3.36364
5803.5 1.36364
5804.5 1.27273
5805.5 -0.909091
5806.5 -2.27273
5807.5 0.909091
5808.5 6
5809.5 -2.09091
5810.5 2.54545
5811.5 7
5812.5 -1.72727
5813.5 -1.45455
5814.5 -2.72727
5815.5 -0.909091
5816.5 -3.90909
5817.5 0.727273
5818.5 -2.09091
5819.5 -1.27273
5820.5 1.36364
5821.5 0.363636
5822.5 1.18182
5823.5 2.36364
5824.5 -0.272727
5825.5 -0.454545
5826.5 2.36364
5827.5 -0.818182
5828.5 -1.72727
5829.5 -1.09091
5830.5 3.72727
5831.5 0.727273
5832.5 -3.09091
5833.5 0.363636
5834.5 1.72727
5835.5 -0.636364
5836.5 2.54545
5837.5 7.72727
5838.5 -0.272727
5839.5 1.09091
5840.5 -2.09091
5841.5 7.36364
5842.5 3.27273
5843.5 -0.272727
5844.5 -1.45455
5845.5 -0.0909091
5846.5 -1.54545
5847.5 1.36364
5848.5 2.18182
5849.5 3.18182
5850.5 4.18182
5851.5 1.36364
5852.5 -4.09091
5853.5 6.18182
5854.5 -0.909091
5855.5 1.18182
5856.5 1.36364
5857.5 3.72727
5858.5 -1.09091
5859.5 1.36364
5860.5 -1.45455
5861.5 -0.0909091
5862.5 0.909091
5863.5 0.545455
5864.5 -0.636364
5865.5 4.18182
5866.5 -3.90909
5867.5 2.36364
5868.5 3.36364
5869.5 1.54545
5870.5 2
5871.5 3.54545
5872.5 1.72727
5873.5 -0.0909091
5874.5 -0.454545
5875.5 -3.09091
5876.5 0.545455
5877.5 -1.09091
5878.5 -0.454545
5879.5 -3.27273
5880.5 0.181818
5881.5 -2.27273
5882.5 0.727273
5883.5 -0.0909091
5884.5 1.54545
5885.5 0.181818
5886.5 -2.09091
5887.5 -2.27273
5888.5 3.54545
5889.5 -0.272727
5890.5 3.18182
5891.5 1.09091
5892.5 0.272727
5893.5 -1.45455
5894.5 -0.0909091
5895.5 5.54545
5896.5 2.18182
5897.5 17.3636
5898.5 1.63636
5899.5 8.45455
5900.5 6.63636
5901.5 3.72727
5902.5 4
5903.5 2.27273
5904.5 -0.454545
5905.5 -0.0909091
5906.5 1.54545
5907.5 0.909091
5908.5 0.909091
5909.5 2.36364
5910.5 0.0909091
5911.5 0.545455
5912.5 -2.72727
5913.5 -3.90909
5914.5 2.54545
5915.5 -0.272727
5916.5 -0.454545
5917.5 1.54545
5918.5 0.363636
5919.5 -2.09091
5920.5 1.54545
5921.5 1.18182
5922.5 1.36364
5923.5 1.18182
5924.5 0.545455
5925.5 0.545455
5926.5 3.18182
5927.5 1.72727
5928.5 0.727273
5929.5 -0.454545
5930.5 -1.45455
5931.5 3
5932.5 2.36364
5933.5 6.18182
5934.5 -1.72727
5935.5 -0.272727
5936.5 -0.454545
5937.5 1.54545
5938.5 6.54545
5939.5 -0.636364
5940.5 1.36364
5941.5 0.181818
5942.5 -0.636364
5943.5 1.18182
5944.5 6.36364
5945.5 1.36364
5946.5 0.363636
5947.5 1.54545
5948.5 -0.0909091
5949.5 -1.45455
5950.5 -4.09091
5951.5 0.181818
5952.5 1.36364
5953.5 1.18182
5954.5 -0.636364
5955.5 -1.90909
5956.5 -0.272727
5957.5 -1.09091
5958.5 1
5959.5 -6.18182
5960.5 4.54545
5961.5 3.54545
5962.5 -5.63636
5963.5 2.81818
5964.5 -3.81818
5965.5 10.0909
5966.5 -4.81818
5967.5 -3.72727
5968.5 -4.90909
5969.5 -0.0909089
5970.5 8.54545
5971.5 2.63636
5972.5 6.09091
5973.5 3.09091
5974.5 -0.272727
5975.5 1.18182
5976.5 3.27273
5977.5 1.54545
5978.5 4.18182
5979.5 2.54545
5980.5 -3.90909
5981.5 3.18182
5982.5 -0.454545
5983.5 1.36364
5984.5 -1.27273
5985.5 0.909091
5986.5 0.545455
5987.5 1.54545
5988.5 -0.818182
5989.5 5
5990.5 -1.63636
5991.5 -0.272727
5992.5 2.36364
5993.5 -2.90909
5994.5 -0.454545
5995.5 0.363636
5996.5 5.54545
5997.5 0.272727
5998.5 -1.54545
5999.5 -3.18182
6000.5 1
6001.5 4.54545
6002.5 7.27273
6003.5 8.18182
6004.5 6.18182
6005.5 0.545455
6006.5 0.545455
6007.5 3.36364
6008.5 -0.0909091
6009.5 -2.09091
6010.5 -0.454545
6011.5 0.545455
6012.5 -2.45455
6013.5 2.36364
6014.5 1.36364
6015.5 2.36364
6016.5 2.36364
6017.5 -0.727273
6018.5 8
6019.5 3.72727
6020.5 1.36364
6021.5 1.18182
6022.5 -1.27273
6023.5 0.545455
6024.5 0.545455
6025.5 2
6026.5 -2.45455
6027.5 -0.272727
6028.5 -3.09091
6029.5 1.36364
6030.5 -0.454545
6031.5 -0.272727
6032.5 0.727273
6033.5 -0.272727
6034.5 1.45455
6035.5 0.0909091
6036.5 2.72727
6037.5 -0.0909091
6038.5 0.727273
6039.5 3.09091
6040.5 1
6041.5 -1.09091
6042.5 2.18182
6043.5 -0.454545
6044.5 -4.09091
6045.5 0.363636
6046.5 3.36364
6047.5 1.18182
6048.5 0.363636
6049.5 0
6050.5 4.36364
6051.5 -3.90909
6052.5 -1.09091
6053.5 -1.63636
6054.5 -3.09091
6055.5 3.18182
6056.5 0.181818
6057.5 0.545455
6058.5 1
6059.5 -1.63636
6060.5 1.18182
6061.5 0.545455
6062.5 -1.72727
6063.5 3.18182
6064.5 2
6065.5 -0.454545
6066.5 0.363636
6067.5 2
6068.5 -0.0909091
6069.5 3.36364
6070.5 -0.272727
6071.5 1.54545
6072.5 -2.90909
6073.5 -4.90909
6074.5 1.72727
6075.5 -0.454545
6076.5 2.54545
6077.5 -2.45455
6078.5 1.18182
6079.5 -1.27273
6080.5 5
6081.5 -1.45455
6082.5 -4.54545
6083.5 0.181818
6084.5 -2.90909
6085.5 4.18182
6086.5 -0.636364
6087.5 4.36364
6088.5 -2.27273
6089.5 -1.09091
6090.5 1.36364
6091.5 0.181818
6092.5 1
6093.5 4
6094.5 -0.454545
6095.5 2.18182
6096.5 -0.909091
6097.5 -1.27273
6098.5 -0.818182
6099.5 -2.27273
6100.5 0.181818
6101.5 5.36364
6102.5 1.36364
6103.5 -0.636364
6104.5 0.0909091
6105.5 2
6106.5 0.909091
6107.5 0.727273
6108.5 -0.454545
6109.5 0.727273
6110.5 7
6111.5 -1.72727
6112.5 0.545455
6113.5 -1.72727
6114.5 0.363636
6115.5 3.18182
6116.5 1.18182
6117.5 1.90909
6118.5 4.18182
6119.5 0.727273
6120.5 -1.45455
6121.5 5.72727
6122.5 -3.54545
6123.5 10.1818
6124.5 -0.545455
6125.5 4.45455
6126.5 6.09091
6127.5 4.09091
6128.5 -0.909091
6129.5 0.545455
6130.5 -4.72727
6131.5 0.909091
6132.5 1.36364
6133.5 0.545455
6134.5 0.545455
6135.5 0.545455
6136.5 -0.636364
6137.5 -1.27273
6138.5 2.36364
6139.5 -2.27273
6140.5 -0.454545
6141.5 -0.272727
6142.5 4.36364
6143.5 0.727273
6144.5 1.36364
6145.5 2.54545
6146.5 0.363636
6147.5 1.36364
6148.5 4
6149.5 2.36364
6150.5 0.363636
6151.5 0
6152.5 -3.27273
6153.5 5.18182
6154.5 6
6155.5 -0.454545
6156.5 -1.09091
6157.5 0.545455
6158.5 0
6159.5 -0.636364
6160.5 -0.636364
6161.5 -1.27273
6162.5 -0.272727
6163.5 2.36364
6164.5 4
6165.5 0.363636
6166.5 0.363636
6167.5 1.72727
6168.5 2.18182
6169.5 -3.09091
6170.5 0.181818
6171.5 0.545455
6172.5 -3.09091
6173.5 1.54545
6174.5 -3.09091
6175.5 0.545455
6176.5 -2.45455
6177.5 -1.45455
6178.5 -0.454545
6179.5 1.36364
6180.5 -1.90909
6181.5 1.54545
6182.5 -2.27273
6183.5 -0.909091
6184.5 2.18182
6185.5 -0.636364
6186.5 -0.454545
6187.5 2.54545
6188.5 -0.727273
6189.5 1.18182
6190.5 1.36364
6191.5 0.727273
6192.5 2
6193.5 5.18182
6194.5 6.18182
6195.5 0.363636
6196.5 -0.636364
6197.5 3.36364
6198.5 2.54545
6199.5 1.18182
6200.5 -1.09091
6201.5 -1.45455
6202.5 1.54545
6203.5 -2.09091
6204.5 -0.727273
6205.5 3.54545
6206.5 -2.09091
6207.5 1.18182
6208.5 -0.454545
6209.5 2.36364
6210.5 -3.27273
6211.5 1.36364
6212.5 -0.454545
6213.5 3
6214.5 2.18182
6215.5 -0.454545
6216.5 0.181818
6217.5 0.727273
6218.5 1.54545
6219.5 3.18182
6220.5 -2.27273
6221.5 4
6222.5 0.545455
6223.5 -0.909091
6224.5 -3.90909
6225.5 1.72727
6226.5 -2.09091
6227.5 2.36364
6228.5 3.36364
6229.5 3.36364
6230.5 -0.454545
6231.5 1.90909
6232.5 2.36364
6233.5 -0.454545
6234.5 1.54545
6235.5 -3.27273
6236.5 0.363636
6237.5 -0.454545
6238.5 0.363636
6239.5 2.54545
6240.5 -0.636364
6241.5 3.18182
6242.5 1.54545
6243.5 -3.27273
6244.5 -1.63636
6245.5 3
6246.5 -2.45455
6247.5 -0.454545
6248.5 0.545455
6249.5 -0.454545
6250.5 -0.454545
6251.5 2
6252.5 6.18182
6253.5 1.36364
6254.5 5
6255.5 -0.818182
6256.5 -2.27273
6257.5 -0.454545
6258.5 0.363636
6259.5 -2.90909
6260.5 -0.909091
6261.5 0.363636
6262.5 -2.27273
6263.5 -0.636364
6264.5 -0.636364
6265.5 -1.27273
6266.5 -1.45455
6267.5 -0.272727
6268.5 0.181818
6269.5 -0.0909091
6270.5 -0.454545
6271.5 1
6272.5 1.18182
6273.5 3.18182
6274.5 3.18182
6275.5 4.36364
6276.5 -0.454545
6277.5 -0.272727
6278.5 -0.636364
6279.5 -2.09091
6280.5 0.181818
6281.5 -0.272727
6282.5 0.363636
6283.5 -0.272727
6284.5 1
6285.5 -1.45455
6286.5 0.363636
6287.5 0.181818
6288.5 1
6289.5 1.18182
6290.5 0.363636
6291.5 1.18182
6292.5 0.181818
6293.5 0.545455
6294.5 2.18182
6295.5 -4.72727
6296.5 1.54545
6297.5 -0.454545
6298.5 1.36364
6299.5 -1.27273
6300.5 5.18182
6301.5 3
6302.5 -2.09091
6303.5 -1.27273
6304.5 2.18182
6305.5 -1.63636
6306.5 -1.63636
6307.5 1.72727
6308.5 4
6309.5 4.18182
6310.5 -1.45455
6311.5 1.18182
6312.5 -0.636364
6313.5 4.36364
6314.5 4.18182
6315.5 -4.09091
6316.5 -0.636364
6317.5 3.36364
6318.5 2
6319.5 4.54545
6320.5 -0.454545
6321.5 -6.18182
6322.5 -0.0909091
6323.5 2.90909
6324.5 1.54545
6325.5 1.36364
6326.5 -0.0909091
6327.5 2.54545
6328.5 0.545455
6329.5 5
6330.5 1.54545
6331.5 -1.45455
6332.5 -0.454545
6333.5 -2.45455
6334.5 -1.45455
6335.5 1.54545
6336.5 -2.45455
6337.5 3.36364
6338.5 0.363636
6339.5 -0.636364
6340.5 -2.90909
6341.5 -0.454545
6342.5 2
6343.5 0.181818
6344.5 0.181818
6345.5 1.18182
6346.5 0.181818
6347.5 -1.45455
6348.5 4.36364
6349.5 -0.454545
6350.5 5.18182
6351.5 -0.454545
6352.5 -1.63636
6353.5 0.181818
6354.5 0.545455
6355.5 3.18182
6356.5 0
6357.5 1.54545
6358.5 0.727273
6359.5 1
6360.5 -0.818182
6361.5 0.181818
6362.5 0.363636
6363.5 -1.63636
6364.5 -1.63636
6365.5 -0.454545
6366.5 3.18182
6367.5 -2.45455
6368.5 -0.818182
6369.5 -1.63636
6370.5 -4.09091
6371.5 2.18182
6372.5 0.363636
6373.5 3
6374.5 -4.09091
6375.5 -1.63636
6376.5 0.363636
6377.5 -2.27273
6378.5 -1.45455
6379.5 1.36364
6380.5 0.181818
6381.5 1
6382.5 1.18182
6383.5 1.18182
6384.5 0.181818
6385.5 2.36364
6386.5 0.363636
6387.5 1.18182
6388.5 -1.63636
6389.5 -0.272727
6390.5 -1.63636
6391.5 -0.636364
6392.5 1.18182
6393.5 -1.63636
6394.5 1.18182
6395.5 0.181818
6396.5 -0.818182
6397.5 1
6398.5 1.18182
6399.5 -1.45455
6400.5 -1.45455
6401.5 0.363636
6402.5 1
6403.5 -0.636364
6404.5 0.181818
6405.5 2
6406.5 -2.45455
6407.5 -1.09091
6408.5 -0.818182
6409.5 0.363636
6410.5 0.181818
6411.5 1
6412.5 -1.63636
6413.5 1
6414.5 1.18182
6415.5 2
6416.5 0.181818
6417.5 2.54545
6418.5 0.363636
6419.5 -0.636364
6420.5 3.90909
6421.5 -0.454545
6422.5 3.36364
6423.5 -3.09091
6424.5 -1.09091
6425.5 -1.90909
6426.5 -2.27273
6427.5 0.545455
6428.5 2.18182
6429.5 0
6430.5 -0.818182
6431.5 -2.27273
6432.5 0.181818
6433.5 -1.45455
6434.5 1
6435.5 -0.818182
6436.5 4
6437.5 0.363636
6438.5 -0.636364
6439.5 2.18182
6440.5 -0.636364
6441.5 -0.636364
6442.5 -2.09091
6443.5 -2.45455
6444.5 1.36364
6445.5 0.181818
6446.5 0
6447.5 -0.818182
6448.5 -0.818182
6449.5 -4.09091
6450.5 0
6451.5 2
6452.5 -1.63636
6453.5 -0.636364
6454.5 0
6455.5 1.18182
6456.5 0.181818
6457.5 -1.63636
6458.5 0.181818
6459.5 0.181818
6460.5 -1.45455
6461.5 -1.09091
6462.5 -0.818182
6463.5 0.181818
6464.5 0
6465.5 1
6466.5 -0.818182
6467.5 -2.09091
6468.5 2.18182
6469.5 -0.636364
6470.5 -0.272727
6471.5 -2.09091
6472.5 0.272727
6473.5 -3.45455
6474.5 1.18182
6475.5 2.36364
6476.5 3.45455
6477.5 -9.27273
6478.5 35
6479.5 2.72727
6480.5 20.3636
6481.5 -11.4545
6482.5 3.18182
6483.5 -11.3636
6484.5 1.45455
6485.5 1.09091
6486.5 1.54545
6487.5 -2.45455
6488.5 -3.09091
6489.5 -0.636364
6490.5 0
6491.5 -1.27273
6492.5 0
6493.5 0.181818
6494.5 1.18182
6495.5 -1.63636
6496.5 1.18182
6497.5 0
6498.5 -1.45455
6499.5 0
6500.5 2
6501.5 -0.454545
6502.5 2.18182
6503.5 0.181818
6504.5 2.18182
6505.5 1.18182
6506.5 2
6507.5 0
6508.5 2
6509.5 0.181818
6510.5 2
6511.5 0
6512.5 -0.818182
6513.5 -0.818182
6514.5 1
6515.5 1
6516.5 1.18182
6517.5 0
6518.5 0.181818
6519.5 1
6520.5 0
6521.5 -0.636364
6522.5 1
6523.5 0.181818
6524.5 2
6525.5 1.18182
6526.5 1.18182
6527.5 -0.818182
6528.5 0.181818
6529.5 3
6530.5 0
6531.5 -0.818182
6532.5 -1.63636
6533.5 3
6534.5 -2.45455
6535.5 0
6536.5 -1.63636
6537.5 2.36364
6538.5 1.18182
6539.5 1
6540.5 -0.636364
6541.5 1
6542.5 4.18182
6543.5 1.54545
6544.5 -1.27273
6545.5 3.36364
6546.5 0.909091
6547.5 0.727273
6548.5 7
6549.5 0.363636
6550.5 0
6551.5 2
6552.5 0.181818
6553.5 0.363636
6554.5 1
6555.5 0
6556.5 0
6557.5 -0.818182
6558.5 0.181818
6559.5 0.181818
6560.5 -0.818182
6561.5 0.181818
6562.5 0.181818
6563.5 2
6564.5 -0.636364
6565.5 1
6566.5 -0.818182
6567.5 1
6568.5 2
6569.5 1.18182
6570.5 -1.63636
6571.5 1.18182
6572.5 -0.636364
6573.5 -0.818182
6574.5 -0.818182
6575.5 1
6576.5 2
6577.5 -1.63636
6578.5 -0.818182
6579.5 -0.818182
6580.5 1
6581.5 1
6582.5 1
6583.5 0
6584.5 1
6585.5 -0.636364
6586.5 -0.636364
6587.5 1
6588.5 3
6589.5 0.181818
6590.5 1
6591.5 -1.45455
6592.5 -1.63636
6593.5 1
6594.5 1
6595.5 1
6596.5 2
6597.5 1.18182
6598.5 1
6599.5 2
6600.5 2.18182
6601.5 3.18182
6602.5 2
6603.5 -0.454545
6604.5 -0.818182
6605.5 0.181818
6606.5 0
6607.5 1
6608.5 0
6609.5 1
6610.5 0.181818
6611.5 4.18182
6612.5 0
6613.5 -0.818182
6614.5 1
6615.5 1
6616.5 0
6617.5 -1.63636
6618.5 2
6619.5 -2.45455
6620.5 0
6621.5 1
6622.5 0
6623.5 1.18182
6624.5 -0.636364
6625.5 0
6626.5 -0.636364
6627.5 1.18182
6628.5 1.18182
6629.5 1
6630.5 1.18182
6631.5 0.181818
6632.5 1
6633.5 -1.63636
6634.5 -0.818182
6635.5 0
6636.5 0
6637.5 0
6638.5 4
6639.5 2
6640.5 0
6641.5 -0.818182
6642.5 -0.818182
6643.5 0
6644.5 0
6645.5 1
6646.5 -1.45455
6647.5 0.363636
6648.5 -0.818182
6649.5 1.54545
6650.5 2
6651.5 2
6652.5 0.363636
6653.5 -0.636364
6654.5 -0.818182
6655.5 0
6656.5 -1.45455
6657.5 0
6658.5 0
6659.5 -0.818182
6660.5 3
6661.5 0
6662.5 -0.818182
6663.5 -0.818182
6664.5 1
6665.5 0
6666.5 2
6667.5 0
6668.5 1
6669.5 -1.63636
6670.5 1
6671.5 1
6672.5 0
6673.5 0.363636
6674.5 1
6675.5 0
6676.5 0
6677.5 -1.45455
6678.5 -0.818182
6679.5 4
6680.5 1
6681.5 0
6682.5 0
6683.5 2
6684.5 0.181818
6685.5 1
6686.5 0
6687.5 0
6688.5 0
6689.5 1
6690.5 0.181818
6691.5 0.181818
6692.5 1
6693.5 4
6694.5 -0.818182
6695.5 1
6696.5 -1.63636
6697.5 0.181818
6698.5 0.545455
6699.5 0
6700.5 1
6701.5 -0.636364
6702.5 -0.636364
6703.5 1
6704.5 2
6705.5 -0.818182
6706.5 1
6707.5 0
6708.5 2.18182
6709.5 0
6710.5 0
6711.5 0
6712.5 0
6713.5 -0.818182
6714.5 2
6715.5 0.181818
6716.5 -1.63636
6717.5 0
6718.5 -0.818182
6719.5 1
6720.5 0
6721.5 1
6722.5 0
6723.5 1
6724.5 -0.818182
6725.5 0
6726.5 1
6727.5 1
6728.5 1
6729.5 1
6730.5 -0.636364
6731.5 1
6732.5 0.181818
6733.5 1.36364
6734.5 2
6735.5 2
6736.5 0.181818
6737.5 -0.818182
6738.5 1.18182
6739.5 -0.818182
6740.5 -1.63636
6741.5 0.181818
6742.5 1
6743.5 2.18182
6744.5 1
6745.5 -0.818182
6746.5 -1.63636
6747.5 -0.818182
6748.5 0.363636
6749.5 -1.63636
6750.5 0
6751.5 -1.63636
6752.5 -3.27273
6753.5 -0.636364
6754.5 -0.818182
6755.5 0
6756.5 0.181818
6757.5 1
6758.5 -1.63636
6759.5 2
6760.5 1.36364
6761.5 -1.63636
6762.5 -0.818182
6763.5 0
6764.5 -0.818182
6765.5 -0.818182
6766.5 2
6767.5 4
6768.5 0
6769.5 0.363636
6770.5 -1.27273
6771.5 -0.636364
6772.5 2.18182
6773.5 0.363636
6774.5 -1.63636
6775.5 -0.636364
6776.5 -0.818182
6777.5 0
6778.5 0.181818
6779.5 0
6780.5 0
6781.5 -0.818182
6782.5 1
6783.5 -0.818182
6784.5 1
6785.5 1
6786.5 0
6787.5 0
6788.5 0
6789.5 0
6790.5 -1.63636
6791.5 2
6792.5 1
6793.5 1.18182
6794.5 -0.818182
6795.5 0
6796.5 2
6797.5 0
6798.5 -2.27273
6799.5 -0.818182
6800.5 0
6801.5 0
6802.5 0
6803.5 0.181818
6804.5 2
6805.5 -0.636364
6806.5 1.18182
6807.5 2
6808.5 0.181818
6809.5 0
6810.5 1
6811.5 1
6812.5 0
6813.5 1
6814.5 0
6815.5 -0.818182
6816.5 -0.818182
6817.5 1.18182
6818.5 -0.636364
6819.5 -1.63636
6820.5 1
6821.5 0
6822.5 0.363636
6823.5 1
6824.5 0.181818
6825.5 -0.818182
6826.5 0
6827.5 2
6828.5 3
6829.5 -0.636364
6830.5 1
6831.5 0.181818
6832.5 3
6833.5 -0.818182
6834.5 0.181818
6835.5 0
6836.5 -0.818182
6837.5 1
6838.5 1.18182
6839.5 -2.45455
6840.5 0
6841.5 -0.818182
6842.5 1.36364
6843.5 1
6844.5 0.363636
6845.5 1.18182
6846.5 1
6847.5 -0.818182
6848.5 -1.63636
6849.5 0
6850.5 1
6851.5 -0.818182
6852.5 -1.63636
6853.5 1.18182
6854.5 -0.818182
6855.5 1
6856.5 0.363636
6857.5 1
6858.5 0
6859.5 1
6860.5 -0.818182
6861.5 -1.63636
6862.5 0.181818
6863.5 0
6864.5 -1.63636
6865.5 -0.818182
6866.5 0
6867.5 0.181818
6868.5 0.181818
6869.5 0
6870.5 2
6871.5 1
6872.5 0.181818
6873.5 0
6874.5 -0.818182
6875.5 0
6876.5 -0.818182
6877.5 0
6878.5 0
6879.5 0
6880.5 -1.63636
6881.5 0.181818
6882.5 0
6883.5 -0.818182
6884.5 0
6885.5 2
6886.5 1
6887.5 1
6888.5 -1.63636
6889.5 -0.818182
6890.5 -0.818182
6891.5 -0.818182
6892.5 1
6893.5 0
6894.5 0
6895.5 1
6896.5 -1.63636
6897.5 0
6898.5 1
6899.5 2
6900.5 0
6901.5 -0.818182
6902.5 -1.45455
6903.5 0.181818
6904.5 -0.636364
6905.5 0
6906.5 -0.636364
6907.5 -2.45455
6908.5 -1.63636
6909.5 -0.818182
6910.5 3
6911.5 0.181818
6912.5 0
6913.5 1.18182
6914.5 -0.818182
6915.5 4
6916.5 2
6917.5 2
6918.5 1.36364
6919.5 0
6920.5 2.18182
6921.5 -0.454545
6922.5 1
6923.5 -0.818182
6924.5 0
6925.5 -0.818182
6926.5 2
6927.5 -0.818182
6928.5 0
6929.5 0
6930.5 -1.63636
6931.5 0.363636
6932.5 -0.636364
6933.5 -2.90909
6934.5 -5.72727
6935.5 -1.09091
6936.5 -3.27273
6937.5 -1.63636
6938.5 -1.09091
6939.5 1
6940.5 0
6941.5 1.18182
6942.5 3
6943.5 1
6944.5 0
6945.5 -0.818182
6946.5 1
6947.5 2
6948.5 1
6949.5 -0.818182
6950.5 0
6951.5 0
6952.5 2
6953.5 1
6954.5 1
6955.5 2
6956.5 1
6957.5 -0.636364
6958.5 0.181818
6959.5 1
6960.5 0
6961.5 0
6962.5 0
6963.5 -0.818182
6964.5 -0.818182
6965.5 0
6966.5 0
6967.5 4.18182
6968.5 -0.818182
6969.5 0
6970.5 0
6971.5 1
6972.5 -0.818182
6973.5 1
6974.5 0
6975.5 0.363636
6976.5 -0.818182
6977.5 1
6978.5 0
6979.5 1.18182
6980.5 0
6981.5 -0.818182
6982.5 -0.818182
6983.5 1
6984.5 1
6985.5 1
6986.5 0
6987.5 2
6988.5 3.18182
6989.5 -0.818182
6990.5 1
6991.5 0
6992.5 1
6993.5 0
6994.5 0
6995.5 0
6996.5 -1.63636
6997.5 1
6998.5 0
6999.5 0
7000.5 1.18182
7001.5 0
7002.5 1.18182
7003.5 2
7004.5 -0.818182
7005.5 -0.818182
7006.5 -0.818182
7007.5 -0.818182
7008.5 0.181818
7009.5 0
7010.5 1
7011.5 0
7012.5 0
7013.5 1
7014.5 1
7015.5 1
7016.5 1
7017.5 1
7018.5 0
7019.5 -0.636364
7020.5 1
7021.5 0
7022.5 0
7023.5 1
7024.5 0.363636
7025.5 0.181818
7026.5 0
7027.5 0
7028.5 0
7029.5 0
7030.5 0.181818
7031.5 0
7032.5 1
7033.5 1
7034.5 0
7035.5 0
7036.5 0.181818
7037.5 0.181818
7038.5 1
7039.5 -0.818182
7040.5 0.181818
7041.5 1
7042.5 -0.818182
7043.5 1
7044.5 0
7045.5 0
7046.5 1
7047.5 0
7048.5 0.181818
7049.5 0
7050.5 1
7051.5 1
7052.5 3
7053.5 0
7054.5 1
7055.5 0.363636
7056.5 0
7057.5 1.18182
7058.5 1
7059.5 -1.63636
7060.5 0
7061.5 2
7062.5 -0.818182
7063.5 -1.63636
7064.5 2
7065.5 0
7066.5 2
7067.5 0
7068.5 0
7069.5 0
7070.5 2
7071.5 -0.818182
7072.5 0
7073.5 0
7074.5 1
7075.5 0
7076.5 2.18182
7077.5 -0.636364
7078.5 0
7079.5 -0.818182
7080.5 1.36364
7081.5 -0.818182
7082.5 1
7083.5 0
7084.5 0
7085.5 0
7086.5 -1.63636
7087.5 -0.818182
7088.5 -1.63636
7089.5 0
7090.5 0
7091.5 1
7092.5 -0.818182
7093.5 -0.818182
7094.5 0
7095.5 0
7096.5 0
7097.5 -0.818182
7098.5 0.181818
7099.5 0
7100.5 1
7101.5 0
7102.5 -0.818182
7103.5 1
7104.5 1
7105.5 0
7106.5 1.18182
7107.5 -0.818182
7108.5 0
7109.5 0
7110.5 1.18182
7111.5 0.181818
7112.5 0
7113.5 1
7114.5 2
7115.5 1
7116.5 2
7117.5 0
7118.5 -0.818182
7119.5 -0.818182
7120.5 -0.636364
7121.5 0
7122.5 -0.818182
7123.5 1.18182
7124.5 0
7125.5 2
7126.5 -0.818182
7127.5 1
7128.5 0.181818
7129.5 0
7130.5 1.18182
7131.5 -0.818182
7132.5 1.18182
7133.5 0
7134.5 1
7135.5 0
7136.5 1
7137.5 -0.818182
7138.5 0
7139.5 1
7140.5 0
7141.5 1
7142.5 0
7143.5 0.363636
7144.5 0
7145.5 0
7146.5 0
7147.5 -0.818182
7148.5 1
7149.5 0
7150.5 1.18182
7151.5 0
7152.5 1
7153.5 1
7154.5 0
7155.5 1
7156.5 -0.636364
7157.5 1
7158.5 0
7159.5 1
7160.5 0
7161.5 -1.63636
7162.5 -0.818182
7163.5 -0.818182
7164.5 0.181818
7165.5 0
7166.5 0
7167.5 -0.818182
7168.5 0
7169.5 -0.818182
7170.5 0
7171.5 0
7172.5 1
7173.5 1
7174.5 0
7175.5 -0.636364
7176.5 0
7177.5 1
7178.5 0
7179.5 1
7180.5 -0.818182
7181.5 0
7182.5 0.181818
7183.5 0
7184.5 -0.818182
7185.5 0
7186.5 0
7187.5 -0.818182
7188.5 0
7189.5 -0.818182
7190.5 -3.27273
7191.5 2
7192.5 0
7193.5 1
7194.5 0
7195.5 -0.818182
7196.5 0
7197.5 1
7198.5 0
7199.5 0
7200.5 0
7201.5 2
7202.5 2
7203.5 3
7204.5 1
7205.5 2
7206.5 1.18182
7207.5 -0.818182
7208.5 -2.27273
7209.5 0.545455
7210.5 2.36364
7211.5 2.36364
7212.5 0
7213.5 1
7214.5 2
7215.5 1
7216.5 0
7217.5 2
7218.5 0
7219.5 0
7220.5 0
7221.5 0
7222.5 0
7223.5 -0.818182
7224.5 2
7225.5 -0.818182
7226.5 0
7227.5 -0.818182
7228.5 0
7229.5 2
7230.5 1
7231.5 0.181818
7232.5 1
7233.5 -1.63636
7234.5 0
7235.5 0.181818
7236.5 0
7237.5 0
7238.5 0
7239.5 3
7240.5 0
7241.5 1.18182
7242.5 -0.818182
7243.5 0
7244.5 1
7245.5 -1.45455
7246.5 2.18182
7247.5 2
7248.5 2.18182
7249.5 0
7250.5 -0.818182
7251.5 2.18182
7252.5 2
7253.5 2
7254.5 -0.818182
7255.5 1
7256.5 -0.636364
7257.5 2
7258.5 0.181818
7259.5 2
7260.5 1
7261.5 -1.63636
7262.5 -1.27273
7263.5 0.545455
7264.5 3
7265.5 -0.818182
7266.5 1.18182
7267.5 0.181818
7268.5 -0.818182
7269.5 0
7270.5 1
7271.5 -0.818182
7272.5 0
7273.5 1
7274.5 -1.63636
7275.5 0.181818
7276.5 -0.818182
7277.5 -0.818182
7278.5 -0.818182
7279.5 1
7280.5 -1.63636
7281.5 1.18182
7282.5 1
7283.5 -0.818182
7284.5 1
7285.5 0
7286.5 0
7287.5 -0.818182
7288.5 0
7289.5 -1.63636
7290.5 0.181818
7291.5 0.181818
7292.5 1.18182
7293.5 1
7294.5 0
7295.5 1
7296.5 0.363636
7297.5 -0.818182
7298.5 1
7299.5 -1.63636
7300.5 0.181818
7301.5 0
7302.5 2
7303.5 0
7304.5 0
7305.5 0.181818
7306.5 0
7307.5 2
7308.5 0
7309.5 -0.818182
7310.5 1
7311.5 0
7312.5 0
7313.5 0.181818
7314.5 0
7315.5 0
7316.5 2
7317.5 2
7318.5 1
7319.5 -0.818182
7320.5 -0.818182
7321.5 0
7322.5 1
7323.5 1
7324.5 1
7325.5 0
7326.5 0
7327.5 0.181818
7328.5 0
7329.5 0
7330.5 2
7331.5 0
7332.5 -0.636364
7333.5 0
7334.5 1
7335.5 1
7336.5 1
7337.5 -0.818182
7338.5 0
7339.5 0
7340.5 -1.63636
7341.5 -2.45455
7342.5 1
7343.5 0
7344.5 1
7345.5 0
7346.5 0
7347.5 0
7348.5 0.181818
7349.5 1
7350.5 0.363636
7351.5 1.18182
7352.5 0
7353.5 -0.818182
7354.5 1.36364
7355.5 0
7356.5 0
7357.5 0
7358.5 0.181818
7359.5 -0.818182
7360.5 -0.818182
7361.5 0.181818
7362.5 0.181818
7363.5 -0.818182
7364.5 0
7365.5 0
7366.5 0
7367.5 1.18182
7368.5 1
7369.5 0
7370.5 1
7371.5 0
7372.5 0
7373.5 -0.818182
7374.5 0
7375.5 -0.818182
7376.5 -0.818182
7377.5 -0.818182
7378.5 -0.818182
7379.5 0
7380.5 0
7381.5 1
7382.5 1
7383.5 0
7384.5 0
7385.5 2
7386.5 1
7387.5 0
7388.5 0
7389.5 0
7390.5 3
7391.5 0.181818
7392.5 0.181818
7393.5 -0.818182
7394.5 1
7395.5 0
7396.5 0
7397.5 1
7398.5 1.18182
7399.5 0
7400.5 1
7401.5 0.181818
7402.5 -0.818182
7403.5 1
7404.5 0
7405.5 -1.63636
7406.5 0
7407.5 0
7408.5 1
7409.5 2
7410.5 -0.818182
7411.5 0
7412.5 3
7413.5 1
7414.5 1.18182
7415.5 5
7416.5 1
7417.5 2
7418.5 1
7419.5 0
7420.5 0
7421.5 -0.636364
7422.5 2.18182
7423.5 0
7424.5 0
7425.5 1
7426.5 0
7427.5 0
7428.5 -0.818182
7429.5 0
7430.5 0
7431.5 0.181818
7432.5 0
7433.5 0
7434.5 0
7435.5 0
7436.5 0
7437.5 0.181818
7438.5 0
7439.5 2
7440.5 0
7441.5 0
7442.5 0
7443.5 1
7444.5 0
7445.5 -0.818182
7446.5 0
7447.5 0
7448.5 1
7449.5 0
7450.5 0
7451.5 0
7452.5 -0.818182
7453.5 -0.818182
7454.5 -0.818182
7455.5 -0.818182
7456.5 -0.818182
7457.5 0
7458.5 -0.818182
7459.5 0
7460.5 0
7461.5 -0.818182
7462.5 0
7463.5 1
7464.5 -0.818182
7465.5 0
7466.5 -0.818182
7467.5 -0.818182
7468.5 -0.818182
7469.5 0
7470.5 0
7471.5 -0.818182
7472.5 0
7473.5 0
7474.5 0
7475.5 0
7476.5 0.181818
7477.5 1.18182
7478.5 0
7479.5 1
7480.5 -0.818182
7481.5 0
7482.5 -1.63636
7483.5 1
7484.5 0
7485.5 0
7486.5 -0.818182
7487.5 0
7488.5 0.181818
7489.5 0
7490.5 0
7491.5 0
7492.5 -1.63636
7493.5 0
7494.5 1
7495.5 1
7496.5 0
7497.5 1
7498.5 1
7499.5 0.181818
7500.5 1
7501.5 0
7502.5 0
7503.5 -0.818182
7504.5 0
7505.5 0
7506.5 0
7507.5 0
7508.5 2
7509.5 0
7510.5 1
7511.5 0
7512.5 0
7513.5 1
7514.5 0
7515.5 0
7516.5 0
7517.5 -0.818182
7518.5 -0.818182
7519.5 0
7520.5 1
7521.5 0
7522.5 -0.818182
7523.5 0
7524.5 0
7525.5 0
7526.5 0
7527.5 0.181818
7528.5 -0.818182
7529.5 0
7530.5 0
7531.5 0
7532.5 0
7533.5 0
7534.5 0
7535.5 -0.818182
7536.5 0
7537.5 0
7538.5 0
7539.5 -0.818182
7540.5 -0.818182
7541.5 0
7542.5 0
7543.5 1
7544.5 -0.636364
7545.5 0
7546.5 1
7547.5 -0.818182
7548.5 0
7549.5 0.181818
7550.5 0
7551.5 1
7552.5 0
7553.5 0
7554.5 0
7555.5 0
7556.5 0
7557.5 1.18182
7558.5 1
7559.5 -0.818182
7560.5 0
7561.5 1
7562.5 -1.63636
7563.5 0
7564.5 0
7565.5 1
7566.5 0.181818
7567.5 -0.818182
7568.5 0
7569.5 0
7570.5 0
7571.5 0
7572.5 0
7573.5 0
7574.5 -0.818182
7575.5 -0.818182
7576.5 1
7577.5 1
7578.5 0
7579.5 1
7580.5 -0.818182
7581.5 0
7582.5 1
7583.5 0
7584.5 0
7585.5 -0.818182
7586.5 -0.818182
7587.5 0
7588.5 0
7589.5 1
7590.5 0
7591.5 -0.818182
7592.5 0
7593.5 -0.818182
7594.5 1
7595.5 1
7596.5 0
7597.5 -0.818182
7598.5 0
7599.5 0
7600.5 0
7601.5 0
7602.5 1
7603.5 1
7604.5 0
7605.5 2
7606.5 0
7607.5 0
7608.5 0
7609.5 0
7610.5 0
7611.5 0
7612.5 0
7613.5 0
7614.5 0
7615.5 0
7616.5 0
7617.5 1
7618.5 -0.818182
7619.5 -0.818182
7620.5 1
7621.5 0
7622.5 0
7623.5 0
7624.5 0
7625.5 -1.63636
7626.5 0
7627.5 0.181818
7628.5 -0.636364
7629.5 -2.45455
7630.5 0
7631.5 0.181818
7632.5 0
7633.5 0
7634.5 0
7635.5 0
7636.5 -0.818182
7637.5 0
7638.5 0
7639.5 -0.818182
7640.5 1
7641.5 0.181818
7642.5 -0.818182
7643.5 1
7644.5 -0.818182
7645.5 1
7646.5 1
7647.5 0
7648.5 1
7649.5 1
7650.5 0
7651.5 1
7652.5 0
7653.5 0
7654.5 1
7655.5 1
7656.5 1
7657.5 1
7658.5 1
7659.5 -0.818182
7660.5 0
7661.5 -1.63636
7662.5 0
7663.5 1
7664.5 0
7665.5 0
7666.5 -0.636364
7667.5 0
7668.5 0
7669.5 0
7670.5 0.181818
7671.5 1
7672.5 0
7673.5 0
7674.5 0
7675.5 -0.818182
7676.5 0
7677.5 0
7678.5 -0.818182
7679.5 -0.818182
7680.5 0
7681.5 1
7682.5 0
7683.5 1
7684.5 -0.818182
7685.5 -0.818182
7686.5 1
7687.5 0
7688.5 0
7689.5 0
7690.5 1
7691.5 0
7692.5 -1.63636
7693.5 -0.818182
7694.5 0.181818
7695.5 -0.818182
7696.5 0
7697.5 0
7698.5 -0.818182
7699.5 -0.818182
7700.5 0.181818
7701.5 1
7702.5 1
7703.5 0
7704.5 0
7705.5 0
7706.5 0
7707.5 -0.818182
7708.5 2
7709.5 0
7710.5 3
7711.5 1
7712.5 0
7713.5 0
7714.5 0
7715.5 -0.818182
7716.5 0.181818
7717.5 0
7718.5 0
7719.5 -0.818182
7720.5 0
7721.5 0.181818
7722.5 1
7723.5 0
7724.5 0
7725.5 0
7726.5 1
7727.5 -1.63636
7728.5 0
7729.5 0.181818
7730.5 1
7731.5 0
7732.5 0
7733.5 0.181818
7734.5 0.181818
7735.5 -0.818182
7736.5 -0.818182
7737.5 -0.818182
7738.5 0
7739.5 0
7740.5 0
7741.5 0
7742.5 0
7743.5 0
7744.5 0
7745.5 0
7746.5 2
7747.5 0
7748.5 0
7749.5 1
7750.5 0
7751.5 -0.818182
7752.5 -0.818182
7753.5 0
7754.5 0
7755.5 -0.818182
7756.5 0
7757.5 1
7758.5 0
7759.5 0
7760.5 0
7761.5 3
7762.5 0
7763.5 0.181818
7764.5 0
7765.5 0
7766.5 1
7767.5 1
7768.5 0
7769.5 3
7770.5 0
7771.5 -1.09091
7772.5 -0.818182
7773.5 2
7774.5 1.18182
7775.5 -0.818182
7776.5 -0.636364
7777.5 0.181818
7778.5 -0.818182
7779.5 1
7780.5 0
7781.5 1
7782.5 -0.818182
7783.5 0
7784.5 0
7785.5 0.181818
7786.5 1
7787.5 0
7788.5 1
7789.5 0
7790.5 1
7791.5 3
7792.5 1.36364
7793.5 1
7794.5 0
7795.5 0
7796.5 0
7797.5 1
7798.5 0
7799.5 0
7800.5 -0.818182
7801.5 0
7802.5 0
7803.5 0
7804.5 -0.818182
7805.5 0
7806.5 1
7807.5 0
7808.5 -0.818182
7809.5 -0.818182
7810.5 0
7811.5 0
7812.5 0
7813.5 0
7814.5 0.181818
7815.5 0
7816.5 0
7817.5 0
7818.5 2.18182
7819.5 0
7820.5 0
7821.5 1
7822.5 1
7823.5 1
7824.5 -0.818182
7825.5 1
7826.5 -0.818182
7827.5 0.181818
7828.5 2
7829.5 0
7830.5 0.181818
7831.5 0
7832.5 2
7833.5 -0.818182
7834.5 0
7835.5 0
7836.5 1
7837.5 1
7838.5 0
7839.5 0
7840.5 3
7841.5 0
7842.5 0
7843.5 0
7844.5 1
7845.5 0
7846.5 0
7847.5 -0.818182
7848.5 0
7849.5 1
7850.5 1
7851.5 0
7852.5 0
7853.5 0
7854.5 0
7855.5 0
7856.5 0
7857.5 0
7858.5 0
7859.5 0
7860.5 0
7861.5 0
7862.5 1
7863.5 0
7864.5 0
7865.5 0
7866.5 0
7867.5 0
7868.5 0
7869.5 0
7870.5 -1.63636
7871.5 0
7872.5 0
7873.5 -0.818182
7874.5 0
7875.5 1
7876.5 0
7877.5 -0.818182
7878.5 1
7879.5 0
7880.5 0
7881.5 0
7882.5 0
7883.5 0
7884.5 0
7885.5 -0.818182
7886.5 0
7887.5 1
7888.5 -1.63636
7889.5 1
7890.5 0
7891.5 0
7892.5 0
7893.5 0
7894.5 0
7895.5 0
7896.5 -0.818182
7897.5 0
7898.5 0
7899.5 0.181818
7900.5 1
7901.5 1
7902.5 0
7903.5 0
7904.5 0
7905.5 0
7906.5 -1.63636
7907.5 1
7908.5 0
7909.5 -0.818182
7910.5 0
7911.5 -0.818182
7912.5 1
7913.5 -0.818182
7914.5 -0.818182
7915.5 3
7916.5 0
7917.5 0
7918.5 0.181818
7919.5 0
7920.5 -0.818182
7921.5 0
7922.5 0
7923.5 0
7924.5 0
7925.5 -0.818182
7926.5 -0.818182
7927.5 0.181818
7928.5 1
7929.5 0
7930.5 0
7931.5 1
7932.5 -0.818182
7933.5 0
7934.5 0
7935.5 0
7936.5 1
7937.5 0
7938.5 0
7939.5 0
7940.5 0
7941.5 0
7942.5 0
7943.5 0
7944.5 0.181818
7945.5 0
7946.5 0
7947.5 0
7948.5 -0.818182
7949.5 0
7950.5 0
7951.5 0
7952.5 0
7953.5 0
7954.5 0
7955.5 0
7956.5 1
7957.5 1
7958.5 0
7959.5 -0.818182
7960.5 0
7961.5 1
7962.5 0
7963.5 0
7964.5 0
7965.5 2
7966.5 -0.818182
7967.5 0
7968.5 -0.818182
7969.5 0
7970.5 0
7971.5 0
7972.5 0
7973.5 0
7974.5 0
7975.5 -0.818182
7976.5 0
7977.5 0
7978.5 0
7979.5 -0.818182
7980.5 -0.818182
7981.5 0
7982.5 0
7983.5 0
7984.5 0
7985.5 0
7986.5 0
7987.5 0
7988.5 1
7989.5 0
7990.5 0
7991.5 0
7992.5 0
7993.5 0
7994.5 0
7995.5 -1.63636
7996.5 0
7997.5 -0.818182
7998.5 0
7999.5 2.18182
8000.5 0
8001.5 0
8002.5 -0.818182
8003.5 -0.818182
8004.5 0
8005.5 0
8006.5 0.181818
8007.5 0
8008.5 0
8009.5 0
8010.5 0
8011.5 0
8012.5 0
8013.5 0
8014.5 0
8015.5 0
8016.5 -0.818182
8017.5 0
8018.5 0
8019.5 1
8020.5 0
8021.5 0
8022.5 0
8023.5 1
8024.5 1
8025.5 0
8026.5 0
8027.5 1
8028.5 -1.63636
8029.5 0
8030.5 1
8031.5 -0.818182
8032.5 0
8033.5 0
8034.5 1
8035.5 0
8036.5 -0.818182
8037.5 0
8038.5 0
8039.5 0
8040.5 -0.818182
8041.5 0
8042.5 -0.818182
8043.5 0
8044.5 0
8045.5 0
8046.5 0
8047.5 -0.818182
8048.5 0
8049.5 1
8050.5 0
8051.5 0
8052.5 0
8053.5 0
8054.5 2
8055.5 -0.818182
8056.5 0
8057.5 0
8058.5 0
8059.5 0
8060.5 0
8061.5 1
8062.5 0
8063.5 -0.818182
8064.5 0
8065.5 1
8066.5 -0.818182
8067.5 0
8068.5 0.181818
8069.5 0
8070.5 0
8071.5 0
8072.5 1
8073.5 1
8074.5 0
8075.5 0
8076.5 0
8077.5 1
8078.5 0.181818
8079.5 1
8080.5 -0.818182
8081.5 0.181818
8082.5 0
8083.5 3
8084.5 3.18182
8085.5 0.181818
8086.5 0
8087.5 0.181818
8088.5 1
8089.5 0
8090.5 0
8091.5 1
8092.5 -0.818182
8093.5 0
8094.5 1
8095.5 -0.818182
8096.5 0
8097.5 0
8098.5 0
8099.5 -0.818182
8100.5 0
8101.5 0
8102.5 0
8103.5 0
8104.5 0
8105.5 0
8106.5 0
8107.5 0
8108.5 0
8109.5 0
8110.5 0
8111.5 0
8112.5 0
8113.5 0
8114.5 0
8115.5 1
8116.5 -0.818182
8117.5 0
8118.5 0
8119.5 0
8120.5 0
8121.5 0
8122.5 1
8123.5 0
8124.5 0
8125.5 0
8126.5 0
8127.5 0
8128.5 0
8129.5 0
8130.5 -0.818182
8131.5 0
8132.5 0
8133.5 -0.818182
8134.5 0
8135.5 0
8136.5 0
8137.5 0
8138.5 0
8139.5 0
8140.5 -1.63636
8141.5 0
8142.5 0
8143.5 0
8144.5 0
8145.5 1
8146.5 0
8147.5 0
8148.5 0
8149.5 0
8150.5 0
8151.5 -0.818182
8152.5 0
8153.5 0
8154.5 0
8155.5 1
8156.5 1
8157.5 -0.818182
8158.5 0
8159.5 0
8160.5 0
8161.5 0
8162.5 0
8163.5 0
8164.5 0
8165.5 0
8166.5 0
8167.5 0
8168.5 0
8169.5 0
8170.5 1
8171.5 0
8172.5 1
8173.5 1
8174.5 -0.818182
8175.5 0
8176.5 0
8177.5 0
8178.5 0
8179.5 1
8180.5 0
8181.5 0
8182.5 0
8183.5 0
8184.5 0
8185.5 0
8186.5 0
8187.5 0.181818
8188.5 0
8189.5 1
8190.5 0
8191.5 0
8192.5 0
8193.5 0
8194.5 0
8195.5 0.181818
8196.5 0
8197.5 0
8198.5 1
8199.5 0
8200.5 0
8201.5 0
8202.5 0
8203.5 -0.818182
8204.5 0
8205.5 0
8206.5 0
8207.5 0
8208.5 0
8209.5 -0.818182
8210.5 0
8211.5 0
8212.5 1
8213.5 0
8214.5 0
8215.5 -0.818182
8216.5 1
8217.5 0
8218.5 1
8219.5 0
8220.5 -0.818182
8221.5 0
8222.5 1
8223.5 0
8224.5 0
8225.5 0
8226.5 0
8227.5 0
8228.5 0
8229.5 0
8230.5 0
8231.5 0
8232.5 -0.818182
8233.5 0
8234.5 0
8235.5 0
8236.5 0.181818
8237.5 1
8238.5 0
8239.5 0
8240.5 0
8241.5 1
8242.5 0
8243.5 -1.63636
8244.5 -0.818182
8245.5 0
8246.5 0
8247.5 0
8248.5 0
8249.5 0.181818
8250.5 0
8251.5 0
8252.5 1
8253.5 0
8254.5 0
8255.5 0
8256.5 0
8257.5 0
8258.5 0
8259.5 0
8260.5 0
8261.5 -0.818182
8262.5 0
8263.5 0
8264.5 0
8265.5 0
8266.5 -0.818182
8267.5 1
8268.5 0
8269.5 1
8270.5 1
8271.5 -0.818182
8272.5 0
8273.5 0
8274.5 -0.818182
8275.5 0
8276.5 0
8277.5 0
8278.5 -0.818182
8279.5 0
8280.5 1
8281.5 0
8282.5 0
8283.5 0
8284.5 0
8285.5 0
8286.5 -0.818182
8287.5 0
8288.5 0
8289.5 0
8290.5 0
8291.5 0
8292.5 0
8293.5 0
8294.5 0
8295.5 0
8296.5 -0.818182
8297.5 0
8298.5 0
8299.5 0
8300.5 0
8301.5 0
8302.5 -0.818182
8303.5 0
8304.5 1
8305.5 -1.63636
8306.5 0
8307.5 0
8308.5 0
8309.5 0
8310.5 0
8311.5 0
8312.5 0
8313.5 0
8314.5 0
8315.5 -0.818182
8316.5 0
8317.5 -0.818182
8318.5 0
8319.5 1
8320.5 0
8321.5 -0.818182
8322.5 0
8323.5 0
8324.5 0
8325.5 0
8326.5 0
8327.5 0
8328.5 0
8329.5 0
8330.5 0.181818
8331.5 0
8332.5 -0.818182
8333.5 0
8334.5 0
8335.5 0
8336.5 -0.818182
8337.5 0
8338.5 1
8339.5 0
8340.5 0
8341.5 -0.818182
8342.5 0
8343.5 0
8344.5 0
8345.5 0
8346.5 0
8347.5 1
8348.5 0
8349.5 0
8350.5 2
8351.5 0
8352.5 0
8353.5 0
8354.5 1
8355.5 0
8356.5 0
8357.5 0
8358.5 0
8359.5 -0.818182
8360.5 0
8361.5 0
8362.5 0
8363.5 0
8364.5 1
8365.5 1
8366.5 0
8367.5 0
8368.5 0
8369.5 0
8370.5 0.181818
8371.5 -0.818182
8372.5 1
8373.5 -0.818182
8374.5 0
8375.5 1
8376.5 0
8377.5 0
8378.5 0
8379.5 0
8380.5 0
8381.5 0
8382.5 0
8383.5 0
8384.5 0
8385.5 1
8386.5 0
8387.5 0
8388.5 0
8389.5 0
8390.5 0
8391.5 0
8392.5 0
8393.5 0
8394.5 0
8395.5 0
8396.5 0
8397.5 -0.818182
8398.5 0
8399.5 -0.818182
8400.5 0
8401.5 1
8402.5 0
8403.5 0
8404.5 -0.818182
8405.5 0
8406.5 0
8407.5 0
8408.5 0
8409.5 0
8410.5 0
8411.5 1
8412.5 0
8413.5 0
8414.5 0
8415.5 0
8416.5 0
8417.5 0
8418.5 0
8419.5 0
8420.5 -0.818182
8421.5 -0.818182
8422.5 0
8423.5 0
8424.5 0
8425.5 0
8426.5 0
8427.5 0
8428.5 -0.818182
8429.5 0
8430.5 1
8431.5 0
8432.5 0
8433.5 0
8434.5 0
8435.5 0
8436.5 0
8437.5 0
8438.5 0
8439.5 0
8440.5 0
8441.5 0
8442.5 1
8443.5 0
8444.5 0
8445.5 0
8446.5 -1.63636
8447.5 0
8448.5 0
8449.5 0
8450.5 0
8451.5 0
8452.5 0
8453.5 -0.818182
8454.5 0
8455.5 0
8456.5 -0.818182
8457.5 0
8458.5 0
8459.5 0
8460.5 -0.818182
8461.5 0
8462.5 0
8463.5 1
8464.5 -0.818182
8465.5 0
8466.5 0
8467.5 0
8468.5 1
8469.5 0
8470.5 -0.818182
8471.5 0
8472.5 0
8473.5 0
8474.5 0
8475.5 0
8476.5 0
8477.5 0
8478.5 0
8479.5 0
8480.5 0
8481.5 -0.818182
8482.5 1
8483.5 1
8484.5 1
8485.5 0
8486.5 0
8487.5 1
8488.5 1
8489.5 0
8490.5 0
8491.5 0
8492.5 0
8493.5 0
8494.5 0
8495.5 0
8496.5 -0.818182
8497.5 0
8498.5 0
8499.5 0
8500.5 0
8501.5 0
8502.5 0
8503.5 0
8504.5 0
8505.5 0
8506.5 1
8507.5 0
8508.5 0
8509.5 0
8510.5 0
8511.5 0
8512.5 0
8513.5 1
8514.5 1
8515.5 0
8516.5 0
8517.5 0
8518.5 0
8519.5 0
8520.5 0
8521.5 0
8522.5 0
8523.5 1
8524.5 0
8525.5 0
8526.5 -0.818182
8527.5 1
8528.5 0.181818
8529.5 0
8530.5 0
8531.5 0
8532.5 0
8533.5 0
8534.5 0
8535.5 0
8536.5 0
8537.5 0
8538.5 0
8539.5 0
8540.5 0
8541.5 0
8542.5 0
8543.5 0
8544.5 0
8545.5 0
8546.5 0
8547.5 0
8548.5 1
8549.5 0
8550.5 1
8551.5 -0.818182
8552.5 0
8553.5 0
8554.5 0
8555.5 0
8556.5 -0.818182
8557.5 0
8558.5 0
8559.5 0
8560.5 0
8561.5 0
8562.5 1
8563.5 2
8564.5 0
8565.5 0
8566.5 0
8567.5 -0.818182
8568.5 0
8569.5 2
8570.5 0
8571.5 1
8572.5 0
8573.5 0
8574.5 1
8575.5 0
8576.5 0
8577.5 0
8578.5 0
8579.5 0
8580.5 0
8581.5 0
8582.5 0
8583.5 -0.818182
8584.5 0
8585.5 0
8586.5 1
8587.5 0
8588.5 0
8589.5 0
8590.5 0
8591.5 0
8592.5 0
8593.5 0
8594.5 0
8595.5 0
8596.5 0
8597.5 0
8598.5 0
8599.5 0
8600.5 0
8601.5 -0.818182
8602.5 0
8603.5 -0.818182
8604.5 0.181818
8605.5 0
8606.5 1
8607.5 0
8608.5 0
8609.5 0
8610.5 0
8611.5 0
8612.5 0
8613.5 0
8614.5 0
8615.5 0
8616.5 0
8617.5 0
8618.5 0
8619.5 0
8620.5 0
8621.5 1
8622.5 1
8623.5 0.181818
8624.5 0
8625.5 0
8626.5 0
8627.5 0
8628.5 1
8629.5 0
8630.5 0
8631.5 0
8632.5 0
8633.5 0
8634.5 0
8635.5 1
8636.5 -0.818182
8637.5 0
8638.5 0
8639.5 0
8640.5 0
8641.5 0
8642.5 0
8643.5 0
8644.5 0
8645.5 0
8646.5 0
8647.5 1
8648.5 -0.818182
8649.5 1
8650.5 0
8651.5 0
8652.5 1
8653.5 1
8654.5 0
8655.5 1
8656.5 0
8657.5 0
8658.5 2
8659.5 0
8660.5 0
8661.5 0
8662.5 0
8663.5 0
8664.5 0
8665.5 0
8666.5 0
8667.5 0
8668.5 0
8669.5 0
8670.5 0
8671.5 0
8672.5 0
8673.5 1
8674.5 2
8675.5 0
8676.5 0
8677.5 0
8678.5 0
8679.5 0
8680.5 0
8681.5 0
8682.5 2
8683.5 0
8684.5 0
8685.5 0
8686.5 1
8687.5 0
8688.5 1
8689.5 0
8690.5 0
8691.5 0
8692.5 0
8693.5 0
8694.5 0
8695.5 0
8696.5 0
8697.5 0
8698.5 0
8699.5 0
8700.5 0
8701.5 0
8702.5 0
8703.5 0
8704.5 -0.818182
8705.5 0
8706.5 0
8707.5 0
8708.5 0
8709.5 -0.818182
8710.5 0
8711.5 0
8712.5 -0.818182
8713.5 0
8714.5 0
8715.5 0
8716.5 0
8717.5 0
8718.5 0
8719.5 0
8720.5 0
8721.5 0
8722.5 0
8723.5 0
8724.5 0
8725.5 0
8726.5 0
8727.5 0
8728.5 0
8729.5 0
8730.5 0
8731.5 1
8732.5 1
8733.5 1
8734.5 1
8735.5 0
8736.5 0
8737.5 0
8738.5 0
8739.5 0
8740.5 0
8741.5 0
8742.5 0
8743.5 0
8744.5 1
8745.5 0
8746.5 1
8747.5 0
8748.5 1
8749.5 0
8750.5 0
8751.5 1
8752.5 0
8753.5 0
8754.5 -0.818182
8755.5 0
8756.5 -0.818182
8757.5 0
8758.5 0
8759.5 0
8760.5 0
8761.5 1
8762.5 0
8763.5 0
8764.5 0
8765.5 -0.818182
8766.5 -1.63636
8767.5 0
8768.5 -0.818182
8769.5 0
8770.5 1
8771.5 0
8772.5 0
8773.5 0
8774.5 0
8775.5 0
8776.5 0
8777.5 -0.818182
8778.5 0
8779.5 1
8780.5 0
8781.5 0
8782.5 0
8783.5 2
8784.5 -0.818182
8785.5 -0.818182
8786.5 0
8787.5 0
8788.5 0
8789.5 0
8790.5 0
8791.5 1
8792.5 0
8793.5 0
8794.5 0
8795.5 0.181818
8796.5 0
8797.5 0
8798.5 0
8799.5 1
8800.5 0
8801.5 0
8802.5 -0.818182
8803.5 0
8804.5 0
8805.5 -0.818182
8806.5 0
8807.5 0.181818
8808.5 0
8809.5 2
8810.5 0
8811.5 0
8812.5 0
8813.5 0
8814.5 1
8815.5 1
8816.5 0
8817.5 0
8818.5 0
8819.5 0
8820.5 1
8821.5 1
8822.5 0
8823.5 0
8824.5 0
8825.5 0
8826.5 0
8827.5 0
8828.5 0
8829.5 0
8830.5 1
8831.5 0
8832.5 0
8833.5 0
8834.5 0
8835.5 0
8836.5 0
8837.5 0
8838.5 0
8839.5 0
8840.5 0
8841.5 -1.63636
8842.5 0
8843.5 1
8844.5 0.181818
8845.5 0
8846.5 0
8847.5 1
8848.5 0
8849.5 -0.818182
8850.5 0
8851.5 0
8852.5 0
8853.5 0
8854.5 0
8855.5 1
8856.5 -0.818182
8857.5 0
8858.5 0
8859.5 0
8860.5 0
8861.5 0
8862.5 -0.818182
8863.5 0
8864.5 -0.818182
8865.5 0
8866.5 0
8867.5 0
8868.5 0
8869.5 0
8870.5 0
8871.5 0
8872.5 0
8873.5 0
8874.5 0
8875.5 0
8876.5 0
8877.5 0
8878.5 0
8879.5 0
8880.5 0
8881.5 0
8882.5 0
8883.5 0
8884.5 1
8885.5 0
8886.5 0
8887.5 0
8888.5 0
8889.5 0
8890.5 0
8891.5 1
8892.5 0
8893.5 0
8894.5 0
8895.5 0
8896.5 0
8897.5 0
8898.5 0
8899.5 1
8900.5 0
8901.5 0
8902.5 0
8903.5 1
8904.5 1
8905.5 0
8906.5 0
8907.5 0
8908.5 0
8909.5 0
8910.5 1
8911.5 -0.818182
8912.5 0
8913.5 0
8914.5 0
8915.5 0
8916.5 0
8917.5 0
8918.5 1
8919.5 0
8920.5 0
8921.5 0
8922.5 0
8923.5 0
8924.5 0
8925.5 0
8926.5 0
8927.5 0
8928.5 0
8929.5 0
8930.5 0
8931.5 0
8932.5 0
8933.5 0
8934.5 1
8935.5 1
8936.5 1
8937.5 0
8938.5 0
8939.5 0
8940.5 0
8941.5 0
8942.5 0
8943.5 0
8944.5 0
8945.5 0
8946.5 0
8947.5 1
8948.5 0
8949.5 -0.818182
8950.5 0
8951.5 0
8952.5 0
8953.5 0
8954.5 0
8955.5 0
8956.5 0
8957.5 -0.818182
8958.5 1
8959.5 0
8960.5 0
8961.5 0
8962.5 -0.818182
8963.5 0
8964.5 0
8965.5 0
8966.5 2
8967.5 1
8968.5 0
8969.5 0
8970.5 0
8971.5 0
8972.5 0
8973.5 1
8974.5 0
8975.5 0
8976.5 0.181818
8977.5 0
8978.5 0
8979.5 0
8980.5 0
8981.5 0
8982.5 0
8983.5 0
8984.5 0
8985.5 0
8986.5 0
8987.5 -0.818182
8988.5 0
8989.5 0
8990.5 0
8991.5 0
8992.5 0
8993.5 0
8994.5 -0.818182
8995.5 -0.818182
8996.5 0
8997.5 0
8998.5 0
8999.5 0.181818
9000.5 1
9001.5 0
9002.5 0
9003.5 0
9004.5 0
9005.5 0
9006.5 1
9007.5 -0.818182
9008.5 0
9009.5 0
9010.5 0
9011.5 0
9012.5 1
9013.5 0
9014.5 0
9015.5 0
9016.5 0
9017.5 0
9018.5 1
9019.5 0
9020.5 0
9021.5 0
9022.5 0
9023.5 0
9024.5 0
9025.5 0
9026.5 0
9027.5 0
9028.5 0
9029.5 0
9030.5 0
9031.5 0
9032.5 0
9033.5 1
9034.5 0
9035.5 0
9036.5 0
9037.5 0
9038.5 0
9039.5 0
9040.5 0
9041.5 0
9042.5 -0.818182
9043.5 1
9044.5 1
9045.5 0
9046.5 0
9047.5 0
9048.5 0
9049.5 0
9050.5 0
9051.5 0
9052.5 0
9053.5 0
9054.5 0
9055.5 0
9056.5 0
9057.5 0
9058.5 0
9059.5 0
9060.5 -0.818182
9061.5 0
9062.5 0
9063.5 -0.818182
9064.5 0
9065.5 0
9066.5 0
9067.5 1
9068.5 0
9069.5 0
9070.5 -0.818182
9071.5 0
9072.5 1
9073.5 0
9074.5 0
9075.5 1
9076.5 0
9077.5 0
9078.5 1
9079.5 1
9080.5 1
9081.5 -1.63636
9082.5 0
9083.5 0
9084.5 0
9085.5 0
9086.5 0
9087.5 0
9088.5 0
9089.5 0
9090.5 0
9091.5 0
9092.5 0
9093.5 0
9094.5 0
9095.5 0
9096.5 0
9097.5 -0.818182
9098.5 0
9099.5 0
9100.5 0
9101.5 0
9102.5 0
9103.5 0
9104.5 0
9105.5 0
9106.5 0
9107.5 0
9108.5 0
9109.5 0
9110.5 0
9111.5 0
9112.5 0
9113.5 0
9114.5 0
9115.5 0
9116.5 0
9117.5 0
9118.5 0
9119.5 -0.818182
9120.5 0
9121.5 1
9122.5 0
9123.5 1
9124.5 0
9125.5 0
9126.5 0
9127.5 0
9128.5 -0.818182
9129.5 0
9130.5 0
9131.5 0
9132.5 0
9133.5 0
9134.5 0
9135.5 -0.818182
9136.5 0
9137.5 0
9138.5 0
9139.5 0
9140.5 0
9141.5 0
9142.5 0
9143.5 0
9144.5 0
9145.5 0
9146.5 0
9147.5 0
9148.5 0
9149.5 -1.63636
9150.5 0
9151.5 0
9152.5 0
9153.5 0
9154.5 0
9155.5 0
9156.5 0
9157.5 0
9158.5 0
9159.5 0
9160.5 0
9161.5 0
9162.5 0
9163.5 0
9164.5 0
9165.5 0
9166.5 0
9167.5 0
9168.5 0
9169.5 0
9170.5 0.181818
9171.5 0
9172.5 0
9173.5 0
9174.5 0
9175.5 0
9176.5 0
9177.5 0
9178.5 0
9179.5 0
9180.5 0
9181.5 0
9182.5 -0.818182
9183.5 0
9184.5 0
9185.5 0
9186.5 0
9187.5 0
9188.5 1
9189.5 0
9190.5 0
9191.5 0
9192.5 0
9193.5 0
9194.5 0
9195.5 1
9196.5 0
9197.5 0
9198.5 0
9199.5 0
9200.5 -0.818182
9201.5 0
9202.5 0
9203.5 0
9204.5 0
9205.5 0
9206.5 -0.818182
9207.5 2
9208.5 0
9209.5 0.181818
9210.5 0
9211.5 0
9212.5 0
9213.5 0
9214.5 0
9215.5 0
9216.5 -0.818182
9217.5 0
9218.5 0
9219.5 0
9220.5 0
9221.5 0
9222.5 0
9223.5 -0.818182
9224.5 0
9225.5 -0.818182
9226.5 0
9227.5 0
9228.5 0
9229.5 0
9230.5 0
9231.5 0
9232.5 0
9233.5 0
9234.5 0
9235.5 0
9236.5 0
9237.5 0
9238.5 0
9239.5 0
9240.5 1
9241.5 0
9242.5 1
9243.5 0
9244.5 0
9245.5 0
9246.5 0
9247.5 0
9248.5 0
9249.5 1
9250.5 0
9251.5 0
9252.5 0
9253.5 0
9254.5 0
9255.5 0
9256.5 0
9257.5 0
9258.5 0
9259.5 0
9260.5 1
9261.5 0
9262.5 0
9263.5 0
9264.5 0
9265.5 -0.818182
9266.5 0
9267.5 0
9268.5 -0.818182
9269.5 0
9270.5 0
9271.5 0
9272.5 0
9273.5 0
9274.5 0
9275.5 0
9276.5 0
9277.5 0
9278.5 0
9279.5 0
9280.5 0
9281.5 0
9282.5 0
9283.5 0
9284.5 0
9285.5 0
9286.5 0
9287.5 0
9288.5 1
9289.5 0
9290.5 1
9291.5 0
9292.5 -0.818182
9293.5 0
9294.5 1
9295.5 0
9296.5 1
9297.5 0
9298.5 0
9299.5 0
9300.5 0
9301.5 0
9302.5 0
9303.5 0
9304.5 1
9305.5 0
9306.5 0
9307.5 0
9308.5 -0.818182
9309.5 0
9310.5 0
9311.5 0
9312.5 -0.818182
9313.5 0
9314.5 0
9315.5 0
9316.5 0
9317.5 0
9318.5 -0.818182
9319.5 0
9320.5 0
9321.5 0
9322.5 0
9323.5 0
9324.5 0
9325.5 0
9326.5 0
9327.5 1
9328.5 0
9329.5 0
9330.5 0
9331.5 0
9332.5 0
9333.5 1
9334.5 0
9335.5 0
9336.5 0
9337.5 0
9338.5 0
9339.5 0
9340.5 1
9341.5 0
9342.5 0
9343.5 0
9344.5 0
9345.5 0
9346.5 1
9347.5 1
9348.5 0
9349.5 0
9350.5 0
9351.5 -0.818182
9352.5 -0.818182
9353.5 0
9354.5 0
9355.5 0
9356.5 0
9357.5 -0.818182
9358.5 -0.818182
9359.5 -0.818182
9360.5 0
9361.5 1
9362.5 0
9363.5 0
9364.5 0
9365.5 0
9366.5 0
9367.5 0
9368.5 0
9369.5 0
9370.5 0
9371.5 0
9372.5 0
9373.5 0
9374.5 0
9375.5 0
9376.5 2
9377.5 0
9378.5 0
9379.5 0
9380.5 0
9381.5 0
9382.5 0
9383.5 0
9384.5 0
9385.5 0
9386.5 0
9387.5 0
9388.5 0
9389.5 0
9390.5 0
9391.5 0
9392.5 -0.818182
9393.5 0
9394.5 -0.818182
9395.5 0
9396.5 -0.818182
9397.5 0
9398.5 0
9399.5 0
9400.5 0
9401.5 0
9402.5 0
9403.5 1
9404.5 1
9405.5 0
9406.5 0
9407.5 1
9408.5 0
9409.5 0
9410.5 0
9411.5 1
9412.5 0.181818
9413.5 0
9414.5 0
9415.5 0
9416.5 0
9417.5 0
9418.5 0
9419.5 0
9420.5 -0.818182
9421.5 0
9422.5 0
9423.5 0
9424.5 0
9425.5 0
9426.5 0
9427.5 -0.818182
9428.5 0
9429.5 0.181818
9430.5 0
9431.5 0
9432.5 0
9433.5 0.181818
9434.5 0
9435.5 0
9436.5 0
9437.5 0
9438.5 0
9439.5 0
9440.5 -0.818182
9441.5 0
9442.5 0
9443.5 0
9444.5 0
9445.5 0
9446.5 0
9447.5 0
9448.5 -0.818182
9449.5 0
9450.5 0
9451.5 0
9452.5 0
9453.5 0
9454.5 0
9455.5 0
9456.5 0
9457.5 1
9458.5 0
9459.5 0
9460.5 0
9461.5 0
9462.5 0
9463.5 0
9464.5 0
9465.5 0
9466.5 0
9467.5 0
9468.5 0
9469.5 0
9470.5 0
9471.5 0
9472.5 0
9473.5 0
9474.5 0
9475.5 0
9476.5 0
9477.5 0
9478.5 0
9479.5 0
9480.5 0
9481.5 0
9482.5 0
9483.5 0
9484.5 0
9485.5 0
9486.5 0
9487.5 0
9488.5 1
9489.5 0
9490.5 0
9491.5 1
9492.5 0
9493.5 0
9494.5 0
9495.5 -0.818182
9496.5 0
9497.5 0
9498.5 0
9499.5 0
9500.5 0
9501.5 -0.818182
9502.5 0
9503.5 0
9504.5 0
9505.5 0
9506.5 0
9507.5 0
9508.5 0
9509.5 0
9510.5 0
9511.5 0
9512.5 0
9513.5 0
9514.5 0
9515.5 0
9516.5 -1.63636
9517.5 1
9518.5 0
9519.5 0
9520.5 0
9521.5 0
9522.5 0
9523.5 -0.818182
9524.5 0
9525.5 0
9526.5 0
9527.5 0
9528.5 0
9529.5 0
9530.5 -0.818182
9531.5 0
9532.5 0
9533.5 0
9534.5 0
9535.5 1
9536.5 0
9537.5 0
9538.5 -0.818182
9539.5 0
9540.5 0
9541.5 0
9542.5 0
9543.5 0
9544.5 0
9545.5 0
9546.5 0
9547.5 0
9548.5 0
9549.5 0
9550.5 0
9551.5 0
9552.5 -0.818182
9553.5 0
9554.5 0
9555.5 0
9556.5 0
9557.5 0
9558.5 0
9559.5 0
9560.5 0
9561.5 0
9562.5 0
9563.5 0
9564.5 0
9565.5 0
9566.5 0
9567.5 0
9568.5 0
9569.5 0
9570.5 0
9571.5 0
9572.5 0
9573.5 0
9574.5 0
9575.5 0
9576.5 0
9577.5 0
9578.5 0
9579.5 0
9580.5 0
9581.5 1
9582.5 0
9583.5 1
9584.5 0
9585.5 0
9586.5 0
9587.5 -0.818182
9588.5 0
9589.5 0
9590.5 0
9591.5 1
9592.5 0
9593.5 0
9594.5 0
9595.5 0
9596.5 0
9597.5 0
9598.5 0
9599.5 1
9600.5 0
9601.5 0
9602.5 0
9603.5 0
9604.5 0
9605.5 0
9606.5 0
9607.5 1
9608.5 0
9609.5 0
9610.5 0
9611.5 0
9612.5 0
9613.5 0
9614.5 0
9615.5 0
9616.5 0
9617.5 0
9618.5 0
9619.5 0
9620.5 0
9621.5 0
9622.5 0
9623.5 0
9624.5 0
9625.5 0
9626.5 0
9627.5 0
9628.5 0
9629.5 0
9630.5 0
9631.5 0
9632.5 0
9633.5 0
9634.5 0
9635.5 0
9636.5 0
9637.5 0
9638.5 0
9639.5 0
9640.5 0
9641.5 0
9642.5 0
9643.5 0
9644.5 0
9645.5 0
9646.5 0
9647.5 0
9648.5 0
9649.5 0
9650.5 0
9651.5 0
9652.5 1
9653.5 0
9654.5 0
9655.5 0
9656.5 0
9657.5 1
9658.5 0
9659.5 0
9660.5 0
9661.5 0
9662.5 0
9663.5 0
9664.5 0
9665.5 0
9666.5 0
9667.5 0
9668.5 0
9669.5 0
9670.5 0
9671.5 0
9672.5 0
9673.5 0
9674.5 0
9675.5 0
9676.5 0
9677.5 0
9678.5 0
9679.5 0
9680.5 0
9681.5 0
9682.5 0
9683.5 0
9684.5 0
9685.5 0
9686.5 0
9687.5 0
9688.5 0
9689.5 0
9690.5 1
9691.5 0
9692.5 0
9693.5 0
9694.5 0
9695.5 -0.818182
9696.5 0
9697.5 0
9698.5 0
9699.5 0
9700.5 0
9701.5 0
9702.5 0
9703.5 0
9704.5 0
9705.5 -0.818182
9706.5 0
9707.5 0
9708.5 0
9709.5 0
9710.5 0
9711.5 0
9712.5 0
9713.5 -0.818182
9714.5 -0.818182
9715.5 0
9716.5 0
9717.5 0
9718.5 0
9719.5 0
9720.5 0
9721.5 0
9722.5 -0.818182
9723.5 0
9724.5 0
9725.5 0
9726.5 0
9727.5 -0.818182
9728.5 0
9729.5 0
9730.5 0
9731.5 0
9732.5 0
9733.5 0
9734.5 0
9735.5 0
9736.5 0
9737.5 0
9738.5 0
9739.5 0
9740.5 0
9741.5 0
9742.5 0
9743.5 0
9744.5 0
9745.5 0
9746.5 0
9747.5 0
9748.5 0
9749.5 0
9750.5 0
9751.5 0
9752.5 0
9753.5 0
9754.5 0
9755.5 0
9756.5 0
9757.5 0
9758.5 0
9759.5 0
9760.5 0
9761.5 0
9762.5 0
9763.5 0
9764.5 0
9765.5 0
9766.5 0
9767.5 1
9768.5 0
9769.5 0
9770.5 0
9771.5 0
9772.5 0
9773.5 0
9774.5 -0.818182
9775.5 0
9776.5 0
9777.5 0
9778.5 0
9779.5 0
9780.5 0
9781.5 0
9782.5 0
9783.5 0
9784.5 0
9785.5 0
9786.5 0
9787.5 0
9788.5 0
9789.5 0
9790.5 0
9791.5 0
9792.5 0
9793.5 0
9794.5 0
9795.5 0
9796.5 0
9797.5 0
9798.5 0
9799.5 0
9800.5 0
9801.5 0
9802.5 0
9803.5 0
9804.5 0
9805.5 0
9806.5 0
9807.5 0
9808.5 0
9809.5 0
9810.5 0
9811.5 0
9812.5 0
9813.5 0
9814.5 0
9815.5 0
9816.5 0
9817.5 0
9818.5 0
9819.5 0
9820.5 0
9821.5 0
9822.5 0
9823.5 0
9824.5 -0.818182
9825.5 0
9826.5 0
9827.5 0
9828.5 0
9829.5 0
9830.5 0
9831.5 0
9832.5 0
9833.5 0
9834.5 0
9835.5 0
9836.5 0
9837.5 0
9838.5 0
9839.5 1
9840.5 0
9841.5 0
9842.5 0
9843.5 0
9844.5 -0.818182
9845.5 0
9846.5 0
9847.5 0
9848.5 0
9849.5 0
9850.5 0
9851.5 0
9852.5 0
9853.5 0
9854.5 0
9855.5 0
9856.5 0
9857.5 0
9858.5 0
9859.5 0
9860.5 0
9861.5 0
9862.5 0
9863.5 0
9864.5 0
9865.5 0
9866.5 0
9867.5 0
9868.5 0
9869.5 0
9870.5 -0.818182
9871.5 0
9872.5 0
9873.5 0
9874.5 0
9875.5 0
9876.5 0
9877.5 0
9878.5 0
9879.5 0
9880.5 0
9881.5 0
9882.5 0
9883.5 0
9884.5 0
9885.5 0
9886.5 0
9887.5 0
9888.5 0
9889.5 0
9890.5 0
9891.5 0
9892.5 0
9893.5 0
9894.5 1
9895.5 0
9896.5 0
9897.5 0
9898.5 0
9899.5 0
9900.5 0
9901.5 0
9902.5 1
9903.5 0
9904.5 1
9905.5 0
9906.5 1
9907.5 0
9908.5 0
9909.5 0
9910.5 0
9911.5 0
9912.5 0
9913.5 0
9914.5 0
9915.5 0
9916.5 0
9917.5 0
9918.5 0
9919.5 0
9920.5 0
9921.5 0
9922.5 0
9923.5 0
9924.5 0
9925.5 0
9926.5 0
9927.5 0
9928.5 0
9929.5 0
9930.5 0
9931.5 0
9932.5 0
9933.5 0
9934.5 0
9935.5 0
9936.5 0
9937.5 0
9938.5 0
9939.5 0
9940.5 0
9941.5 0
9942.5 0
9943.5 0
9944.5 0
9945.5 0
9946.5 0
9947.5 0
9948.5 0
9949.5 0
9950.5 0
9951.5 0
9952.5 0
9953.5 0
9954.5 0
9955.5 0
9956.5 0
9957.5 0
9958.5 0
9959.5 0
9960.5 0
9961.5 0
9962.5 0
9963.5 0
9964.5 0
9965.5 0
9966.5 0
9967.5 0
9968.5 0
9969.5 0
9970.5 1
9971.5 0
9972.5 0
9973.5 0
9974.5 0
9975.5 0
9976.5 0
9977.5 0
9978.5 0
9979.5 0
9980.5 0
9981.5 0
9982.5 0
9983.5 0
9984.5 0
9985.5 0
9986.5 0
9987.5 0
9988.5 0
9989.5 0
9990.5 0
9991.5 0
9992.5 0
9993.5 0
9994.5 0
9995.5 0
9996.5 0
9997.5 0
9998.5 0
9999.5 0
10000.5 0
10001.5 0
10002.5 0
10003.5 0
10004.5 0
10005.5 0
10006.5 0
10007.5 0
10008.5 0
10009.5 0
10010.5 0
10011.5 0
10012.5 1
10013.5 0
10014.5 0
10015.5 0
10016.5 0
10017.5 0
10018.5 0
10019.5 0
10020.5 0
10021.5 0
10022.5 0
10023.5 0
10024.5 0
10025.5 0
10026.5 0
10027.5 0
10028.5 0
10029.5 0
10030.5 0
10031.5 0
10032.5 0
10033.5 0
10034.5 0
10035.5 0
10036.5 0
10037.5 0
10038.5 0
10039.5 0
10040.5 0
10041.5 0
10042.5 0
10043.5 0
10044.5 0
10045.5 0
10046.5 0
10047.5 0
10048.5 0
10049.5 0
10050.5 0
10051.5 0
10052.5 0
10053.5 0
10054.5 0
10055.5 0
10056.5 0
10057.5 0
10058.5 0
10059.5 0
10060.5 0
10061.5 0
10062.5 0
10063.5 0
10064.5 -0.818182
10065.5 0
10066.5 0
10067.5 0
10068.5 0
10069.5 0
10070.5 0
10071.5 0
10072.5 0
10073.5 0
10074.5 0
10075.5 0
10076.5 0
10077.5 0
10078.5 0
10079.5 0
10080.5 0
10081.5 0
10082.5 0
10083.5 0
10084.5 0
10085.5 0
10086.5 0
10087.5 0
10088.5 0
10089.5 0
10090.5 0
10091.5 0
10092.5 0
10093.5 0
10094.5 0
10095.5 0
10096.5 0
10097.5 0
10098.5 0
10099.5 0
10100.5 0
10101.5 0
10102.5 0
10103.5 0
10104.5 0
10105.5 0
10106.5 0
10107.5 0
10108.5 0
10109.5 0
10110.5 0
10111.5 0
10112.5 0
10113.5 0
10114.5 0
10115.5 0
10116.5 0
10117.5 0
10118.5 0
10119.5 0
10120.5 0
10121.5 0
10122.5 0
10123.5 0
10124.5 0
10125.5 0
10126.5 0
10127.5 0
10128.5 0
10129.5 0
10130.5 0
10131.5 0
10132.5 0
10133.5 0
10134.5 0
10135.5 0
10136.5 0
10137.5 0
10138.5 0
10139.5 0
10140.5 0
10141.5 0
10142.5 0
10143.5 0
10144.5 0
10145.5 0
10146.5 0
10147.5 0
10148.5 0
10149.5 0
10150.5 0
10151.5 0
10152.5 0
10153.5 0
10154.5 0
10155.5 0
10156.5 0
10157.5 0
10158.5 0
10159.5 0
10160.5 0
10161.5 0
10162.5 0
10163.5 0
10164.5 0
10165.5 0
10166.5 0
10167.5 0
10168.5 0
10169.5 0
10170.5 0
10171.5 0
10172.5 0
10173.5 0
10174.5 0
10175.5 0
10176.5 0
10177.5 0
10178.5 0
10179.5 0
10180.5 0
10181.5 0
10182.5 0
10183.5 0
10184.5 0
10185.5 0
10186.5 0
10187.5 0
10188.5 0
10189.5 0
10190.5 0
10191.5 0
10192.5 0
10193.5 0
10194.5 0
10195.5 0
10196.5 0
10197.5 0
10198.5 0
10199.5 0
10200.5 0
10201.5 0
10202.5 0
10203.5 0
10204.5 0
10205.5 0
10206.5 0
10207.5 0
10208.5 0
10209.5 0
10210.5 0
10211.5 0
10212.5 0
10213.5 0
10214.5 0
10215.5 0
10216.5 0
10217.5 0
10218.5 0
10219.5 0
10220.5 0
10221.5 0
10222.5 0
10223.5 0
10224.5 0
10225.5 0
10226.5 0
10227.5 0
10228.5 0
10229.5 0
10230.5 0
10231.5 0
10232.5 0
10233.5 0
10234.5 0
10235.5 0
10236.5 0
10237.5 0
10238.5 0
10239.5 0
10240.5 0
10241.5 0
10242.5 0
10243.5 0
10244.5 0
10245.5 0
10246.5 0
10247.5 0
10248.5 1
10249.5 0
10250.5 0
10251.5 0
10252.5 0
10253.5 0
10254.5 0
10255.5 0
10256.5 0
10257.5 0
10258.5 0
10259.5 0
10260.5 0
10261.5 0
10262.5 0
10263.5 0
10264.5 0
10265.5 0
10266.5 0
10267.5 0
10268.5 0
10269.5 0
10270.5 0
10271.5 0
10272.5 0
10273.5 0
10274.5 0
10275.5 0
10276.5 0
10277.5 0
10278.5 0
10279.5 0
10280.5 0
10281.5 0
10282.5 0
10283.5 0
10284.5 0
10285.5 0
10286.5 -0.818182
10287.5 0
10288.5 0
10289.5 0
10290.5 0
10291.5 0
10292.5 0
10293.5 0
10294.5 0
10295.5 0
10296.5 0
10297.5 0
10298.5 0
10299.5 0
10300.5 0
10301.5 0
10302.5 0
10303.5 0
10304.5 0
10305.5 0
10306.5 0
10307.5 0
10308.5 0
10309.5 0
10310.5 0
10311.5 0
10312.5 0
10313.5 0
10314.5 0
10315.5 0
10316.5 0
10317.5 0
10318.5 0
10319.5 0
10320.5 0
10321.5 0
10322.5 0
10323.5 0
10324.5 0
10325.5 0
10326.5 0
10327.5 0
10328.5 0
10329.5 0
10330.5 0
10331.5 0
10332.5 1
10333.5 0
10334.5 0
10335.5 0
10336.5 0
10337.5 0
10338.5 0
10339.5 0
10340.5 0
10341.5 0
10342.5 0
10343.5 1
10344.5 0
10345.5 0
10346.5 0
10347.5 0
10348.5 0
10349.5 0
10350.5 1
10351.5 0
10352.5 0
10353.5 0
10354.5 0
10355.5 0
10356.5 0
10357.5 0
10358.5 0
10359.5 0
10360.5 0
10361.5 0
10362.5 0
10363.5 1
10364.5 0
10365.5 0
10366.5 0
10367.5 0
10368.5 0
10369.5 0
10370.5 0
10371.5 0
10372.5 0
10373.5 0
10374.5 0
10375.5 0
10376.5 0
10377.5 0
10378.5 0
10379.5 0
10380.5 0
10381.5 0
10382.5 0
10383.5 0
10384.5 0
10385.5 0
10386.5 0
10387.5 0
10388.5 0
10389.5 0
10390.5 0
10391.5 0
10392.5 0
10393.5 0
10394.5 0
10395.5 0
10396.5 0
10397.5 0
10398.5 0
10399.5 0
10400.5 0
10401.5 0
10402.5 0
10403.5 0
10404.5 0
10405.5 0
10406.5 0
10407.5 0
10408.5 0
10409.5 0
10410.5 0
10411.5 0
10412.5 0
10413.5 0
10414.5 0
10415.5 0
10416.5 0
10417.5 0
10418.5 0
10419.5 0
10420.5 0
10421.5 0
10422.5 0
10423.5 0
10424.5 0
10425.5 0
10426.5 0
10427.5 0
10428.5 0
10429.5 0
10430.5 0
10431.5 0
10432.5 0
10433.5 0
10434.5 0
10435.5 0
10436.5 0
10437.5 0
10438.5 0
10439.5 0
10440.5 0
10441.5 0
10442.5 0
10443.5 0
10444.5 0
10445.5 0
10446.5 0
10447.5 0
10448.5 0
10449.5 0
10450.5 0
10451.5 0
10452.5 0
10453.5 0
10454.5 0
10455.5 0
10456.5 0
10457.5 -0.818182
10458.5 0
10459.5 0
10460.5 0
10461.5 0
10462.5 0
10463.5 0
10464.5 0
10465.5 0
10466.5 0
10467.5 0
10468.5 0
10469.5 0
10470.5 0
10471.5 0
10472.5 0
10473.5 0
10474.5 0
10475.5 0
10476.5 0
10477.5 0
10478.5 0
10479.5 0
10480.5 0
10481.5 0
10482.5 0
10483.5 0
10484.5 0
10485.5 0
10486.5 0
10487.5 0
10488.5 0
10489.5 0
10490.5 0
10491.5 0
10492.5 0
10493.5 0
10494.5 0
10495.5 0
10496.5 0
10497.5 0
10498.5 0
10499.5 0
10500.5 0
10501.5 0
10502.5 0
10503.5 0
10504.5 0
10505.5 0
10506.5 0
10507.5 0
10508.5 0
10509.5 0
10510.5 0
10511.5 0
10512.5 0
10513.5 0
10514.5 0
10515.5 0
10516.5 0
10517.5 0
10518.5 0
10519.5 0
10520.5 0
10521.5 0
10522.5 0
10523.5 0
10524.5 0
10525.5 0
10526.5 0
10527.5 0
10528.5 0
10529.5 0
10530.5 0
10531.5 0
10532.5 0
10533.5 0
10534.5 0
10535.5 0
10536.5 0
10537.5 0
10538.5 0
10539.5 0
10540.5 0
10541.5 0
10542.5 0
10543.5 0
10544.5 0
10545.5 0
10546.5 0
10547.5 0
10548.5 0
10549.5 0
10550.5 0
10551.5 0
10552.5 0
10553.5 0
10554.5 0
10555.5 0
10556.5 0
10557.5 0
10558.5 0
10559.5 0
10560.5 0
10561.5 0
10562.5 0
10563.5 0
10564.5 0
10565.5 0
10566.5 0
10567.5 0
10568.5 0
10569.5 0
10570.5 0
10571.5 0
10572.5 0
10573.5 0
10574.5 0
10575.5 0
10576.5 0
10577.5 0
10578.5 0
10579.5 0
10580.5 0
10581.5 0
10582.5 0
10583.5 0
10584.5 0
10585.5 0
10586.5 0
10587.5 0
10588.5 0
10589.5 0
10590.5 0
10591.5 0
10592.5 0
10593.5 0
10594.5 0
10595.5 0
10596.5 0
10597.5 0
10598.5 0
10599.5 0
10600.5 0
10601.5 0
10602.5 0
10603.5 0
10604.5 0
10605.5 0
10606.5 0
10607.5 0
10608.5 0
10609.5 0
10610.5 0
10611.5 0
10612.5 0
10613.5 0
10614.5 0
10615.5 0
10616.5 0
10617.5 0
10618.5 0
10619.5 0
10620.5 0
10621.5 0
10622.5 0
10623.5 0
10624.5 0
10625.5 0
10626.5 0
10627.5 0
10628.5 0
10629.5 0
10630.5 0
10631.5 0
10632.5 0
10633.5 0
10634.5 0
10635.5 0
10636.5 0
10637.5 0
10638.5 0
10639.5 0
10640.5 0
10641.5 0
10642.5 0
10643.5 0
10644.5 0
10645.5 0
10646.5 0
10647.5 0
10648.5 0
10649.5 0
10650.5 0
10651.5 0
10652.5 0
10653.5 0
10654.5 0
10655.5 0
10656.5 0
10657.5 0
10658.5 0
10659.5 0
10660.5 0
10661.5 0
10662.5 0
10663.5 0
10664.5 0
10665.5 0
10666.5 0
10667.5 0
10668.5 0
10669.5 0
10670.5 0
10671.5 0
10672.5 0
10673.5 0
10674.5 0
10675.5 0
10676.5 0
10677.5 0
10678.5 0
10679.5 0
10680.5 0
10681.5 0
10682.5 0
10683.5 0
10684.5 0
10685.5 0
10686.5 0
10687.5 0
10688.5 0
10689.5 0
10690.5 0
10691.5 0
10692.5 0
10693.5 0
10694.5 0
10695.5 0
10696.5 0
10697.5 0
10698.5 0
10699.5 0
10700.5 0
10701.5 0
10702.5 0
10703.5 0
10704.5 0
10705.5 0
10706.5 0
10707.5 0
10708.5 0
10709.5 -0.818182
10710.5 0
10711.5 0
10712.5 0
10713.5 0
10714.5 0
10715.5 0
10716.5 0
10717.5 0
10718.5 0
10719.5 0
10720.5 0
10721.5 0
10722.5 0
10723.5 0
10724.5 0
10725.5 0
10726.5 0
10727.5 0
10728.5 0
10729.5 0
10730.5 0
10731.5 0
10732.5 0
10733.5 0
10734.5 0
10735.5 0
10736.5 0
10737.5 0
10738.5 0
10739.5 0
10740.5 0
10741.5 0
10742.5 0
10743.5 0
10744.5 0
10745.5 0
10746.5 0
10747.5 0
10748.5 0
10749.5 0
10750.5 0
10751.5 0
10752.5 0
10753.5 0
10754.5 0
10755.5 0
10756.5 0
10757.5 0
10758.5 0
10759.5 0
10760.5 0
10761.5 0
10762.5 0
10763.5 0
10764.5 0
10765.5 0
10766.5 0
10767.5 0
10768.5 0
10769.5 0
10770.5 0
10771.5 0
10772.5 0
10773.5 0
10774.5 0
10775.5 0
10776.5 0
10777.5 0
10778.5 0
10779.5 0
10780.5 0
10781.5 0
10782.5 0
10783.5 0
10784.5 0
10785.5 0
10786.5 0
10787.5 0
10788.5 0
10789.5 0
10790.5 0
10791.5 0
10792.5 0
10793.5 0
10794.5 0
10795.5 0
10796.5 0
10797.5 0
10798.5 0
10799.5 0
10800.5 0
10801.5 0
10802.5 0
10803.5 0
10804.5 0
10805.5 0
10806.5 0
10807.5 0
10808.5 0
10809.5 0
10810.5 0
10811.5 0
10812.5 0
10813.5 0
10814.5 0
10815.5 0
10816.5 0
10817.5 0
10818.5 0
10819.5 0
10820.5 0
10821.5 0
10822.5 0
10823.5 0
10824.5 0
10825.5 0
10826.5 0
10827.5 0
10828.5 0
10829.5 0
10830.5 0
10831.5 0
10832.5 0
10833.5 0
10834.5 1
10835.5 0
10836.5 0
10837.5 0
10838.5 0
10839.5 0
10840.5 0
10841.5 0
10842.5 0
10843.5 0
10844.5 0
10845.5 0
10846.5 0
10847.5 0
10848.5 0
10849.5 0
10850.5 0
10851.5 0
10852.5 0
10853.5 0
10854.5 0
10855.5 0
10856.5 0
10857.5 0
10858.5 0
10859.5 0
10860.5 0
10861.5 0
10862.5 0
10863.5 0
10864.5 0
10865.5 0
10866.5 0
10867.5 0
10868.5 0
10869.5 0
10870.5 0
10871.5 0
10872.5 0
10873.5 0
10874.5 0
10875.5 0
10876.5 0
10877.5 0
10878.5 0
10879.5 0
10880.5 0
10881.5 0
10882.5 1
10883.5 0
10884.5 0
10885.5 0
10886.5 0
10887.5 0
10888.5 0
10889.5 0
10890.5 0
10891.5 0
10892.5 0
10893.5 0
10894.5 0
10895.5 0
10896.5 0
10897.5 0
10898.5 0
10899.5 0
10900.5 0
10901.5 0
10902.5 0
10903.5 0
10904.5 0
10905.5 0
10906.5 0
10907.5 0
10908.5 0
10909.5 0
10910.5 0
10911.5 0
10912.5 0
10913.5 0
10914.5 0
10915.5 0
10916.5 0
10917.5 0
10918.5 0
10919.5 0
10920.5 0
10921.5 0
10922.5 0
10923.5 0
10924.5 0
10925.5 0
10926.5 0
10927.5 0
10928.5 0
10929.5 0
10930.5 0
10931.5 0
10932.5 0
10933.5 0
10934.5 0
10935.5 0
10936.5 0
10937.5 0
10938.5 0
10939.5 0
10940.5 0
10941.5 0
10942.5 0
10943.5 0
10944.5 0
10945.5 0
10946.5 0
10947.5 0
10948.5 0
10949.5 0
10950.5 0
10951.5 0
10952.5 0
10953.5 0
10954.5 0
10955.5 0
10956.5 0
10957.5 0
10958.5 0
10959.5 0
10960.5 0
10961.5 0
10962.5 0
10963.5 0
10964.5 0
10965.5 0
10966.5 0
10967.5 0
10968.5 0
10969.5 0
10970.5 0
10971.5 0
10972.5 0
10973.5 0
10974.5 0
10975.5 0
10976.5 0
10977.5 0
10978.5 0
10979.5 0
10980.5 0
10981.5 0
10982.5 0
10983.5 0
10984.5 0
10985.5 0
10986.5 0
10987.5 0
10988.5 0
10989.5 0
10990.5 0
10991.5 0
10992.5 0
10993.5 0
10994.5 0
10995.5 0
10996.5 0
10997.5 0
10998.5 0
10999.5 0
11000.5 0
11001.5 0
11002.5 0
11003.5 0
11004.5 0
11005.5 0
11006.5 0
11007.5 0
11008.5 0
11009.5 0
11010.5 0
11011.5 0
11012.5 0
11013.5 0
11014.5 0
11015.5 0
11016.5 0
11017.5 0
11018.5 0
11019.5 0
11020.5 0
11021.5 0
11022.5 0
11023.5 0
11024.5 0
11025.5 0
11026.5 0
11027.5 0
11028.5 0
11029.5 0
11030.5 0
11031.5 0
11032.5 0
11033.5 0
11034.5 0
11035.5 0
11036.5 0
11037.5 0
11038.5 0
11039.5 0
11040.5 0
11041.5 0
11042.5 0
11043.5 0
11044.5 0
11045.5 0
11046.5 0
11047.5 0
11048.5 0
11049.5 0
11050.5 0
11051.5 0
11052.5 0
11053.5 0
11054.5 0
11055.5 0
11056.5 0
11057.5 0
11058.5 0
11059.5 0
11060.5 0
11061.5 0
11062.5 0
11063.5 0
11064.5 0
11065.5 0
11066.5 0
11067.5 0
11068.5 0
11069.5 0
11070.5 0
11071.5 0
11072.5 0
11073.5 0
11074.5 0
11075.5 0
11076.5 0
11077.5 0
11078.5 0
11079.5 0
11080.5 0
11081.5 0
11082.5 0
11083.5 0
11084.5 0
11085.5 0
11086.5 0
11087.5 0
11088.5 0
11089.5 0
11090.5 0
11091.5 0
11092.5 0
11093.5 0
11094.5 -0.818182
11095.5 0
11096.5 0
11097.5 0
11098.5 0
11099.5 0
11100.5 0
11101.5 0
11102.5 0
11103.5 0
11104.5 0
11105.5 0
11106.5 0
11107.5 0
11108.5 0
11109.5 0
11110.5 0
11111.5 0
11112.5 0
11113.5 0
11114.5 0
11115.5 0
11116.5 0
11117.5 0
11118.5 0
11119.5 0
11120.5 0
11121.5 0
11122.5 0
11123.5 0
11124.5 0
11125.5 0
11126.5 0
11127.5 0
11128.5 0
11129.5 0
11130.5 0
11131.5 0
11132.5 0
11133.5 0
11134.5 0
11135.5 0
11136.5 0
11137.5 0
11138.5 0
11139.5 0
11140.5 0
11141.5 0
11142.5 0
11143.5 0
11144.5 0
11145.5 0
11146.5 0
11147.5 0
11148.5 0
11149.5 0
11150.5 0
11151.5 0
11152.5 0
11153.5 0
11154.5 0
11155.5 0
11156.5 0
11157.5 0
11158.5 0
11159.5 0
11160.5 0
11161.5 0
11162.5 0
11163.5 0
11164.5 0
11165.5 0
11166.5 0
11167.5 0
11168.5 0
11169.5 0
11170.5 0
11171.5 0
11172.5 0
11173.5 0
11174.5 0
11175.5 0
11176.5 0
11177.5 0
11178.5 0
11179.5 0
11180.5 0
11181.5 0
11182.5 0
11183.5 0
11184.5 0
11185.5 0
11186.5 0
11187.5 0
11188.5 0
11189.5 0
11190.5 0
11191.5 0
11192.5 0
11193.5 0
11194.5 0
11195.5 0
11196.5 0
11197.5 0
11198.5 0
11199.5 0
11200.5 -0.818182
11201.5 0
11202.5 0
11203.5 0
11204.5 0
11205.5 0
11206.5 0
11207.5 0
11208.5 0
11209.5 0
11210.5 0
11211.5 0
11212.5 0
11213.5 0
11214.5 0
11215.5 0
11216.5 0
11217.5 0
11218.5 0
11219.5 0
11220.5 0
11221.5 0
11222.5 0
11223.5 0
11224.5 0
11225.5 0
11226.5 0
11227.5 0
11228.5 0
11229.5 0
11230.5 0
11231.5 0
11232.5 0
11233.5 0
11234.5 0
11235.5 0
11236.5 0
11237.5 0
11238.5 0
11239.5 0
11240.5 0
11241.5 0
11242.5 0
11243.5 0
11244.5 0
11245.5 0
11246.5 0
11247.5 0
11248.5 0
11249.5 0
11250.5 0
11251.5 0
11252.5 0
11253.5 0
11254.5 0
11255.5 0
11256.5 0
11257.5 0
11258.5 0
11259.5 0
11260.5 0
11261.5 0
11262.5 0
11263.5 0
11264.5 0
11265.5 0
11266.5 0
11267.5 0
11268.5 0
11269.5 0
11270.5 0
11271.5 0
11272.5 0
11273.5 0
11274.5 0
11275.5 0
11276.5 0
11277.5 0
11278.5 0
11279.5 0
11280.5 0
11281.5 0
11282.5 0
11283.5 0
11284.5 0
11285.5 0
11286.5 0
11287.5 0
11288.5 0
11289.5 0
11290.5 0
11291.5 0
11292.5 0
11293.5 0
11294.5 0
11295.5 0
11296.5 0
11297.5 0
11298.5 0
11299.5 0
11300.5 0
11301.5 0
11302.5 0
11303.5 0
11304.5 0
11305.5 0
11306.5 0
11307.5 0
11308.5 0
11309.5 0
11310.5 0
11311.5 0
11312.5 0
11313.5 0
11314.5 0
11315.5 0
11316.5 0
11317.5 0
11318.5 0
11319.5 0
11320.5 0
11321.5 0
11322.5 0
11323.5 0
11324.5 0
11325.5 0
11326.5 0
11327.5 0
11328.5 0
11329.5 0
11330.5 0
11331.5 0
11332.5 0
11333.5 0
11334.5 0
11335.5 0
11336.5 0
11337.5 0
11338.5 0
11339.5 0
11340.5 0
11341.5 0
11342.5 0
11343.5 0
11344.5 0
11345.5 0
11346.5 0
11347.5 0
11348.5 0
11349.5 0
11350.5 0
11351.5 0
11352.5 0
11353.5 0
11354.5 0
11355.5 0
11356.5 0
11357.5 0
11358.5 0
11359.5 0
11360.5 0
11361.5 0
11362.5 0
11363.5 0
11364.5 0
11365.5 0
11366.5 0
11367.5 0
11368.5 0
11369.5 0
11370.5 0
11371.5 0
11372.5 0
11373.5 0
11374.5 0
11375.5 0
11376.5 0
11377.5 0
11378.5 0
11379.5 0
11380.5 0
11381.5 0
11382.5 0
11383.5 0
11384.5 0
11385.5 0
11386.5 0
11387.5 0
11388.5 0
11389.5 0
11390.5 0
11391.5 0
11392.5 0
11393.5 0
11394.5 0
11395.5 0
11396.5 0
11397.5 0
11398.5 0
11399.5 0
11400.5 0
11401.5 0
11402.5 0
11403.5 0
11404.5 0
11405.5 0
11406.5 0
11407.5 0
11408.5 0
11409.5 0
11410.5 0
11411.5 0
11412.5 0
11413.5 0
11414.5 0
11415.5 0
11416.5 0
11417.5 0
11418.5 0
11419.5 0
11420.5 0
11421.5 0
11422.5 0
11423.5 0
11424.5 0
11425.5 0
11426.5 0
11427.5 0
11428.5 0
11429.5 0
11430.5 0
11431.5 0
11432.5 0
11433.5 0
11434.5 0
11435.5 0
11436.5 0
11437.5 0
11438.5 0
11439.5 0
11440.5 0
11441.5 0
11442.5 0
11443.5 0
11444.5 0
11445.5 0
11446.5 0
11447.5 0
11448.5 0
11449.5 0
11450.5 0
11451.5 0
11452.5 0
11453.5 0
11454.5 0
11455.5 0
11456.5 0
11457.5 0
11458.5 0
11459.5 0
11460.5 0
11461.5 0
11462.5 0
11463.5 0
11464.5 0
11465.5 0
11466.5 0
11467.5 0
11468.5 0
11469.5 0
11470.5 0
11471.5 0
11472.5 0
11473.5 0
11474.5 0
11475.5 0
11476.5 0
11477.5 0
11478.5 0
11479.5 0
11480.5 0
11481.5 0
11482.5 0
11483.5 0
11484.5 0
11485.5 0
11486.5 0
11487.5 0
11488.5 0
11489.5 0
11490.5 0
11491.5 0
11492.5 0
11493.5 0
11494.5 0
11495.5 0
11496.5 0
11497.5 0
11498.5 0
11499.5 0
11500.5 0
11501.5 0
11502.5 0
11503.5 0
11504.5 0
11505.5 0
11506.5 0
11507.5 0
11508.5 0
11509.5 0
11510.5 0
11511.5 -0.818182
11512.5 0
11513.5 0
11514.5 0
11515.5 0
11516.5 0
11517.5 0
11518.5 0
11519.5 0
11520.5 0
11521.5 0
11522.5 0
11523.5 0
11524.5 0
11525.5 0
11526.5 0
11527.5 0
11528.5 0
11529.5 0
11530.5 0
11531.5 0
11532.5 0
11533.5 0
11534.5 0
11535.5 0
11536.5 0
11537.5 0
11538.5 0
11539.5 0
11540.5 0
11541.5 0
11542.5 0
11543.5 0
11544.5 0
11545.5 0
11546.5 0
11547.5 0
11548.5 0
11549.5 0
11550.5 0
11551.5 0
11552.5 0
11553.5 0
11554.5 0
11555.5 0
11556.5 0
11557.5 0
11558.5 0
11559.5 0
11560.5 0
11561.5 0
11562.5 0
11563.5 0
11564.5 0
11565.5 0
11566.5 0
11567.5 0
11568.5 0
11569.5 0
11570.5 0
11571.5 0
11572.5 0
11573.5 0
11574.5 0
11575.5 0
11576.5 0
11577.5 0
11578.5 0
11579.5 0
11580.5 0
11581.5 0
11582.5 0
11583.5 0
11584.5 0
11585.5 0
11586.5 0
11587.5 0
11588.5 0
11589.5 0
11590.5 0
11591.5 0
11592.5 0
11593.5 0
11594.5 0
11595.5 0
11596.5 0
11597.5 0
11598.5 -0.818182
11599.5 0
11600.5 0
11601.5 0
11602.5 0
11603.5 0
11604.5 0
11605.5 0
11606.5 0
11607.5 0
11608.5 0
11609.5 0
11610.5 0
11611.5 0
11612.5 0
11613.5 0
11614.5 0
11615.5 0
11616.5 0
11617.5 0
11618.5 0
11619.5 0
11620.5 0
11621.5 0
11622.5 0
11623.5 0
11624.5 0
11625.5 0
11626.5 0
11627.5 0
11628.5 0
11629.5 0
11630.5 0
11631.5 0
11632.5 0
11633.5 0
11634.5 0
11635.5 0
11636.5 0
11637.5 0
11638.5 0
11639.5 0
11640.5 0
11641.5 0
11642.5 0
11643.5 0
11644.5 0
11645.5 0
11646.5 0
11647.5 0
11648.5 0
11649.5 0
11650.5 0
11651.5 0
11652.5 0
11653.5 0
11654.5 0
11655.5 0
11656.5 0
11657.5 0
11658.5 0
11659.5 0
11660.5 0
11661.5 0
11662.5 0
11663.5 0
11664.5 0
11665.5 0
11666.5 1
11667.5 0
11668.5 0
11669.5 0
11670.5 0
11671.5 0
11672.5 0
11673.5 0
11674.5 0
11675.5 0
11676.5 0
11677.5 0
11678.5 0
11679.5 0
11680.5 0
11681.5 0
11682.5 0
11683.5 0
11684.5 0
11685.5 0
11686.5 0
11687.5 0
11688.5 0
11689.5 0
11690.5 0
11691.5 0
11692.5 0
11693.5 0
11694.5 0
11695.5 0
11696.5 0
11697.5 0
11698.5 0
11699.5 0
11700.5 0
11701.5 0
11702.5 0
11703.5 0
11704.5 0
11705.5 0
11706.5 0
11707.5 0
11708.5 0
11709.5 0
11710.5 0
11711.5 0
11712.5 0
11713.5 0
11714.5 0
11715.5 0
11716.5 0
11717.5 0
11718.5 0
11719.5 0
11720.5 0
11721.5 0
11722.5 0
11723.5 0
11724.5 0
11725.5 0
11726.5 0
11727.5 0
11728.5 0
11729.5 0
11730.5 0
11731.5 0
11732.5 0
11733.5 0
11734.5 0
11735.5 0
11736.5 0
11737.5 0
11738.5 0
11739.5 0
11740.5 0
11741.5 0
11742.5 0
11743.5 0
11744.5 0
11745.5 0
11746.5 0
11747.5 0
11748.5 0
11749.5 0
11750.5 0
11751.5 0
11752.5 0
11753.5 0
11754.5 0
11755.5 0
11756.5 0
11757.5 0
11758.5 0
11759.5 0
11760.5 0
11761.5 0
11762.5 0
11763.5 0
11764.5 0
11765.5 0
11766.5 0
11767.5 0
11768.5 0
11769.5 0
11770.5 0
11771.5 0
11772.5 0
11773.5 0
11774.5 0
11775.5 0
11776.5 0
11777.5 0
11778.5 0
11779.5 0
11780.5 0
11781.5 0
11782.5 0
11783.5 0
11784.5 0
11785.5 0
11786.5 0
11787.5 0
11788.5 0
11789.5 0
11790.5 0
11791.5 0
11792.5 0
11793.5 0
11794.5 0
11795.5 0
11796.5 0
11797.5 0
11798.5 0
11799.5 0
11800.5 0
11801.5 0
11802.5 0
11803.5 0
11804.5 0
11805.5 0
11806.5 0
11807.5 0
11808.5 0
11809.5 0
11810.5 0
11811.5 0
11812.5 0
11813.5 0
11814.5 0
11815.5 0
11816.5 0
11817.5 0
11818.5 0
11819.5 0
11820.5 0
11821.5 0
11822.5 0
11823.5 0
11824.5 0
11825.5 0
11826.5 0
11827.5 0
11828.5 0
11829.5 0
11830.5 0
11831.5 0
11832.5 0
11833.5 0
11834.5 0
11835.5 0
11836.5 0
11837.5 0
11838.5 0
11839.5 0
11840.5 0
11841.5 0
11842.5 0
11843.5 0
11844.5 0
11845.5 0
11846.5 0
11847.5 0
11848.5 0
11849.5 0
11850.5 0
11851.5 0
11852.5 0
11853.5 0
11854.5 0
11855.5 0
11856.5 0
11857.5 0
11858.5 0
11859.5 0
11860.5 0
11861.5 0
11862.5 0
11863.5 0
11864.5 0
11865.5 0
11866.5 0
11867.5 0
11868.5 0
11869.5 0
11870.5 0
11871.5 0
11872.5 0
11873.5 0
11874.5 0
11875.5 0
11876.5 0
11877.5 0
11878.5 0
11879.5 0
11880.5 0
11881.5 0
11882.5 0
11883.5 0
11884.5 0
11885.5 0
11886.5 0
11887.5 0
11888.5 0
11889.5 0
11890.5 0
11891.5 0
11892.5 0
11893.5 0
11894.5 0
11895.5 0
11896.5 0
11897.5 0
11898.5 0
11899.5 0
11900.5 0
11901.5 0
11902.5 0
11903.5 0
11904.5 0
11905.5 0
11906.5 0
11907.5 0
11908.5 0
11909.5 0
11910.5 0
11911.5 0
11912.5 0
11913.5 0
11914.5 0
11915.5 0
11916.5 0
11917.5 0
11918.5 0
11919.5 0
11920.5 0
11921.5 0
11922.5 0
11923.5 0
11924.5 0
11925.5 0
11926.5 0
11927.5 0
11928.5 0
11929.5 0
11930.5 0
11931.5 0
11932.5 0
11933.5 0
11934.5 0
11935.5 0
11936.5 0
11937.5 0
11938.5 0
11939.5 0
11940.5 0
11941.5 0
11942.5 0
11943.5 0
11944.5 0
11945.5 0
11946.5 0
11947.5 0
11948.5 0
11949.5 0
11950.5 0
11951.5 0
11952.5 0
11953.5 0
11954.5 0
11955.5 0
11956.5 0
11957.5 0
11958.5 0
11959.5 0
11960.5 0
11961.5 0
11962.5 0
11963.5 0
11964.5 0
11965.5 0
11966.5 0
11967.5 0
11968.5 0
11969.5 0
11970.5 0
11971.5 0
11972.5 0
11973.5 0
11974.5 0
11975.5 0
11976.5 0
11977.5 0
11978.5 0
11979.5 0
11980.5 0
11981.5 0
11982.5 0
11983.5 0
11984.5 0
11985.5 0
11986.5 0
11987.5 0
11988.5 0
11989.5 0
11990.5 0
11991.5 0
11992.5 0
11993.5 0
11994.5 0
11995.5 0
11996.5 0
11997.5 0
11998.5 0
11999.5 0
