# EGG_ProjY_E1541.5(5.5)_B1533.0(2.0)_B1554.5(1.5)
# X axis : Energy (keV) [Y axis]
# Y axis : Counts/1 keV
# N Bins : 12000
# X Min : 0
# X Max : 12000
# X value at the center of the bins
0.5 0
1.5 0
2.5 0
3.5 0
4.5 0
5.5 31
6.5 -1.71428
7.5 9.85715
8.5 38.8571
9.5 12.5714
10.5 16.1429
11.5 43.4286
12.5 49.2857
13.5 32.4286
14.5 94.5714
15.5 53.4286
16.5 50.8572
17.5 44.7143
18.5 218.429
19.5 261.143
20.5 308.857
21.5 216
22.5 379
23.5 522.857
24.5 617.429
25.5 669.571
26.5 1084
27.5 1025.14
28.5 1010.71
29.5 1057.57
30.5 1235.43
31.5 1290.43
32.5 1341
33.5 1309.57
34.5 1210.43
35.5 1177
36.5 1557
37.5 1286.71
38.5 1420.43
39.5 1783.43
40.5 1568.86
41.5 1469.14
42.5 1651
43.5 1777.29
44.5 1369.14
45.5 1817.57
46.5 1777.86
47.5 1635.57
48.5 1449.57
49.5 1681.57
50.5 1663.71
51.5 1729.86
52.5 1615.86
53.5 1813.29
54.5 1767.43
55.5 2053.86
56.5 1958.71
57.5 2361.29
58.5 2870.57
59.5 3142.29
60.5 2476.43
61.5 1938.43
62.5 1873
63.5 1706.71
64.5 1843
65.5 2123.57
66.5 2107.43
67.5 2430.86
68.5 2186.71
69.5 2154.86
70.5 1942.14
71.5 2244.86
72.5 1982.14
73.5 2242.71
74.5 3332.86
75.5 3538.71
76.5 3483.86
77.5 4562.29
78.5 2548.86
79.5 1852.86
80.5 1925.14
81.5 1860.57
82.5 1853.14
83.5 1768.57
84.5 1952.43
85.5 2354
86.5 2912.29
87.5 3573.43
88.5 3111.29
89.5 2672.71
90.5 2526.71
91.5 2109
92.5 2398.14
93.5 2206.29
94.5 2366.43
95.5 2329.71
96.5 2268.29
97.5 2193.14
98.5 1856.43
99.5 1557.29
100.5 1914.71
101.5 1816
102.5 1876.71
103.5 2176.14
104.5 2119.43
105.5 2242.43
106.5 2218.29
107.5 2132.71
108.5 2320
109.5 1964.43
110.5 2099.57
111.5 2258.29
112.5 2249.14
113.5 1990.86
114.5 2031.29
115.5 1941.71
116.5 1940.29
117.5 2137.43
118.5 2264.71
119.5 2267.29
120.5 2347.86
121.5 2232.86
122.5 2418
123.5 2680.14
124.5 2411.29
125.5 2133.57
126.5 2453.14
127.5 2743.57
128.5 2578.71
129.5 2466.43
130.5 2358.57
131.5 2540.29
132.5 2449.71
133.5 2645.86
134.5 2232.14
135.5 2661.57
136.5 2701.57
137.5 2550.71
138.5 2367.57
139.5 2849
140.5 2863
141.5 2464.86
142.5 2637.57
143.5 2672.29
144.5 2723.29
145.5 3140.29
146.5 2476
147.5 2643.57
148.5 2651.29
149.5 2501.29
150.5 2741.29
151.5 2591.71
152.5 2632.43
153.5 2379
154.5 2483
155.5 2530.86
156.5 2293.57
157.5 2241.71
158.5 2268.57
159.5 2483
160.5 2830.14
161.5 2729.14
162.5 2710.14
163.5 2420.29
164.5 2775.29
165.5 3052.29
166.5 3212
167.5 3137.14
168.5 3253.43
169.5 3048.29
170.5 2836.86
171.5 3136.71
172.5 3155.14
173.5 4230.86
174.5 5467.14
175.5 4155.14
176.5 2703.86
177.5 2473.43
178.5 2056
179.5 2600.14
180.5 2968.14
181.5 2509.71
182.5 2444
183.5 3224.86
184.5 3347.29
185.5 3734.43
186.5 3638.86
187.5 3303.57
188.5 3162.43
189.5 2896.29
190.5 2217.14
191.5 2421
192.5 2146.29
193.5 2337
194.5 2631.71
195.5 2392.29
196.5 2731.71
197.5 2939.86
198.5 3125.57
199.5 3400.57
200.5 3224.57
201.5 3254.71
202.5 3229.57
203.5 3235.43
204.5 3274.71
205.5 3320.14
206.5 2889.43
207.5 2934.86
208.5 2829.57
209.5 2974.71
210.5 3185.86
211.5 3091.29
212.5 3567
213.5 3614.57
214.5 3113.86
215.5 3236.43
216.5 3200.14
217.5 2846.14
218.5 2707.57
219.5 2911.29
220.5 2641.14
221.5 2635.29
222.5 2597.43
223.5 1927.57
224.5 1874.43
225.5 2403.43
226.5 3077.71
227.5 3292.43
228.5 3646.43
229.5 3866.57
230.5 3709.43
231.5 4271.71
232.5 4545.71
233.5 4542
234.5 4638
235.5 4730.14
236.5 4385.71
237.5 4331.57
238.5 4057.71
239.5 3786.71
240.5 3787.86
241.5 3292.71
242.5 3007.71
243.5 2369.86
244.5 1622.86
245.5 1677.57
246.5 1433.86
247.5 1873.57
248.5 2393.57
249.5 2568.86
250.5 2810.29
251.5 2747
252.5 3120.71
253.5 2837.86
254.5 2552
255.5 2441
256.5 2521.29
257.5 2245.86
258.5 2815
259.5 2759.86
260.5 2723.86
261.5 2860.57
262.5 3318.43
263.5 3262.86
264.5 3111.86
265.5 3096
266.5 2814.29
267.5 3041.29
268.5 3003.86
269.5 3111.86
270.5 2860.43
271.5 2671.14
272.5 2601.14
273.5 2409.43
274.5 2389.57
275.5 2401.57
276.5 2175.43
277.5 2520.71
278.5 2332.14
279.5 2566.57
280.5 2789.14
281.5 2399.57
282.5 2327.71
283.5 2172
284.5 2314.71
285.5 2319.71
286.5 2398.43
287.5 2032.86
288.5 2258.71
289.5 2205.86
290.5 2209.57
291.5 2446.71
292.5 2270.71
293.5 2374.57
294.5 2458.29
295.5 2521
296.5 2456.43
297.5 2628.57
298.5 2398.57
299.5 2542.57
300.5 2666.71
301.5 2465.71
302.5 2334.43
303.5 2440.14
304.5 2349.29
305.5 2472
306.5 2100
307.5 2317.57
308.5 2137.43
309.5 2119.71
310.5 2081.43
311.5 1986.14
312.5 2374.43
313.5 2174.86
314.5 2092.29
315.5 2083.14
316.5 1155
317.5 837.714
318.5 1040.14
319.5 1317.29
320.5 1965.86
321.5 2106.43
322.5 2475
323.5 2165.71
324.5 2819.29
325.5 2745.86
326.5 3426.57
327.5 3428.14
328.5 3129.43
329.5 2512.57
330.5 1929
331.5 981.286
332.5 565.286
333.5 1165.86
334.5 2172
335.5 2367
336.5 2135.14
337.5 1442.29
338.5 1125.71
339.5 1566.29
340.5 2664.71
341.5 3449.71
342.5 4002.43
343.5 4244.71
344.5 4511.43
345.5 4245.14
346.5 4761
347.5 4364.57
348.5 3911.71
349.5 3524.14
350.5 2667.57
351.5 917
352.5 -221
353.5 -767
354.5 -525.143
355.5 221.286
356.5 801.572
357.5 1410
358.5 1827.14
359.5 1915.71
360.5 2091.14
361.5 2181.43
362.5 2102.57
363.5 2077.86
364.5 1798.43
365.5 1885
366.5 1814.43
367.5 1680.57
368.5 2261.43
369.5 2183.71
370.5 1903.86
371.5 1871.14
372.5 2228.29
373.5 2202.29
374.5 2086.57
375.5 2181.14
376.5 1983.14
377.5 1858
378.5 1732.43
379.5 1556.86
380.5 1965.43
381.5 1933.14
382.5 1652.14
383.5 2127.14
384.5 1619.71
385.5 1723.86
386.5 1078.29
387.5 925.143
388.5 1240.14
389.5 1471.57
390.5 1744.29
391.5 2071.29
392.5 2025
393.5 1983.71
394.5 2062.57
395.5 2068.43
396.5 2200.86
397.5 2584.14
398.5 2609
399.5 2870.43
400.5 2775.43
401.5 2841.57
402.5 2746.43
403.5 3284.86
404.5 3309
405.5 2457.71
406.5 1787.43
407.5 1461.14
408.5 1017.14
409.5 1073.71
410.5 1469.57
411.5 1664.14
412.5 1822.86
413.5 2105.43
414.5 1964.43
415.5 1940.14
416.5 1726.43
417.5 1721
418.5 1622
419.5 1928.71
420.5 1775.86
421.5 1839.57
422.5 2152.29
423.5 1782.57
424.5 1968.14
425.5 1278.43
426.5 1416.43
427.5 1669.29
428.5 1463.14
429.5 1528.86
430.5 1598.14
431.5 1598.57
432.5 1686.14
433.5 1884.14
434.5 2113.14
435.5 1798.86
436.5 1739.86
437.5 1577.43
438.5 1628
439.5 1580.86
440.5 1608.86
441.5 1783.57
442.5 1893.57
443.5 1877.14
444.5 1837.86
445.5 2031.57
446.5 1790.86
447.5 1880.71
448.5 1907
449.5 1931.43
450.5 2016.29
451.5 1861.29
452.5 2039.29
453.5 1838.29
454.5 2094.14
455.5 2059.71
456.5 2112
457.5 2067
458.5 1790.71
459.5 1645.71
460.5 1533.43
461.5 1518.86
462.5 1923.57
463.5 2198.57
464.5 1890.71
465.5 1578.71
466.5 1892.86
467.5 1695.71
468.5 1712
469.5 1987.43
470.5 1846.14
471.5 1970.43
472.5 2013
473.5 1818.43
474.5 1849.86
475.5 1558.29
476.5 1677.86
477.5 1704.43
478.5 1813.14
479.5 1836.86
480.5 1836.57
481.5 1731.14
482.5 1904.29
483.5 1724.14
484.5 1971.29
485.5 1827.57
486.5 1569
487.5 1626.29
488.5 1746.29
489.5 1740.43
490.5 1665.57
491.5 1683.29
492.5 1574
493.5 1749.14
494.5 1754.57
495.5 1508.43
496.5 1661.29
497.5 1441.14
498.5 961.857
499.5 443.286
500.5 761.286
501.5 1247.43
502.5 1469.43
503.5 1612.86
504.5 1797.43
505.5 1770
506.5 2169.57
507.5 2537.14
508.5 3947.86
509.5 6562.14
510.5 9932.86
511.5 9644.14
512.5 6160.86
513.5 3584.43
514.5 2312.86
515.5 1842.43
516.5 1673.86
517.5 1373.71
518.5 1302.43
519.5 1322.43
520.5 1419.57
521.5 1323.57
522.5 1402.14
523.5 1455.86
524.5 1454.29
525.5 1518.43
526.5 1535.29
527.5 1434.14
528.5 1543.86
529.5 1522.14
530.5 1367.14
531.5 1328.29
532.5 1199.14
533.5 1283.86
534.5 1330.71
535.5 1347.57
536.5 1492.43
537.5 1444.71
538.5 1404.14
539.5 1325
540.5 1491
541.5 1372.57
542.5 1627.29
543.5 1649.86
544.5 1350.71
545.5 1621.14
546.5 1575
547.5 1761.29
548.5 1552.29
549.5 1472.14
550.5 1671.57
551.5 1371.43
552.5 1455
553.5 1320.86
554.5 1615.86
555.5 1841.14
556.5 1950.57
557.5 1826.43
558.5 1713.14
559.5 1467.43
560.5 1560.71
561.5 1585
562.5 1607
563.5 1420.14
564.5 1542.43
565.5 1347
566.5 1444.57
567.5 1572
568.5 1506.71
569.5 1464.86
570.5 1477.43
571.5 1535
572.5 1513.57
573.5 1294.86
574.5 1559.71
575.5 1315.29
576.5 1405.86
577.5 1410
578.5 1242.29
579.5 1198.57
580.5 1575.86
581.5 2630
582.5 7861.29
583.5 12677
584.5 7869.14
585.5 2785.43
586.5 1645.14
587.5 1109.57
588.5 1099.14
589.5 1093
590.5 1245.86
591.5 1177.43
592.5 1071.86
593.5 977.429
594.5 400
595.5 460.286
596.5 669.286
597.5 1017.29
598.5 1291.29
599.5 1439.57
600.5 1515.86
601.5 1664
602.5 1911.14
603.5 1773.14
604.5 2086.14
605.5 2217.43
606.5 1964.14
607.5 1855
608.5 1633.14
609.5 1701.29
610.5 1787.71
611.5 1548.43
612.5 1494.71
613.5 1290.43
614.5 975.572
615.5 815.572
616.5 325.429
617.5 328.286
618.5 395.429
619.5 795.714
620.5 958.857
621.5 1161
622.5 1168
623.5 1181.14
624.5 1116.29
625.5 1156.86
626.5 1156.71
627.5 1369.43
628.5 1596.29
629.5 1479
630.5 1116.14
631.5 1227.43
632.5 1079.14
633.5 1263.29
634.5 1274
635.5 1160.86
636.5 1212.14
637.5 1412.57
638.5 1171.43
639.5 1384.29
640.5 1207.71
641.5 1229
642.5 1074
643.5 1109
644.5 1280.57
645.5 1776.86
646.5 1703.71
647.5 1393
648.5 1169.71
649.5 1251
650.5 1254.14
651.5 1507.71
652.5 1393.14
653.5 2735.71
654.5 8982.86
655.5 21151.3
656.5 18926.4
657.5 7256.71
658.5 2591.86
659.5 1338.71
660.5 1358.43
661.5 1496.86
662.5 1498.71
663.5 1129.14
664.5 1334.29
665.5 412.857
666.5 -432.428
667.5 -1206.14
668.5 -1259
669.5 -578.286
670.5 270.857
671.5 616.429
672.5 1037
673.5 1218
674.5 1771
675.5 2276.29
676.5 2838.57
677.5 2907.43
678.5 3179.29
679.5 3297
680.5 3157.43
681.5 3093.14
682.5 3165.57
683.5 3127.57
684.5 2715.43
685.5 2171.29
686.5 1048.57
687.5 -409.571
688.5 -956.857
689.5 -1281.57
690.5 -1219.43
691.5 -461.857
692.5 183.286
693.5 637.429
694.5 783.857
695.5 843.857
696.5 916.143
697.5 1050.43
698.5 983.429
699.5 885.429
700.5 1273
701.5 1164.86
702.5 1089.14
703.5 1442.14
704.5 1383.71
705.5 1270
706.5 1071.86
707.5 1103
708.5 1210.57
709.5 1021.14
710.5 1226.14
711.5 1014.71
712.5 1074.43
713.5 1057.29
714.5 1099.14
715.5 1072.71
716.5 1010.29
717.5 973.571
718.5 1042.86
719.5 931.429
720.5 1204
721.5 1090.57
722.5 1003.14
723.5 905.571
724.5 1000.29
725.5 932.429
726.5 899.572
727.5 1129.57
728.5 981
729.5 911.714
730.5 1166.43
731.5 1015.86
732.5 1138
733.5 1075.14
734.5 1146
735.5 1019.71
736.5 1044.29
737.5 1009.57
738.5 1207.29
739.5 1120.43
740.5 1092.14
741.5 994.857
742.5 1051.29
743.5 982.286
744.5 1005.29
745.5 1051.29
746.5 1036.14
747.5 966.286
748.5 968.571
749.5 875.857
750.5 1066.71
751.5 1075.29
752.5 1080.86
753.5 1016.14
754.5 1140.71
755.5 1004.29
756.5 1199.29
757.5 1355
758.5 2230.14
759.5 8591.86
760.5 24287.3
761.5 27062.9
762.5 12288.6
763.5 3324.43
764.5 1523.14
765.5 1227.43
766.5 1119.14
767.5 906.429
768.5 930.143
769.5 1021.14
770.5 1170.57
771.5 868.143
772.5 933.714
773.5 874.857
774.5 1107.57
775.5 1031.86
776.5 1200.57
777.5 820
778.5 1001.86
779.5 1009.57
780.5 1079.43
781.5 921.857
782.5 792.571
783.5 1078.57
784.5 1005
785.5 850.429
786.5 871.571
787.5 1096.29
788.5 994
789.5 1004.71
790.5 1037.57
791.5 854.714
792.5 943.714
793.5 1028.57
794.5 986.571
795.5 928.143
796.5 949.571
797.5 1095.71
798.5 1160.29
799.5 959
800.5 1067.86
801.5 1016.29
802.5 1064.86
803.5 1213.86
804.5 1274.14
805.5 1443.14
806.5 1780.71
807.5 1735.43
808.5 1403
809.5 1235
810.5 992.286
811.5 935.714
812.5 1074.43
813.5 932.571
814.5 1109
815.5 1066
816.5 1014.86
817.5 1191.43
818.5 1037.29
819.5 1025.29
820.5 962.286
821.5 905.571
822.5 1103.29
823.5 1116.57
824.5 1243.29
825.5 1014.86
826.5 997.714
827.5 1271.14
828.5 1111.57
829.5 1207.43
830.5 1040
831.5 1170.43
832.5 1106.57
833.5 1133.57
834.5 1115.43
835.5 992.286
836.5 1011.86
837.5 997.143
838.5 1080.43
839.5 1136.14
840.5 1029.14
841.5 1000.86
842.5 1098.86
843.5 1162.86
844.5 971.286
845.5 1114.71
846.5 1279.57
847.5 964.571
848.5 1086.29
849.5 1037.43
850.5 1209.14
851.5 1055.71
852.5 1230
853.5 1093.86
854.5 1124.71
855.5 1229.86
856.5 1166
857.5 1077.43
858.5 1078.14
859.5 1158.57
860.5 1060.14
861.5 1288.29
862.5 1150
863.5 1131
864.5 1313.14
865.5 1202.57
866.5 1342.43
867.5 1287
868.5 1309.43
869.5 1395.14
870.5 1461.14
871.5 1092.57
872.5 1133.14
873.5 1234.43
874.5 1176.43
875.5 1158
876.5 1183.43
877.5 1107.86
878.5 1110.43
879.5 1186.43
880.5 1311.43
881.5 1321.71
882.5 1279.57
883.5 1204.14
884.5 1192
885.5 1294.71
886.5 1239.57
887.5 1128.14
888.5 1239.29
889.5 1349.57
890.5 1243.43
891.5 1411.71
892.5 1209
893.5 1331
894.5 1243.57
895.5 1238.71
896.5 1402.43
897.5 1287.86
898.5 1251.14
899.5 1302.57
900.5 1411.86
901.5 1269.71
902.5 1287.57
903.5 1321.14
904.5 1302.86
905.5 1582.29
906.5 1301.14
907.5 1261.57
908.5 1411.86
909.5 1392.86
910.5 1300.71
911.5 1434.86
912.5 1352.14
913.5 1424.29
914.5 1551.43
915.5 1314.43
916.5 1296.43
917.5 1491.71
918.5 1512.29
919.5 1399.71
920.5 1315.71
921.5 1369.29
922.5 1281.43
923.5 1460.43
924.5 1393.14
925.5 1307.86
926.5 1361.71
927.5 1408.57
928.5 1309
929.5 1491.86
930.5 1353.14
931.5 1481.86
932.5 1447.71
933.5 1351.57
934.5 1373.43
935.5 1145.29
936.5 1442.57
937.5 1365.29
938.5 1495.29
939.5 1265.86
940.5 1502.29
941.5 1259.71
942.5 1413
943.5 1518.29
944.5 1425.29
945.5 1256.86
946.5 1342.71
947.5 1111
948.5 1117.14
949.5 1148.71
950.5 1195
951.5 1262.14
952.5 1139.71
953.5 1169.57
954.5 1163.14
955.5 1179.29
956.5 1126.29
957.5 1097.29
958.5 1156
959.5 989.286
960.5 1235.43
961.5 1157.14
962.5 1005
963.5 1113.71
964.5 1239.14
965.5 1110.14
966.5 1137.71
967.5 1077.43
968.5 1032.29
969.5 1011
970.5 1002.43
971.5 883.429
972.5 1005.29
973.5 905.143
974.5 1021.43
975.5 997.143
976.5 938.429
977.5 926.286
978.5 970.286
979.5 1032.14
980.5 1007.71
981.5 1097.57
982.5 998.571
983.5 1089.14
984.5 978.143
985.5 904
986.5 832.429
987.5 930.429
988.5 1009.57
989.5 964.714
990.5 1068.29
991.5 911.429
992.5 830.857
993.5 922
994.5 954.429
995.5 1031.71
996.5 786.571
997.5 917.857
998.5 830.429
999.5 866.857
1000.5 1506.71
1001.5 2104.43
1002.5 2103.43
1003.5 1300.57
1004.5 814
1005.5 1057.71
1006.5 831.857
1007.5 873.857
1008.5 923.714
1009.5 931
1010.5 776.286
1011.5 849.286
1012.5 846.429
1013.5 810.143
1014.5 946.143
1015.5 941.857
1016.5 803
1017.5 702.429
1018.5 893
1019.5 830.143
1020.5 839
1021.5 882.857
1022.5 698.143
1023.5 836.571
1024.5 1015.43
1025.5 938.286
1026.5 849
1027.5 688
1028.5 754
1029.5 846.429
1030.5 656.286
1031.5 630.286
1032.5 731.857
1033.5 700.143
1034.5 746
1035.5 731.286
1036.5 693.429
1037.5 822.714
1038.5 678.429
1039.5 659.429
1040.5 675.571
1041.5 736
1042.5 714
1043.5 613.286
1044.5 676.714
1045.5 626.857
1046.5 584.714
1047.5 773.429
1048.5 547.286
1049.5 678.286
1050.5 613.714
1051.5 697
1052.5 674.857
1053.5 631.286
1054.5 601.286
1055.5 613.143
1056.5 568.286
1057.5 634.143
1058.5 459.857
1059.5 605.714
1060.5 649
1061.5 514.714
1062.5 817.857
1063.5 638.143
1064.5 689.143
1065.5 604.857
1066.5 758.714
1067.5 635.714
1068.5 705
1069.5 697.429
1070.5 660.286
1071.5 1071.43
1072.5 2229
1073.5 4870.57
1074.5 5831.43
1075.5 3090.43
1076.5 1194.14
1077.5 730.714
1078.5 622.714
1079.5 643.286
1080.5 544.143
1081.5 569.429
1082.5 690.286
1083.5 557
1084.5 498.571
1085.5 625.286
1086.5 576.143
1087.5 557
1088.5 598.286
1089.5 502.286
1090.5 720.143
1091.5 746.286
1092.5 727.143
1093.5 814.571
1094.5 696.429
1095.5 580.857
1096.5 628.714
1097.5 509.286
1098.5 681.714
1099.5 648.571
1100.5 606.143
1101.5 573.571
1102.5 724.571
1103.5 688.857
1104.5 503.714
1105.5 601.143
1106.5 533.857
1107.5 636.714
1108.5 615.286
1109.5 649
1110.5 647.571
1111.5 694.143
1112.5 670.857
1113.5 466.143
1114.5 533.571
1115.5 619.286
1116.5 709.286
1117.5 533.429
1118.5 722
1119.5 662.571
1120.5 530.429
1121.5 566
1122.5 1147.57
1123.5 3368.71
1124.5 11009.3
1125.5 25962.7
1126.5 29970.6
1127.5 13446.1
1128.5 3312.29
1129.5 1121.29
1130.5 636
1131.5 646.429
1132.5 571.714
1133.5 533.286
1134.5 599.857
1135.5 630.143
1136.5 535
1137.5 509.571
1138.5 639.286
1139.5 648.143
1140.5 473
1141.5 567.714
1142.5 528.143
1143.5 558.429
1144.5 611.143
1145.5 678.143
1146.5 573.714
1147.5 630
1148.5 601.286
1149.5 673.714
1150.5 740.714
1151.5 736.429
1152.5 888.429
1153.5 2036.29
1154.5 7700.29
1155.5 26487.9
1156.5 57430
1157.5 59320.7
1158.5 24606.9
1159.5 5406.57
1160.5 1450.86
1161.5 630
1162.5 551.857
1163.5 404
1164.5 393.714
1165.5 581.143
1166.5 461.571
1167.5 504.143
1168.5 486.286
1169.5 424.429
1170.5 476.429
1171.5 426.714
1172.5 424.857
1173.5 419
1174.5 388.571
1175.5 461.143
1176.5 445.857
1177.5 382.429
1178.5 465
1179.5 409.143
1180.5 470.286
1181.5 517.286
1182.5 438.429
1183.5 340.571
1184.5 459.286
1185.5 404.714
1186.5 405.571
1187.5 388
1188.5 570.571
1189.5 703.857
1190.5 1247.86
1191.5 1384.14
1192.5 853.429
1193.5 521.714
1194.5 390.714
1195.5 395.286
1196.5 438
1197.5 324
1198.5 309.571
1199.5 466.429
1200.5 376.857
1201.5 396.714
1202.5 435
1203.5 444
1204.5 339
1205.5 333.143
1206.5 443.714
1207.5 406
1208.5 423.143
1209.5 320.286
1210.5 437.429
1211.5 353.429
1212.5 447.143
1213.5 435.286
1214.5 285.429
1215.5 374.143
1216.5 471.286
1217.5 426.286
1218.5 387.429
1219.5 378.571
1220.5 339.857
1221.5 345.286
1222.5 412.571
1223.5 343.571
1224.5 452.714
1225.5 487.143
1226.5 386.857
1227.5 450.286
1228.5 367
1229.5 473.571
1230.5 296.714
1231.5 380.286
1232.5 401.429
1233.5 392.286
1234.5 361.429
1235.5 324.571
1236.5 352
1237.5 453.143
1238.5 359.571
1239.5 365
1240.5 518.429
1241.5 490.571
1242.5 488.143
1243.5 403.143
1244.5 449.714
1245.5 396.714
1246.5 311
1247.5 335.429
1248.5 352
1249.5 318.857
1250.5 353.857
1251.5 346.143
1252.5 370.143
1253.5 333.286
1254.5 359
1255.5 434.286
1256.5 428.286
1257.5 441.714
1258.5 396.857
1259.5 374.429
1260.5 378
1261.5 460.571
1262.5 382.571
1263.5 395.857
1264.5 436.429
1265.5 419
1266.5 396
1267.5 448
1268.5 406.857
1269.5 330.429
1270.5 409
1271.5 413.429
1272.5 358.571
1273.5 344
1274.5 370.286
1275.5 290.714
1276.5 443.286
1277.5 389.286
1278.5 339.857
1279.5 449.286
1280.5 341.857
1281.5 337.571
1282.5 302.571
1283.5 382.286
1284.5 383.286
1285.5 399
1286.5 336.286
1287.5 335
1288.5 173.857
1289.5 306.714
1290.5 334.571
1291.5 292
1292.5 366.714
1293.5 344
1294.5 369.857
1295.5 311.143
1296.5 308.571
1297.5 334.286
1298.5 405
1299.5 347.286
1300.5 319.286
1301.5 308.429
1302.5 298.714
1303.5 261.143
1304.5 290
1305.5 367
1306.5 300.857
1307.5 333.429
1308.5 186.571
1309.5 26.4286
1310.5 243.571
1311.5 303.286
1312.5 223.286
1313.5 366.143
1314.5 342.714
1315.5 457.571
1316.5 293.571
1317.5 388.286
1318.5 424.714
1319.5 305.429
1320.5 265.286
1321.5 350.429
1322.5 294.143
1323.5 376.286
1324.5 321.429
1325.5 339.286
1326.5 342
1327.5 339.143
1328.5 250.857
1329.5 335.857
1330.5 417.429
1331.5 639.429
1332.5 430.143
1333.5 408
1334.5 342.143
1335.5 231.714
1336.5 293.571
1337.5 336.286
1338.5 275.286
1339.5 347.857
1340.5 341.857
1341.5 259.286
1342.5 274.571
1343.5 223.857
1344.5 360.571
1345.5 400.571
1346.5 374.143
1347.5 398
1348.5 328.857
1349.5 309.429
1350.5 362.429
1351.5 472.571
1352.5 661.714
1353.5 597.857
1354.5 413.571
1355.5 379.429
1356.5 346.857
1357.5 327.143
1358.5 273.571
1359.5 296.857
1360.5 385.143
1361.5 241.429
1362.5 318.286
1363.5 364.286
1364.5 288.571
1365.5 241.714
1366.5 224.286
1367.5 189.857
1368.5 357.286
1369.5 267.286
1370.5 334.857
1371.5 266.571
1372.5 375.286
1373.5 375
1374.5 430.143
1375.5 416.429
1376.5 475.857
1377.5 401.286
1378.5 354.143
1379.5 309.571
1380.5 275.714
1381.5 345.429
1382.5 322.143
1383.5 452.857
1384.5 747
1385.5 2416.86
1386.5 6408.43
1387.5 11799
1388.5 10328.3
1389.5 4097.71
1390.5 1165.43
1391.5 484
1392.5 312.714
1393.5 320.429
1394.5 304.143
1395.5 309.429
1396.5 376.286
1397.5 432.143
1398.5 343.714
1399.5 318.429
1400.5 343.571
1401.5 415.429
1402.5 346.571
1403.5 329.571
1404.5 340.857
1405.5 393.143
1406.5 257.857
1407.5 344.143
1408.5 354.714
1409.5 377.143
1410.5 286
1411.5 288.143
1412.5 235.429
1413.5 229.857
1414.5 225.857
1415.5 306.714
1416.5 248.857
1417.5 301.143
1418.5 284.571
1419.5 246.286
1420.5 189.286
1421.5 194.714
1422.5 262.714
1423.5 228.143
1424.5 345.286
1425.5 223
1426.5 267.857
1427.5 294.714
1428.5 390.857
1429.5 413
1430.5 279.714
1431.5 284.714
1432.5 285.857
1433.5 296.143
1434.5 213.857
1435.5 328.143
1436.5 336.857
1437.5 300.571
1438.5 255.571
1439.5 316.286
1440.5 273
1441.5 359.286
1442.5 248.286
1443.5 231.571
1444.5 289.286
1445.5 253
1446.5 170.429
1447.5 279
1448.5 260
1449.5 195.286
1450.5 292.714
1451.5 278
1452.5 264.857
1453.5 385.714
1454.5 377
1455.5 462.857
1456.5 374.714
1457.5 258.714
1458.5 350.143
1459.5 341.286
1460.5 261
1461.5 284.286
1462.5 234.571
1463.5 281.429
1464.5 284.571
1465.5 142
1466.5 279.143
1467.5 311.429
1468.5 291.571
1469.5 258.714
1470.5 282.857
1471.5 216
1472.5 305.429
1473.5 259.143
1474.5 217.429
1475.5 140.286
1476.5 208
1477.5 331.286
1478.5 293.286
1479.5 367.714
1480.5 294.429
1481.5 298.571
1482.5 136.571
1483.5 309.571
1484.5 283.286
1485.5 264.714
1486.5 241.143
1487.5 227
1488.5 283.857
1489.5 209.143
1490.5 364
1491.5 242.571
1492.5 275.857
1493.5 365.571
1494.5 325.714
1495.5 373.714
1496.5 708.429
1497.5 2069.57
1498.5 4829.29
1499.5 6710.43
1500.5 4195.43
1501.5 1744
1502.5 513.857
1503.5 330.571
1504.5 207.857
1505.5 270.429
1506.5 309
1507.5 370.571
1508.5 279.857
1509.5 372.286
1510.5 321.429
1511.5 238.714
1512.5 326.714
1513.5 204
1514.5 264.857
1515.5 224.571
1516.5 278
1517.5 174.429
1518.5 251.429
1519.5 268
1520.5 362.714
1521.5 214.286
1522.5 200.286
1523.5 235.429
1524.5 315.857
1525.5 318.286
1526.5 327.857
1527.5 201.857
1528.5 297.714
1529.5 303
1530.5 361.857
1531.5 192.143
1532.5 255.857
1533.5 331.429
1534.5 352
1535.5 242.714
1536.5 297.857
1537.5 278
1538.5 295.143
1539.5 204.286
1540.5 302.857
1541.5 224.429
1542.5 289.143
1543.5 317.286
1544.5 338.143
1545.5 254.143
1546.5 343.429
1547.5 300.857
1548.5 323.571
1549.5 276.286
1550.5 319.857
1551.5 280.857
1552.5 300.714
1553.5 254.429
1554.5 361.571
1555.5 264.714
1556.5 319.429
1557.5 225.571
1558.5 288.429
1559.5 211.571
1560.5 301.429
1561.5 273.714
1562.5 374
1563.5 325
1564.5 312.429
1565.5 324.714
1566.5 202.286
1567.5 300.571
1568.5 213.286
1569.5 343.714
1570.5 331.429
1571.5 467.857
1572.5 376
1573.5 405.286
1574.5 335.857
1575.5 210.429
1576.5 328.286
1577.5 384.714
1578.5 579
1579.5 682.286
1580.5 490.571
1581.5 410.286
1582.5 287.857
1583.5 323.571
1584.5 218.286
1585.5 196
1586.5 219.857
1587.5 253.429
1588.5 286.571
1589.5 225.429
1590.5 327.286
1591.5 257.286
1592.5 320.143
1593.5 328.857
1594.5 299.429
1595.5 319.143
1596.5 311.286
1597.5 310.714
1598.5 262.857
1599.5 186
1600.5 325.857
1601.5 300.857
1602.5 283.857
1603.5 243.571
1604.5 385.714
1605.5 263.143
1606.5 293.286
1607.5 297.143
1608.5 307.143
1609.5 276
1610.5 385.571
1611.5 317
1612.5 289.714
1613.5 249.571
1614.5 226
1615.5 306.143
1616.5 317.714
1617.5 275.857
1618.5 223.143
1619.5 271.143
1620.5 294.429
1621.5 248.286
1622.5 312.571
1623.5 274.857
1624.5 430.857
1625.5 240.571
1626.5 314.571
1627.5 328.286
1628.5 358.143
1629.5 420
1630.5 416.286
1631.5 394.286
1632.5 352.571
1633.5 432.857
1634.5 404.714
1635.5 280
1636.5 383
1637.5 330.857
1638.5 434.286
1639.5 362
1640.5 420.143
1641.5 348.571
1642.5 388.857
1643.5 313.286
1644.5 372.571
1645.5 253
1646.5 229
1647.5 422.857
1648.5 298.571
1649.5 292.857
1650.5 294.714
1651.5 341.286
1652.5 378.857
1653.5 380.714
1654.5 411
1655.5 403.857
1656.5 336.857
1657.5 256.429
1658.5 212.714
1659.5 170.857
1660.5 248.429
1661.5 304.143
1662.5 267
1663.5 359.286
1664.5 327.286
1665.5 281.571
1666.5 316
1667.5 311.143
1668.5 295.857
1669.5 353.286
1670.5 318.429
1671.5 220.571
1672.5 290.143
1673.5 242.286
1674.5 270
1675.5 257.143
1676.5 229.286
1677.5 187.286
1678.5 191.714
1679.5 261.286
1680.5 277.571
1681.5 254.571
1682.5 233.286
1683.5 258
1684.5 298.429
1685.5 277.857
1686.5 318
1687.5 343.571
1688.5 282.714
1689.5 270
1690.5 171
1691.5 301.143
1692.5 216.857
1693.5 312.571
1694.5 258.286
1695.5 272.714
1696.5 307.857
1697.5 331.571
1698.5 184.571
1699.5 303.714
1700.5 213.714
1701.5 276
1702.5 292.571
1703.5 324
1704.5 491.571
1705.5 542.714
1706.5 666.429
1707.5 474.714
1708.5 448.429
1709.5 209.714
1710.5 226.143
1711.5 241.286
1712.5 229.429
1713.5 283.857
1714.5 270.286
1715.5 203.857
1716.5 308
1717.5 474.714
1718.5 536.286
1719.5 356.286
1720.5 340
1721.5 265.143
1722.5 243.286
1723.5 205.571
1724.5 264.143
1725.5 294.286
1726.5 362.714
1727.5 245.429
1728.5 310.286
1729.5 233.571
1730.5 305.286
1731.5 365.286
1732.5 319.143
1733.5 259.857
1734.5 230.857
1735.5 291
1736.5 216.429
1737.5 281.143
1738.5 209.286
1739.5 323.571
1740.5 266.286
1741.5 351.286
1742.5 277.143
1743.5 275.571
1744.5 165.286
1745.5 154.143
1746.5 265.429
1747.5 224.286
1748.5 243.571
1749.5 214.714
1750.5 194
1751.5 177.571
1752.5 207.857
1753.5 254.286
1754.5 320.143
1755.5 251
1756.5 293.857
1757.5 284.571
1758.5 209.571
1759.5 212.857
1760.5 203.286
1761.5 189.429
1762.5 307.571
1763.5 247.429
1764.5 235
1765.5 240.571
1766.5 257.429
1767.5 230.286
1768.5 268.286
1769.5 373
1770.5 437.714
1771.5 730.143
1772.5 777.857
1773.5 623.429
1774.5 435.571
1775.5 184.286
1776.5 191.429
1777.5 210
1778.5 218.286
1779.5 238.143
1780.5 181
1781.5 190.286
1782.5 266.429
1783.5 185.143
1784.5 220.571
1785.5 195
1786.5 202.286
1787.5 267
1788.5 239
1789.5 183.571
1790.5 189.143
1791.5 254.857
1792.5 312
1793.5 223
1794.5 211.714
1795.5 225.143
1796.5 208
1797.5 336
1798.5 372
1799.5 300.857
1800.5 271.286
1801.5 259
1802.5 173.429
1803.5 279.429
1804.5 289
1805.5 288.714
1806.5 283.429
1807.5 381.429
1808.5 474.143
1809.5 446.571
1810.5 357.429
1811.5 227
1812.5 259.286
1813.5 167.429
1814.5 197.286
1815.5 231.286
1816.5 275.286
1817.5 324.571
1818.5 310.571
1819.5 331.286
1820.5 250.857
1821.5 181.429
1822.5 137.429
1823.5 315.143
1824.5 232.714
1825.5 244.286
1826.5 221.143
1827.5 200.429
1828.5 264.857
1829.5 240.429
1830.5 241.429
1831.5 220.143
1832.5 205.286
1833.5 245.714
1834.5 190.143
1835.5 167.143
1836.5 219
1837.5 244.857
1838.5 240.571
1839.5 225.714
1840.5 244.571
1841.5 198.286
1842.5 165.571
1843.5 315.571
1844.5 373.286
1845.5 265.714
1846.5 228.571
1847.5 197.429
1848.5 192
1849.5 231.286
1850.5 192.429
1851.5 216.143
1852.5 217.143
1853.5 202.571
1854.5 231.857
1855.5 207.429
1856.5 230.429
1857.5 283.857
1858.5 269.286
1859.5 202.286
1860.5 224.714
1861.5 207.143
1862.5 333.429
1863.5 217.714
1864.5 197.571
1865.5 217.857
1866.5 231.143
1867.5 229.857
1868.5 157.143
1869.5 252.571
1870.5 179.714
1871.5 273.429
1872.5 194.143
1873.5 310.571
1874.5 200
1875.5 348.429
1876.5 198.714
1877.5 129.714
1878.5 254.571
1879.5 194
1880.5 236
1881.5 190.429
1882.5 353.714
1883.5 752.429
1884.5 2305.86
1885.5 5592.29
1886.5 10950.4
1887.5 11451.6
1888.5 6285.57
1889.5 1861
1890.5 671.286
1891.5 291.714
1892.5 272
1893.5 217.571
1894.5 267.143
1895.5 191.286
1896.5 201.571
1897.5 175.429
1898.5 151.429
1899.5 157.429
1900.5 224.286
1901.5 99
1902.5 164.286
1903.5 239.143
1904.5 140
1905.5 202.714
1906.5 102
1907.5 225.714
1908.5 184.143
1909.5 279.286
1910.5 165.571
1911.5 200.571
1912.5 190.857
1913.5 158.286
1914.5 162
1915.5 214
1916.5 288.714
1917.5 334.286
1918.5 423.286
1919.5 319.571
1920.5 329.143
1921.5 371
1922.5 136.857
1923.5 259.714
1924.5 166.857
1925.5 229
1926.5 221.714
1927.5 333.714
1928.5 350.571
1929.5 357.429
1930.5 252.429
1931.5 238.143
1932.5 196.571
1933.5 130.143
1934.5 172.143
1935.5 243.714
1936.5 144.286
1937.5 170.571
1938.5 117.143
1939.5 184.571
1940.5 273.571
1941.5 214.714
1942.5 148
1943.5 229.857
1944.5 187.714
1945.5 273
1946.5 378.143
1947.5 334.429
1948.5 285
1949.5 196.143
1950.5 215.143
1951.5 265.286
1952.5 141.571
1953.5 161
1954.5 175.857
1955.5 114.143
1956.5 158.429
1957.5 227.714
1958.5 230.286
1959.5 324.857
1960.5 330.857
1961.5 261.429
1962.5 251.143
1963.5 248.571
1964.5 234.571
1965.5 91.5714
1966.5 204
1967.5 155
1968.5 161.286
1969.5 256.714
1970.5 244.571
1971.5 206.286
1972.5 188.429
1973.5 222
1974.5 162.571
1975.5 110.571
1976.5 147.143
1977.5 154.857
1978.5 201.429
1979.5 203.143
1980.5 190.429
1981.5 144.714
1982.5 187.286
1983.5 168.429
1984.5 262.143
1985.5 146.714
1986.5 268.429
1987.5 234.286
1988.5 155.571
1989.5 144.714
1990.5 193.857
1991.5 268.429
1992.5 309.714
1993.5 258.429
1994.5 232.714
1995.5 154.429
1996.5 50.7143
1997.5 118.571
1998.5 190.429
1999.5 132.714
2000.5 153.714
2001.5 180.286
2002.5 183.429
2003.5 192.429
2004.5 240.286
2005.5 285.714
2006.5 256.143
2007.5 254.571
2008.5 207.429
2009.5 165.857
2010.5 217.143
2011.5 115
2012.5 175.714
2013.5 156.429
2014.5 89.1429
2015.5 284
2016.5 122.857
2017.5 215.571
2018.5 186.714
2019.5 198.429
2020.5 165.571
2021.5 201.286
2022.5 174.571
2023.5 167.857
2024.5 205.286
2025.5 194.429
2026.5 205.143
2027.5 205.143
2028.5 296.429
2029.5 384
2030.5 314.714
2031.5 238
2032.5 160.571
2033.5 75.1429
2034.5 129.143
2035.5 170.286
2036.5 145
2037.5 136.714
2038.5 205.429
2039.5 260.429
2040.5 286
2041.5 448.286
2042.5 698.429
2043.5 852.429
2044.5 744.143
2045.5 434.571
2046.5 208.286
2047.5 162.143
2048.5 194.429
2049.5 202.571
2050.5 118.714
2051.5 145.571
2052.5 121.571
2053.5 278.429
2054.5 77.4286
2055.5 155.714
2056.5 161
2057.5 163.857
2058.5 205.143
2059.5 236.286
2060.5 147.571
2061.5 216.143
2062.5 182.571
2063.5 203.286
2064.5 109.143
2065.5 150.857
2066.5 152.143
2067.5 171.143
2068.5 168.429
2069.5 211
2070.5 123.857
2071.5 148.429
2072.5 157.857
2073.5 156.571
2074.5 151
2075.5 169
2076.5 124.857
2077.5 166.857
2078.5 178.714
2079.5 136.286
2080.5 208.143
2081.5 139.143
2082.5 162.429
2083.5 232.286
2084.5 193.143
2085.5 550.714
2086.5 1024.14
2087.5 1894.57
2088.5 2313
2089.5 1690.29
2090.5 742.143
2091.5 298.714
2092.5 174.286
2093.5 172.286
2094.5 119.571
2095.5 224.571
2096.5 215.571
2097.5 167.571
2098.5 188.571
2099.5 93
2100.5 269.286
2101.5 170
2102.5 198
2103.5 175
2104.5 88
2105.5 166.571
2106.5 163.857
2107.5 222.571
2108.5 193.286
2109.5 97.8572
2110.5 160.286
2111.5 192
2112.5 250.857
2113.5 183.571
2114.5 100.143
2115.5 205.286
2116.5 145.429
2117.5 185.714
2118.5 197.429
2119.5 202
2120.5 198
2121.5 197.857
2122.5 270.714
2123.5 129.143
2124.5 176.143
2125.5 171.571
2126.5 183
2127.5 228.286
2128.5 229.429
2129.5 149.286
2130.5 167.714
2131.5 165.286
2132.5 112.714
2133.5 175
2134.5 155.286
2135.5 178.714
2136.5 113.714
2137.5 176.143
2138.5 120.429
2139.5 139.857
2140.5 133.714
2141.5 151
2142.5 198.857
2143.5 114.286
2144.5 289.571
2145.5 233.571
2146.5 213.571
2147.5 212
2148.5 158.286
2149.5 524.857
2150.5 566.857
2151.5 364.857
2152.5 263.429
2153.5 231
2154.5 231.429
2155.5 223
2156.5 180
2157.5 198.429
2158.5 184.286
2159.5 182.286
2160.5 167.714
2161.5 371
2162.5 498.143
2163.5 694.143
2164.5 660.143
2165.5 333.571
2166.5 233.571
2167.5 179.714
2168.5 174.143
2169.5 211.571
2170.5 164.143
2171.5 173.286
2172.5 219.143
2173.5 178.143
2174.5 180.857
2175.5 175.429
2176.5 183
2177.5 132.286
2178.5 127.429
2179.5 113.143
2180.5 103.571
2181.5 167.429
2182.5 89.1429
2183.5 168.714
2184.5 215
2185.5 178.429
2186.5 220
2187.5 293.429
2188.5 228.857
2189.5 223.571
2190.5 186.286
2191.5 225.143
2192.5 181.571
2193.5 163
2194.5 190.714
2195.5 231.143
2196.5 111.143
2197.5 215.143
2198.5 377
2199.5 654.714
2200.5 566.857
2201.5 414
2202.5 213.857
2203.5 167.714
2204.5 166.857
2205.5 144.857
2206.5 123.429
2207.5 170.286
2208.5 121
2209.5 136.286
2210.5 149.143
2211.5 175.286
2212.5 184.571
2213.5 137.857
2214.5 116.429
2215.5 133.857
2216.5 133.857
2217.5 171.571
2218.5 179.857
2219.5 158.571
2220.5 125.286
2221.5 217
2222.5 293.429
2223.5 314
2224.5 208.143
2225.5 187.429
2226.5 116.429
2227.5 178.429
2228.5 226
2229.5 178.286
2230.5 185.429
2231.5 210.143
2232.5 196.143
2233.5 164.571
2234.5 136.714
2235.5 154.143
2236.5 113.429
2237.5 201.714
2238.5 169.286
2239.5 167.857
2240.5 166.286
2241.5 146.286
2242.5 171.143
2243.5 84.1429
2244.5 169.571
2245.5 155.571
2246.5 149.571
2247.5 195.286
2248.5 150.714
2249.5 173.714
2250.5 178.857
2251.5 148.571
2252.5 184
2253.5 138.571
2254.5 190.429
2255.5 145
2256.5 101.286
2257.5 125.714
2258.5 143
2259.5 146.429
2260.5 130.143
2261.5 185.857
2262.5 104.714
2263.5 117
2264.5 128.857
2265.5 203.714
2266.5 116
2267.5 170.429
2268.5 206.857
2269.5 178
2270.5 148.571
2271.5 180.286
2272.5 230.857
2273.5 157.857
2274.5 126.143
2275.5 153.714
2276.5 80
2277.5 148.429
2278.5 210.143
2279.5 104.429
2280.5 196
2281.5 292.857
2282.5 218.857
2283.5 204.143
2284.5 120.857
2285.5 202.571
2286.5 228.429
2287.5 337.714
2288.5 313.857
2289.5 229.429
2290.5 242.143
2291.5 152.571
2292.5 97.4286
2293.5 86
2294.5 113.571
2295.5 103.714
2296.5 113.571
2297.5 156.857
2298.5 97.5714
2299.5 190.286
2300.5 189.714
2301.5 113.571
2302.5 154.857
2303.5 115.714
2304.5 113.286
2305.5 104.571
2306.5 146.714
2307.5 110.857
2308.5 188
2309.5 177.571
2310.5 131.857
2311.5 145
2312.5 94.8572
2313.5 112.857
2314.5 186.571
2315.5 149.714
2316.5 157
2317.5 145.857
2318.5 189
2319.5 114.571
2320.5 105.571
2321.5 180.571
2322.5 168.714
2323.5 156.571
2324.5 190.143
2325.5 173.714
2326.5 153.143
2327.5 137.143
2328.5 131.714
2329.5 97.2857
2330.5 183.714
2331.5 166.714
2332.5 215.857
2333.5 199.571
2334.5 241.429
2335.5 231.571
2336.5 317
2337.5 160.714
2338.5 200.429
2339.5 180
2340.5 175.857
2341.5 170
2342.5 142
2343.5 276.429
2344.5 209.571
2345.5 181.286
2346.5 216.571
2347.5 214.571
2348.5 343
2349.5 442.714
2350.5 399
2351.5 334.143
2352.5 302.571
2353.5 170
2354.5 180.143
2355.5 152.571
2356.5 102.714
2357.5 94.2857
2358.5 133.571
2359.5 85.7143
2360.5 119.714
2361.5 102.571
2362.5 121.857
2363.5 117.286
2364.5 127.714
2365.5 127.714
2366.5 110.571
2367.5 122.429
2368.5 168.286
2369.5 167.429
2370.5 99.7143
2371.5 119.286
2372.5 171.429
2373.5 143.571
2374.5 110.429
2375.5 122
2376.5 165
2377.5 211.857
2378.5 142.429
2379.5 164.571
2380.5 64.5714
2381.5 149.857
2382.5 122.714
2383.5 69.7143
2384.5 160.143
2385.5 124.714
2386.5 177
2387.5 119.857
2388.5 105.143
2389.5 106.857
2390.5 67.4286
2391.5 110.714
2392.5 123.571
2393.5 137.429
2394.5 119
2395.5 156.857
2396.5 166.429
2397.5 102.857
2398.5 82.8572
2399.5 118.143
2400.5 102.571
2401.5 164.429
2402.5 152.286
2403.5 145.571
2404.5 165.143
2405.5 141
2406.5 151.429
2407.5 118.286
2408.5 84.7143
2409.5 106.429
2410.5 108.857
2411.5 139.429
2412.5 193.286
2413.5 144.857
2414.5 177.429
2415.5 160.286
2416.5 188.857
2417.5 200.429
2418.5 149.714
2419.5 120.571
2420.5 126.857
2421.5 131.286
2422.5 129.571
2423.5 89.1429
2424.5 138.286
2425.5 196
2426.5 284.286
2427.5 652.143
2428.5 1025.29
2429.5 1836.57
2430.5 2781.29
2431.5 2785.57
2432.5 1798
2433.5 763.143
2434.5 296.286
2435.5 193.714
2436.5 119
2437.5 120.286
2438.5 60.2857
2439.5 89.2857
2440.5 102
2441.5 134.714
2442.5 69.4286
2443.5 109.857
2444.5 161.143
2445.5 109
2446.5 144.857
2447.5 122.857
2448.5 125.571
2449.5 108.429
2450.5 62.4286
2451.5 123.429
2452.5 152.429
2453.5 132.143
2454.5 104.571
2455.5 141.143
2456.5 117.714
2457.5 200.857
2458.5 124
2459.5 169
2460.5 128.286
2461.5 104.571
2462.5 113.143
2463.5 161
2464.5 117.857
2465.5 87.4286
2466.5 144.143
2467.5 109.857
2468.5 123.714
2469.5 199.429
2470.5 74.4286
2471.5 134.857
2472.5 136
2473.5 214.143
2474.5 239.286
2475.5 170.143
2476.5 243.857
2477.5 231.143
2478.5 212.286
2479.5 159.714
2480.5 172.286
2481.5 128
2482.5 102.571
2483.5 176.286
2484.5 155.429
2485.5 135.714
2486.5 91
2487.5 150.429
2488.5 153
2489.5 119
2490.5 100
2491.5 121.286
2492.5 134.143
2493.5 132.571
2494.5 77.7143
2495.5 58.2857
2496.5 119.143
2497.5 91.8572
2498.5 137.714
2499.5 154.143
2500.5 188.286
2501.5 220.857
2502.5 301.143
2503.5 362.429
2504.5 297.571
2505.5 172.429
2506.5 208.857
2507.5 130.429
2508.5 105.286
2509.5 103.571
2510.5 158.286
2511.5 159.429
2512.5 123.571
2513.5 76.7143
2514.5 147.714
2515.5 75.1429
2516.5 95
2517.5 264.429
2518.5 327.714
2519.5 401.571
2520.5 250.714
2521.5 151.571
2522.5 148.286
2523.5 115.571
2524.5 55.2857
2525.5 88.1429
2526.5 86.5714
2527.5 149.429
2528.5 150.429
2529.5 129.143
2530.5 84.1429
2531.5 145.286
2532.5 155.429
2533.5 168.429
2534.5 145.143
2535.5 112.143
2536.5 168.286
2537.5 166.714
2538.5 90.2857
2539.5 139.429
2540.5 141.857
2541.5 104
2542.5 92
2543.5 95.5714
2544.5 131.571
2545.5 193.286
2546.5 139
2547.5 156.571
2548.5 189.571
2549.5 214.714
2550.5 169.714
2551.5 210.286
2552.5 189.143
2553.5 240.429
2554.5 157
2555.5 195.857
2556.5 164.429
2557.5 96.4286
2558.5 59.5714
2559.5 144
2560.5 110.714
2561.5 152.857
2562.5 71
2563.5 170
2564.5 163.286
2565.5 139.286
2566.5 147.143
2567.5 163.714
2568.5 116.857
2569.5 114.286
2570.5 158.571
2571.5 98.2857
2572.5 115.286
2573.5 115.286
2574.5 188
2575.5 79.8572
2576.5 155.571
2577.5 65.7143
2578.5 146.571
2579.5 97.4286
2580.5 134
2581.5 67.4286
2582.5 134
2583.5 102.429
2584.5 100.571
2585.5 215.857
2586.5 219.429
2587.5 191.143
2588.5 254.286
2589.5 188.429
2590.5 145.571
2591.5 173.143
2592.5 87.7143
2593.5 108.429
2594.5 122.429
2595.5 149.714
2596.5 88.7143
2597.5 103.429
2598.5 216.571
2599.5 115.429
2600.5 177
2601.5 133.857
2602.5 156.857
2603.5 182.857
2604.5 217.714
2605.5 260.286
2606.5 270.143
2607.5 251.286
2608.5 179.571
2609.5 166.571
2610.5 195.571
2611.5 134.429
2612.5 167.857
2613.5 112.714
2614.5 96.7143
2615.5 84
2616.5 133.714
2617.5 165.714
2618.5 175.571
2619.5 227
2620.5 239.714
2621.5 148
2622.5 151.571
2623.5 166.143
2624.5 165.286
2625.5 119.571
2626.5 158.857
2627.5 121
2628.5 119.429
2629.5 136.286
2630.5 84
2631.5 87.7143
2632.5 67.5714
2633.5 80.2857
2634.5 89.8572
2635.5 50.1429
2636.5 129.571
2637.5 109
2638.5 112
2639.5 107.857
2640.5 147.571
2641.5 117.286
2642.5 157.286
2643.5 111
2644.5 139.286
2645.5 88.4286
2646.5 111
2647.5 127.286
2648.5 121.143
2649.5 196.714
2650.5 99.5714
2651.5 156.429
2652.5 185.857
2653.5 277
2654.5 370
2655.5 568.714
2656.5 640.143
2657.5 509.571
2658.5 334.286
2659.5 272.286
2660.5 129
2661.5 179
2662.5 152.286
2663.5 83.4286
2664.5 96.5714
2665.5 130.571
2666.5 113.143
2667.5 175.429
2668.5 181
2669.5 315.857
2670.5 235.143
2671.5 241.429
2672.5 177.143
2673.5 167.143
2674.5 141.429
2675.5 131.143
2676.5 138.571
2677.5 71.8572
2678.5 162.857
2679.5 120.286
2680.5 108
2681.5 140.857
2682.5 140
2683.5 82.1429
2684.5 129.714
2685.5 158
2686.5 57.8572
2687.5 77.2857
2688.5 64
2689.5 191.714
2690.5 126.714
2691.5 88.2857
2692.5 83.8572
2693.5 114
2694.5 187
2695.5 120.286
2696.5 105.429
2697.5 87.8572
2698.5 66.4286
2699.5 116.857
2700.5 138.429
2701.5 106.857
2702.5 123.857
2703.5 102.714
2704.5 101.429
2705.5 97
2706.5 158.429
2707.5 102.714
2708.5 123.714
2709.5 105.571
2710.5 182.714
2711.5 120.143
2712.5 119.143
2713.5 118.857
2714.5 103.571
2715.5 98.8572
2716.5 141.571
2717.5 187.143
2718.5 165
2719.5 159
2720.5 146.143
2721.5 182.143
2722.5 119.714
2723.5 160.571
2724.5 145
2725.5 119.429
2726.5 145.714
2727.5 165.286
2728.5 121.857
2729.5 162.429
2730.5 177.714
2731.5 145.571
2732.5 134.429
2733.5 129.571
2734.5 179.857
2735.5 171.714
2736.5 122.143
2737.5 79.8572
2738.5 157.429
2739.5 145.143
2740.5 115.286
2741.5 166.429
2742.5 179.143
2743.5 79.4286
2744.5 110.429
2745.5 137.143
2746.5 90.7143
2747.5 79.7143
2748.5 190
2749.5 113.714
2750.5 136
2751.5 164.857
2752.5 90.2857
2753.5 131.857
2754.5 55.2857
2755.5 150.143
2756.5 197.571
2757.5 148.857
2758.5 129.286
2759.5 98
2760.5 129.571
2761.5 192.286
2762.5 75.1429
2763.5 126.571
2764.5 77.5714
2765.5 172.286
2766.5 126.714
2767.5 153.714
2768.5 109.714
2769.5 153.714
2770.5 119.571
2771.5 96.4286
2772.5 128.286
2773.5 193.286
2774.5 137.857
2775.5 117.857
2776.5 105.571
2777.5 102.429
2778.5 131.429
2779.5 160.857
2780.5 74.8572
2781.5 122.286
2782.5 64
2783.5 144.571
2784.5 54.7143
2785.5 101.429
2786.5 119.143
2787.5 108.143
2788.5 97
2789.5 117.714
2790.5 108
2791.5 87
2792.5 64
2793.5 82.1429
2794.5 120.714
2795.5 107.429
2796.5 133
2797.5 82.5714
2798.5 145.857
2799.5 75.2857
2800.5 199.857
2801.5 157.857
2802.5 98
2803.5 174.857
2804.5 93.1429
2805.5 104.714
2806.5 90.8572
2807.5 114.571
2808.5 101.857
2809.5 43.5714
2810.5 80.4286
2811.5 135.857
2812.5 65.1429
2813.5 134.857
2814.5 125.286
2815.5 85.5714
2816.5 130.857
2817.5 135.286
2818.5 87.5714
2819.5 132.714
2820.5 114.286
2821.5 176.571
2822.5 154.714
2823.5 128.143
2824.5 183
2825.5 83.2857
2826.5 75.7143
2827.5 70.7143
2828.5 151.857
2829.5 112.571
2830.5 178.429
2831.5 145.429
2832.5 155.857
2833.5 118.857
2834.5 96.4286
2835.5 114
2836.5 95.2857
2837.5 101.571
2838.5 110.143
2839.5 104.143
2840.5 129.143
2841.5 116.286
2842.5 237.714
2843.5 293.571
2844.5 535.714
2845.5 781.286
2846.5 1203.14
2847.5 1033.86
2848.5 695.857
2849.5 254.429
2850.5 144.143
2851.5 83.7143
2852.5 87
2853.5 82.5714
2854.5 117.857
2855.5 150
2856.5 92.8572
2857.5 44.8572
2858.5 109.857
2859.5 46.4286
2860.5 115.714
2861.5 102
2862.5 60.2857
2863.5 72.2857
2864.5 78.5714
2865.5 82.7143
2866.5 116.857
2867.5 104.429
2868.5 133.143
2869.5 93.1429
2870.5 126.714
2871.5 121.429
2872.5 109.857
2873.5 118.429
2874.5 152.143
2875.5 104.143
2876.5 77.4286
2877.5 101.143
2878.5 126.429
2879.5 103.429
2880.5 102
2881.5 111.143
2882.5 114.571
2883.5 87
2884.5 89.1429
2885.5 100.857
2886.5 136.429
2887.5 83.8572
2888.5 106.143
2889.5 106.286
2890.5 60.8572
2891.5 71.7143
2892.5 139.429
2893.5 156.286
2894.5 136.714
2895.5 90.2857
2896.5 90
2897.5 83.4286
2898.5 68.5714
2899.5 93.1429
2900.5 48.2857
2901.5 143.143
2902.5 59.2857
2903.5 73.4286
2904.5 64.5714
2905.5 125.571
2906.5 95.1429
2907.5 102.857
2908.5 116.429
2909.5 158.571
2910.5 123.571
2911.5 111.286
2912.5 142.571
2913.5 138
2914.5 97.8572
2915.5 98.4286
2916.5 108.429
2917.5 58.2857
2918.5 116.143
2919.5 68.7143
2920.5 121.857
2921.5 74
2922.5 108.429
2923.5 58.2857
2924.5 107.143
2925.5 48
2926.5 85.2857
2927.5 89.5714
2928.5 63.2857
2929.5 111.714
2930.5 93.8571
2931.5 109.286
2932.5 99.1429
2933.5 111.286
2934.5 122
2935.5 165.571
2936.5 148.143
2937.5 143
2938.5 130.143
2939.5 109.857
2940.5 66.4286
2941.5 68.2857
2942.5 119.429
2943.5 129.143
2944.5 93.1429
2945.5 117.571
2946.5 151.286
2947.5 122.571
2948.5 173.857
2949.5 137.571
2950.5 99.5714
2951.5 146.571
2952.5 166.571
2953.5 44.1429
2954.5 114.571
2955.5 90.7143
2956.5 122.857
2957.5 110.143
2958.5 122.143
2959.5 83.4286
2960.5 113.857
2961.5 133.143
2962.5 74.2857
2963.5 132.286
2964.5 76.7143
2965.5 68.4286
2966.5 146.429
2967.5 114.571
2968.5 105
2969.5 109.286
2970.5 83.2857
2971.5 24.4286
2972.5 144.714
2973.5 83.2857
2974.5 142.571
2975.5 91.5714
2976.5 97.4286
2977.5 89
2978.5 93.7143
2979.5 122.714
2980.5 160.143
2981.5 135.429
2982.5 83
2983.5 95
2984.5 56
2985.5 92.2857
2986.5 45.8571
2987.5 80.4286
2988.5 115
2989.5 59.5714
2990.5 124.429
2991.5 82.4286
2992.5 103.429
2993.5 88.8571
2994.5 144.571
2995.5 121
2996.5 94.8572
2997.5 67.8571
2998.5 43.8572
2999.5 74.1429
3000.5 103.429
3001.5 133.857
3002.5 100.857
3003.5 79.1429
3004.5 130.286
3005.5 98.1429
3006.5 143.571
3007.5 115.571
3008.5 183.143
3009.5 212
3010.5 356.857
3011.5 664.286
3012.5 1242.71
3013.5 1977.57
3014.5 2642.57
3015.5 2363.57
3016.5 1325.29
3017.5 523
3018.5 250.857
3019.5 114.714
3020.5 123.857
3021.5 69.5714
3022.5 89.8572
3023.5 71.4286
3024.5 122.714
3025.5 86.5714
3026.5 101.714
3027.5 57.7143
3028.5 126.857
3029.5 166
3030.5 210.714
3031.5 295.429
3032.5 261.857
3033.5 232.714
3034.5 123.714
3035.5 75.2857
3036.5 218.286
3037.5 274
3038.5 277
3039.5 230.857
3040.5 162
3041.5 136.714
3042.5 117.429
3043.5 98.2857
3044.5 60.5714
3045.5 51.4286
3046.5 64.7143
3047.5 69
3048.5 98.7143
3049.5 156.429
3050.5 188.286
3051.5 247.857
3052.5 263.857
3053.5 165.714
3054.5 79.5714
3055.5 60
3056.5 78
3057.5 86.8571
3058.5 82
3059.5 60.5714
3060.5 84.2857
3061.5 14.4286
3062.5 68.1429
3063.5 84
3064.5 85.5714
3065.5 75.5714
3066.5 89.8571
3067.5 107.857
3068.5 78.5714
3069.5 25.7143
3070.5 42.4286
3071.5 37.8572
3072.5 20.1429
3073.5 59
3074.5 143.857
3075.5 114
3076.5 124
3077.5 65.8571
3078.5 134.857
3079.5 125.286
3080.5 119.143
3081.5 93.5714
3082.5 90.8571
3083.5 66.4286
3084.5 132.286
3085.5 37.4286
3086.5 120.286
3087.5 116
3088.5 97.2857
3089.5 96.2857
3090.5 77.2857
3091.5 101.286
3092.5 112.286
3093.5 124
3094.5 91.2857
3095.5 93.8571
3096.5 48
3097.5 126.429
3098.5 124.571
3099.5 83.1429
3100.5 113.857
3101.5 77.8571
3102.5 7.14286
3103.5 52.8571
3104.5 111.571
3105.5 164.429
3106.5 116.857
3107.5 155
3108.5 193.143
3109.5 156.429
3110.5 210.571
3111.5 167
3112.5 49
3113.5 83.8572
3114.5 91.8572
3115.5 123.143
3116.5 80.7143
3117.5 92.7143
3118.5 93.7143
3119.5 143.857
3120.5 53.1429
3121.5 50
3122.5 116.429
3123.5 30.2857
3124.5 97.7143
3125.5 93.7143
3126.5 91.7143
3127.5 88
3128.5 83.5714
3129.5 38.5714
3130.5 79.4286
3131.5 100.143
3132.5 67.1429
3133.5 58.7143
3134.5 32.4286
3135.5 64.2857
3136.5 16.8571
3137.5 71
3138.5 86.5714
3139.5 130.286
3140.5 113.429
3141.5 33.4286
3142.5 91.1429
3143.5 53.8571
3144.5 142.857
3145.5 113.286
3146.5 71.2857
3147.5 65.2857
3148.5 87.1429
3149.5 86.5714
3150.5 121.286
3151.5 66
3152.5 101.143
3153.5 60.1429
3154.5 95.8571
3155.5 91.8571
3156.5 72.2857
3157.5 -8.71428
3158.5 51.8572
3159.5 82.1429
3160.5 72.1429
3161.5 71.4286
3162.5 67
3163.5 105.714
3164.5 102.429
3165.5 40.4286
3166.5 118
3167.5 112.143
3168.5 112.429
3169.5 52.1429
3170.5 128.714
3171.5 72
3172.5 136.714
3173.5 55.5714
3174.5 116.857
3175.5 152.429
3176.5 131.571
3177.5 124.143
3178.5 66.1429
3179.5 119.429
3180.5 100.714
3181.5 62.8571
3182.5 63.7143
3183.5 105.286
3184.5 46
3185.5 111.429
3186.5 87.2857
3187.5 156
3188.5 124.571
3189.5 80.1429
3190.5 107.714
3191.5 90
3192.5 108.143
3193.5 134.571
3194.5 35
3195.5 91.4286
3196.5 84.8572
3197.5 69.4286
3198.5 60.7143
3199.5 21.4286
3200.5 59
3201.5 112.857
3202.5 127.714
3203.5 84.2857
3204.5 134.143
3205.5 178.286
3206.5 222.571
3207.5 154
3208.5 108.857
3209.5 101.143
3210.5 58.2857
3211.5 71.4286
3212.5 113.286
3213.5 75.1429
3214.5 72.2857
3215.5 87.1429
3216.5 78.5714
3217.5 49.1429
3218.5 36.1429
3219.5 107.143
3220.5 90.1429
3221.5 95
3222.5 99.1429
3223.5 74.2857
3224.5 42.2857
3225.5 54.5714
3226.5 76.1429
3227.5 117.714
3228.5 68.7143
3229.5 75.4286
3230.5 81.7143
3231.5 63.1429
3232.5 58.1429
3233.5 143.857
3234.5 26.2857
3235.5 90
3236.5 122.571
3237.5 115.714
3238.5 141
3239.5 91.4286
3240.5 39.4286
3241.5 154.429
3242.5 137.571
3243.5 70.7143
3244.5 53.2857
3245.5 61.5714
3246.5 80.1429
3247.5 82.8571
3248.5 106.857
3249.5 113.714
3250.5 66.2857
3251.5 156.429
3252.5 8.85715
3253.5 66.7143
3254.5 69.7143
3255.5 135.714
3256.5 47.5714
3257.5 146.714
3258.5 168.714
3259.5 203.857
3260.5 211.857
3261.5 174.143
3262.5 119
3263.5 120.429
3264.5 138
3265.5 137.714
3266.5 96.7143
3267.5 95.7143
3268.5 75.1429
3269.5 13.4286
3270.5 64.4286
3271.5 78.1429
3272.5 90.2857
3273.5 76.2857
3274.5 138.857
3275.5 107.286
3276.5 62
3277.5 83.7143
3278.5 42.7143
3279.5 101.571
3280.5 47
3281.5 58.7143
3282.5 76.4286
3283.5 97
3284.5 74
3285.5 125.429
3286.5 128.143
3287.5 63.5714
3288.5 125.429
3289.5 104.571
3290.5 110.857
3291.5 85.4286
3292.5 145.857
3293.5 57.2857
3294.5 85.2857
3295.5 50.4286
3296.5 84.1429
3297.5 116.429
3298.5 121.857
3299.5 85.5714
3300.5 45
3301.5 76.5714
3302.5 29.4286
3303.5 60.1429
3304.5 94.7143
3305.5 125.714
3306.5 72.5714
3307.5 70.5714
3308.5 116.429
3309.5 35.7143
3310.5 85.7143
3311.5 50
3312.5 104.429
3313.5 113
3314.5 131.857
3315.5 101.286
3316.5 64.2857
3317.5 87.5714
3318.5 82.7143
3319.5 50
3320.5 56.7143
3321.5 61.2857
3322.5 94.2857
3323.5 93.1429
3324.5 63.2857
3325.5 54.1429
3326.5 51.7143
3327.5 96.1429
3328.5 78.2857
3329.5 65.2857
3330.5 120
3331.5 70
3332.5 109.286
3333.5 127.286
3334.5 97.7143
3335.5 63.2857
3336.5 110
3337.5 92.4286
3338.5 66.5714
3339.5 77.8571
3340.5 60.2857
3341.5 89.4286
3342.5 96.1429
3343.5 54.2857
3344.5 73.2857
3345.5 63.1429
3346.5 72.5714
3347.5 82.8571
3348.5 71.8571
3349.5 90.5714
3350.5 50.8571
3351.5 101.857
3352.5 77.2857
3353.5 80.5714
3354.5 138.143
3355.5 116.286
3356.5 83.7143
3357.5 118.429
3358.5 146.714
3359.5 129.429
3360.5 120
3361.5 135.429
3362.5 84.1429
3363.5 104
3364.5 88.2857
3365.5 67.4286
3366.5 84
3367.5 112.286
3368.5 70
3369.5 46.4286
3370.5 36.7143
3371.5 99.7143
3372.5 67.4286
3373.5 76.1429
3374.5 100
3375.5 56.1429
3376.5 107.143
3377.5 77.4286
3378.5 93.7143
3379.5 104.286
3380.5 82.2857
3381.5 86.8571
3382.5 45.1429
3383.5 84.5714
3384.5 93
3385.5 75.7143
3386.5 98.8571
3387.5 102.286
3388.5 149.143
3389.5 124.143
3390.5 99
3391.5 52.2857
3392.5 119.571
3393.5 32.7143
3394.5 88.7143
3395.5 77
3396.5 121.143
3397.5 82.7143
3398.5 59.8571
3399.5 113.571
3400.5 86.7143
3401.5 113.571
3402.5 33.2857
3403.5 42.2857
3404.5 82.8571
3405.5 80.5714
3406.5 74.5714
3407.5 110.857
3408.5 90.4286
3409.5 114.571
3410.5 77.4286
3411.5 27.8571
3412.5 128.143
3413.5 75.4286
3414.5 102.143
3415.5 100.571
3416.5 71.5714
3417.5 63.8571
3418.5 64.1429
3419.5 106.429
3420.5 96.1429
3421.5 91.8571
3422.5 90.4286
3423.5 51.7143
3424.5 96.7143
3425.5 98.1429
3426.5 91
3427.5 104.571
3428.5 137.429
3429.5 140.571
3430.5 95
3431.5 99.1429
3432.5 129.857
3433.5 124.143
3434.5 270.429
3435.5 239.286
3436.5 172.286
3437.5 168
3438.5 145.143
3439.5 156.286
3440.5 33.8571
3441.5 101
3442.5 67.8571
3443.5 98.4286
3444.5 108.143
3445.5 75.1429
3446.5 44.7143
3447.5 95.1429
3448.5 70
3449.5 142.286
3450.5 144.286
3451.5 74.2857
3452.5 124.286
3453.5 81.7143
3454.5 114.286
3455.5 80
3456.5 59.5714
3457.5 115.857
3458.5 151
3459.5 116
3460.5 215.857
3461.5 204.571
3462.5 142.429
3463.5 120.143
3464.5 115.286
3465.5 123.571
3466.5 93.2857
3467.5 108.429
3468.5 109.857
3469.5 94.2857
3470.5 47.4286
3471.5 76
3472.5 82.1429
3473.5 50.8571
3474.5 53.2857
3475.5 38.7143
3476.5 93.8571
3477.5 87.7143
3478.5 150.143
3479.5 75.1429
3480.5 88.4286
3481.5 108.857
3482.5 63.4286
3483.5 107.857
3484.5 83.8571
3485.5 89.8571
3486.5 158.429
3487.5 65.5714
3488.5 84.7143
3489.5 64.5714
3490.5 79.8572
3491.5 132
3492.5 92.5714
3493.5 189.857
3494.5 147.571
3495.5 131.571
3496.5 142
3497.5 108
3498.5 85.2857
3499.5 52.2857
3500.5 123.429
3501.5 116.429
3502.5 75
3503.5 92.8571
3504.5 57.7143
3505.5 162.429
3506.5 102.571
3507.5 111.857
3508.5 215.857
3509.5 158.286
3510.5 83.7143
3511.5 113.286
3512.5 86.2857
3513.5 108.571
3514.5 62.7143
3515.5 76.2857
3516.5 148.571
3517.5 165.143
3518.5 86.1429
3519.5 76.2857
3520.5 105.286
3521.5 71.1429
3522.5 38.8571
3523.5 67.4286
3524.5 58.4286
3525.5 98.5714
3526.5 68
3527.5 55.8571
3528.5 85.8571
3529.5 90.2857
3530.5 39.7143
3531.5 98.8572
3532.5 114
3533.5 58.4286
3534.5 128.571
3535.5 79.5714
3536.5 27.5714
3537.5 51.2857
3538.5 102.143
3539.5 75.1429
3540.5 81
3541.5 108.714
3542.5 65
3543.5 152.286
3544.5 144.571
3545.5 121.714
3546.5 136.429
3547.5 102.429
3548.5 81.7143
3549.5 33.7143
3550.5 118.286
3551.5 91.2857
3552.5 143.714
3553.5 66.8571
3554.5 43.8571
3555.5 45
3556.5 88.7143
3557.5 128.429
3558.5 84.2857
3559.5 118.714
3560.5 69.1429
3561.5 75.1429
3562.5 94.1429
3563.5 56.8571
3564.5 66.7143
3565.5 83.5714
3566.5 93.4286
3567.5 94.7143
3568.5 91.8571
3569.5 39
3570.5 30.7143
3571.5 65.5714
3572.5 72.2857
3573.5 109.714
3574.5 33.8571
3575.5 76.7143
3576.5 87
3577.5 64.4286
3578.5 147
3579.5 79.5714
3580.5 78.8571
3581.5 124.143
3582.5 76.2857
3583.5 115.714
3584.5 100.143
3585.5 86.2857
3586.5 86
3587.5 81.7143
3588.5 86.2857
3589.5 143.286
3590.5 68.5714
3591.5 74.2857
3592.5 129.571
3593.5 116.286
3594.5 134
3595.5 34.4286
3596.5 88.7143
3597.5 43
3598.5 94.8571
3599.5 29.2857
3600.5 85.5714
3601.5 98.5714
3602.5 65
3603.5 107.429
3604.5 65.1429
3605.5 93.7143
3606.5 58.8571
3607.5 47
3608.5 123.143
3609.5 85.7143
3610.5 83.1429
3611.5 110.714
3612.5 99.5714
3613.5 82.8571
3614.5 68.7143
3615.5 112.286
3616.5 60.4286
3617.5 84.2857
3618.5 122.286
3619.5 183.429
3620.5 231.429
3621.5 302.714
3622.5 275
3623.5 209.714
3624.5 122.714
3625.5 120.571
3626.5 51.2857
3627.5 124.286
3628.5 97.1429
3629.5 50.2857
3630.5 61.1429
3631.5 43.5714
3632.5 18.5714
3633.5 49.8571
3634.5 45.2857
3635.5 78.1429
3636.5 91
3637.5 75.4286
3638.5 101.571
3639.5 96.7143
3640.5 86.4286
3641.5 100
3642.5 92.7143
3643.5 69
3644.5 69.4286
3645.5 61.5714
3646.5 64.1429
3647.5 67.4286
3648.5 111.286
3649.5 86.2857
3650.5 90.4286
3651.5 121
3652.5 125.429
3653.5 119
3654.5 66
3655.5 131.857
3656.5 56.8571
3657.5 93.8571
3658.5 111.286
3659.5 91.7143
3660.5 31.2857
3661.5 49.2857
3662.5 75.5714
3663.5 59.5714
3664.5 95.8571
3665.5 53.5714
3666.5 73.8571
3667.5 74.8571
3668.5 52.1429
3669.5 132
3670.5 143.286
3671.5 155.714
3672.5 94.1429
3673.5 148.286
3674.5 124.429
3675.5 139.286
3676.5 105
3677.5 98.7143
3678.5 63.1429
3679.5 108.286
3680.5 79
3681.5 76.2857
3682.5 92
3683.5 79.2857
3684.5 104.286
3685.5 85.7143
3686.5 110.571
3687.5 58.8571
3688.5 103.286
3689.5 58.5714
3690.5 85.7143
3691.5 67.1429
3692.5 35.5714
3693.5 34.8571
3694.5 85.7143
3695.5 86.4286
3696.5 105.429
3697.5 84.7143
3698.5 93.7143
3699.5 77.2857
3700.5 150.429
3701.5 71.8571
3702.5 94.7143
3703.5 59.7143
3704.5 74.5714
3705.5 88.5714
3706.5 71.5714
3707.5 72.1429
3708.5 70.7143
3709.5 91.7143
3710.5 82
3711.5 115
3712.5 62
3713.5 87.1429
3714.5 125.571
3715.5 93.8571
3716.5 105.429
3717.5 120.143
3718.5 82.7143
3719.5 97.5714
3720.5 86.2857
3721.5 88.7143
3722.5 32.4286
3723.5 147.714
3724.5 86.4286
3725.5 57.5714
3726.5 115.714
3727.5 116.714
3728.5 81.4286
3729.5 93.1429
3730.5 101.571
3731.5 82.1429
3732.5 73.8571
3733.5 62
3734.5 81.8571
3735.5 128.143
3736.5 66.8571
3737.5 115.571
3738.5 83.1429
3739.5 109.286
3740.5 73.7143
3741.5 88
3742.5 44.4286
3743.5 136
3744.5 73.2857
3745.5 83.2857
3746.5 95.2857
3747.5 86.5714
3748.5 101.571
3749.5 72.4286
3750.5 54.8571
3751.5 69
3752.5 126.571
3753.5 109.143
3754.5 92.5714
3755.5 94.5714
3756.5 54.2857
3757.5 54.1429
3758.5 70
3759.5 84.4286
3760.5 89.5714
3761.5 93.7143
3762.5 113.429
3763.5 49.8571
3764.5 80.8571
3765.5 70.2857
3766.5 68.7143
3767.5 51.8571
3768.5 78.8571
3769.5 77.8571
3770.5 92.2857
3771.5 56.2857
3772.5 80.8571
3773.5 102.571
3774.5 88.5714
3775.5 100.429
3776.5 55.7143
3777.5 74.1429
3778.5 69.1429
3779.5 84.2857
3780.5 104.429
3781.5 71
3782.5 85.1429
3783.5 67.4286
3784.5 85
3785.5 90.1429
3786.5 74.4286
3787.5 113.714
3788.5 66.1429
3789.5 65
3790.5 87.8571
3791.5 116
3792.5 72.1429
3793.5 62.8571
3794.5 78.5714
3795.5 120.429
3796.5 79.2857
3797.5 74.7143
3798.5 59.4286
3799.5 51.4286
3800.5 80.7143
3801.5 62.8571
3802.5 139.714
3803.5 92.2857
3804.5 95.4286
3805.5 32.8571
3806.5 81
3807.5 72.7143
3808.5 109.714
3809.5 134.286
3810.5 123.571
3811.5 104.429
3812.5 52.2857
3813.5 102.857
3814.5 49.8571
3815.5 65.2857
3816.5 64.8571
3817.5 72.4286
3818.5 84
3819.5 70.1429
3820.5 72.1429
3821.5 107.714
3822.5 59.5714
3823.5 123.571
3824.5 96.4286
3825.5 104.429
3826.5 95.8571
3827.5 75.4286
3828.5 89.2857
3829.5 20.4286
3830.5 74
3831.5 80.1429
3832.5 81.7143
3833.5 42.2857
3834.5 71.2857
3835.5 72.4286
3836.5 66.1429
3837.5 71
3838.5 48.7143
3839.5 33.7143
3840.5 57.1429
3841.5 110.143
3842.5 86.7143
3843.5 68.2857
3844.5 51.4286
3845.5 92.8571
3846.5 113.571
3847.5 131.714
3848.5 17.1429
3849.5 38.8571
3850.5 81
3851.5 67
3852.5 64.4286
3853.5 86.4286
3854.5 146.857
3855.5 69.1429
3856.5 88
3857.5 103.143
3858.5 113.429
3859.5 84
3860.5 92.7143
3861.5 99.7143
3862.5 73.2857
3863.5 92.7143
3864.5 73.4286
3865.5 134.286
3866.5 158.429
3867.5 219.429
3868.5 228.571
3869.5 301.143
3870.5 334.429
3871.5 268.143
3872.5 164.429
3873.5 192.571
3874.5 144.286
3875.5 141.143
3876.5 167.286
3877.5 122.286
3878.5 84.2857
3879.5 39.7143
3880.5 86.7143
3881.5 86.2857
3882.5 63.1429
3883.5 57.4286
3884.5 48.8571
3885.5 103
3886.5 39.5714
3887.5 93
3888.5 94
3889.5 113.286
3890.5 118.571
3891.5 111.714
3892.5 161.286
3893.5 125.429
3894.5 101.143
3895.5 58
3896.5 111.429
3897.5 91.8571
3898.5 52.4286
3899.5 96
3900.5 90
3901.5 152.571
3902.5 200.429
3903.5 213.857
3904.5 153.857
3905.5 130.143
3906.5 86.2857
3907.5 92.8571
3908.5 87.7143
3909.5 71.7143
3910.5 45.2857
3911.5 44.8571
3912.5 101.429
3913.5 66.1429
3914.5 57.5714
3915.5 75
3916.5 94.4286
3917.5 68.8571
3918.5 54.1429
3919.5 80.2857
3920.5 36.8571
3921.5 113.143
3922.5 82.5714
3923.5 49.4286
3924.5 81
3925.5 70.2857
3926.5 80.8571
3927.5 78.7143
3928.5 81.7143
3929.5 52.8571
3930.5 43.8571
3931.5 74.1429
3932.5 27
3933.5 64
3934.5 105.143
3935.5 58
3936.5 92.5714
3937.5 85.8571
3938.5 38.7143
3939.5 105.143
3940.5 96.7143
3941.5 146.714
3942.5 208.143
3943.5 255.857
3944.5 403.571
3945.5 481.286
3946.5 519.143
3947.5 447.429
3948.5 334.429
3949.5 196.857
3950.5 166.286
3951.5 107
3952.5 81.7143
3953.5 44.8571
3954.5 84
3955.5 154.857
3956.5 89.1429
3957.5 123.714
3958.5 181
3959.5 154
3960.5 96.4286
3961.5 103.714
3962.5 87.2857
3963.5 109.143
3964.5 100.857
3965.5 104.714
3966.5 85.8571
3967.5 123.714
3968.5 102.857
3969.5 219.143
3970.5 399.714
3971.5 536.857
3972.5 612.143
3973.5 622.429
3974.5 469.286
3975.5 218
3976.5 150.429
3977.5 134.571
3978.5 101.571
3979.5 89.1429
3980.5 88.8571
3981.5 83.2857
3982.5 62.7143
3983.5 66.2857
3984.5 80.7143
3985.5 50.4286
3986.5 77
3987.5 66.7143
3988.5 30.5714
3989.5 96.1429
3990.5 92.4286
3991.5 86.5714
3992.5 148
3993.5 100.429
3994.5 128.857
3995.5 268.429
3996.5 240.857
3997.5 185.857
3998.5 156.714
3999.5 74.5714
4000.5 77.8571
4001.5 81.4286
4002.5 41.4286
4003.5 75.2857
4004.5 76.2857
4005.5 59.1429
4006.5 43.8571
4007.5 82.4286
4008.5 47.4286
4009.5 65.4286
4010.5 82.2857
4011.5 120.143
4012.5 42.5714
4013.5 58.2857
4014.5 65
4015.5 60.4286
4016.5 42.4286
4017.5 42.8571
4018.5 111.429
4019.5 74.2857
4020.5 65.5714
4021.5 29.1429
4022.5 42.5714
4023.5 17.1429
4024.5 -25.5714
4025.5 -51.4286
4026.5 0.285722
4027.5 -9.57142
4028.5 34.8571
4029.5 14.7143
4030.5 73.1429
4031.5 15
4032.5 36.7143
4033.5 95.4286
4034.5 60.1429
4035.5 32
4036.5 56.1429
4037.5 44
4038.5 55.4286
4039.5 94.2857
4040.5 98.2857
4041.5 28.5714
4042.5 130.429
4043.5 51.5714
4044.5 67
4045.5 67.7143
4046.5 96.1429
4047.5 71.2857
4048.5 97.4286
4049.5 37.2857
4050.5 101.143
4051.5 131.571
4052.5 123.714
4053.5 73
4054.5 132.286
4055.5 105.714
4056.5 107.143
4057.5 119.286
4058.5 88.1429
4059.5 88.1429
4060.5 68.7143
4061.5 95.4286
4062.5 93.1429
4063.5 94.1429
4064.5 87.1429
4065.5 101.143
4066.5 101.286
4067.5 55.7143
4068.5 102.286
4069.5 148.286
4070.5 65.5714
4071.5 64.8571
4072.5 99.5714
4073.5 60.2857
4074.5 43
4075.5 59.7143
4076.5 72.7143
4077.5 91.2857
4078.5 56.7143
4079.5 31.8571
4080.5 70.2857
4081.5 46.2857
4082.5 92.5714
4083.5 58.7143
4084.5 70.5714
4085.5 78
4086.5 90.4286
4087.5 89.7143
4088.5 74.7143
4089.5 79.2857
4090.5 63
4091.5 86.5714
4092.5 78.4286
4093.5 114
4094.5 56
4095.5 74
4096.5 34.4286
4097.5 40.8571
4098.5 83
4099.5 64
4100.5 87.7143
4101.5 81.2857
4102.5 48.5714
4103.5 77.5714
4104.5 118.143
4105.5 71.4286
4106.5 59.8571
4107.5 96.1429
4108.5 53.2857
4109.5 45.8571
4110.5 40.7143
4111.5 45.2857
4112.5 83.2857
4113.5 68
4114.5 97.2857
4115.5 75.2857
4116.5 88.5714
4117.5 112.714
4118.5 42.4286
4119.5 63.7143
4120.5 47.7143
4121.5 34
4122.5 62.2857
4123.5 46.5714
4124.5 80.1429
4125.5 74.1429
4126.5 52.4286
4127.5 68.5714
4128.5 79.1429
4129.5 69.8571
4130.5 118.286
4131.5 130.571
4132.5 118.429
4133.5 145.143
4134.5 153.714
4135.5 164
4136.5 115.143
4137.5 97.2857
4138.5 64.7143
4139.5 51.1429
4140.5 56.8571
4141.5 65.1429
4142.5 43
4143.5 40.8571
4144.5 68.4286
4145.5 50.8571
4146.5 47.4286
4147.5 73
4148.5 60
4149.5 84.2857
4150.5 91.4286
4151.5 79.1429
4152.5 79.5714
4153.5 64.7143
4154.5 90.1429
4155.5 98.2857
4156.5 68.8571
4157.5 56.5714
4158.5 71.8571
4159.5 84.5714
4160.5 78.4286
4161.5 77
4162.5 77.7143
4163.5 70.5714
4164.5 61.4286
4165.5 135.571
4166.5 126.571
4167.5 88.1429
4168.5 119.857
4169.5 110.143
4170.5 40.1429
4171.5 110.571
4172.5 111.714
4173.5 47.5714
4174.5 58.1429
4175.5 112
4176.5 81.2857
4177.5 49.2857
4178.5 81.5714
4179.5 77.1429
4180.5 50.2857
4181.5 42.5714
4182.5 67.1429
4183.5 58.7143
4184.5 86.5714
4185.5 94.1429
4186.5 68.1429
4187.5 66.5714
4188.5 58.5714
4189.5 90
4190.5 95.5714
4191.5 110.571
4192.5 83.1429
4193.5 111.714
4194.5 87.4286
4195.5 95.4286
4196.5 120.429
4197.5 84.4286
4198.5 87
4199.5 94
4200.5 88.8571
4201.5 142.429
4202.5 116.143
4203.5 102.571
4204.5 147.286
4205.5 110.714
4206.5 110.714
4207.5 140.571
4208.5 101.286
4209.5 126.286
4210.5 99.1429
4211.5 135.143
4212.5 107.143
4213.5 81
4214.5 86.1429
4215.5 80.1429
4216.5 45.2857
4217.5 69.8571
4218.5 62
4219.5 94.1429
4220.5 87.1429
4221.5 67.2857
4222.5 40.4286
4223.5 36
4224.5 86.2857
4225.5 61.2857
4226.5 60.4286
4227.5 58
4228.5 75.2857
4229.5 85.7143
4230.5 46.8571
4231.5 55.1429
4232.5 53.8571
4233.5 63.1429
4234.5 95.2857
4235.5 146.429
4236.5 109.857
4237.5 90.5714
4238.5 88.2857
4239.5 42.4286
4240.5 58.7143
4241.5 105.714
4242.5 27
4243.5 84.7143
4244.5 43.2857
4245.5 78.4286
4246.5 55.1429
4247.5 115.857
4248.5 93.4286
4249.5 62.7143
4250.5 116.429
4251.5 77.7143
4252.5 37.5714
4253.5 49.5714
4254.5 76
4255.5 73.8571
4256.5 114.286
4257.5 146.857
4258.5 134.571
4259.5 111.429
4260.5 127.571
4261.5 92
4262.5 94
4263.5 114.429
4264.5 180.286
4265.5 197.286
4266.5 154.429
4267.5 81.5714
4268.5 71
4269.5 85.1429
4270.5 29.7143
4271.5 63.4286
4272.5 57.5714
4273.5 42
4274.5 57.7143
4275.5 82.8571
4276.5 87.5714
4277.5 50.8571
4278.5 71.1429
4279.5 102.286
4280.5 53.5714
4281.5 99.8571
4282.5 84.4286
4283.5 63
4284.5 93.5714
4285.5 51
4286.5 55
4287.5 80
4288.5 58.4286
4289.5 41.4286
4290.5 82.2857
4291.5 80.5714
4292.5 48.1429
4293.5 76.5714
4294.5 66
4295.5 86.1429
4296.5 100.143
4297.5 105.714
4298.5 98.2857
4299.5 60
4300.5 138.429
4301.5 56.4286
4302.5 99.1429
4303.5 74.4286
4304.5 115.571
4305.5 69
4306.5 78.4286
4307.5 62.5714
4308.5 88.4286
4309.5 55.8571
4310.5 44.8571
4311.5 57.5714
4312.5 89.2857
4313.5 46.1429
4314.5 79.1429
4315.5 83
4316.5 47.1429
4317.5 78.5714
4318.5 75.8571
4319.5 92.2857
4320.5 76.8571
4321.5 57.2857
4322.5 98.4286
4323.5 76
4324.5 85
4325.5 36.5714
4326.5 75
4327.5 30.1429
4328.5 60.4286
4329.5 81.4286
4330.5 91.1429
4331.5 56.8571
4332.5 59.5714
4333.5 104.571
4334.5 60.8571
4335.5 70.4286
4336.5 85.7143
4337.5 116.714
4338.5 61.5714
4339.5 116
4340.5 55.5714
4341.5 68.5714
4342.5 79.4286
4343.5 58.7143
4344.5 57.2857
4345.5 33.8571
4346.5 67.1429
4347.5 61.4286
4348.5 27.2857
4349.5 46.4286
4350.5 58.7143
4351.5 67.2857
4352.5 87
4353.5 87.2857
4354.5 102.714
4355.5 69.7143
4356.5 86.2857
4357.5 76.5714
4358.5 66.5714
4359.5 51.1429
4360.5 110
4361.5 8.85715
4362.5 49.8571
4363.5 45.2857
4364.5 32.8571
4365.5 4.14286
4366.5 53.8571
4367.5 49.8571
4368.5 46.8571
4369.5 36.5714
4370.5 59.5714
4371.5 41.4286
4372.5 52.7143
4373.5 62
4374.5 68
4375.5 65.1429
4376.5 39.2857
4377.5 71.7143
4378.5 100
4379.5 136.286
4380.5 198
4381.5 213.857
4382.5 290.143
4383.5 267.857
4384.5 165.714
4385.5 48.5714
4386.5 48.2857
4387.5 44.5714
4388.5 65.5714
4389.5 39.1429
4390.5 117
4391.5 50
4392.5 65.8571
4393.5 39.7143
4394.5 45.5714
4395.5 87.8571
4396.5 66.5714
4397.5 89.8571
4398.5 27.2857
4399.5 77.2857
4400.5 43.8571
4401.5 46.7143
4402.5 24.7143
4403.5 21.1429
4404.5 66.7143
4405.5 65.5714
4406.5 82.5714
4407.5 60.8571
4408.5 67.1429
4409.5 71
4410.5 50.2857
4411.5 45.2857
4412.5 56.5714
4413.5 60
4414.5 38
4415.5 23
4416.5 53
4417.5 75.4286
4418.5 47
4419.5 -8.85714
4420.5 28.1429
4421.5 47.4286
4422.5 61.5714
4423.5 29.4286
4424.5 66.5714
4425.5 44.2857
4426.5 56.4286
4427.5 79.4286
4428.5 47.8571
4429.5 58.7143
4430.5 76
4431.5 77.4286
4432.5 73.4286
4433.5 38.7143
4434.5 76.4286
4435.5 69.1429
4436.5 32.4286
4437.5 33.7143
4438.5 27.2857
4439.5 43.4286
4440.5 51.7143
4441.5 45.2857
4442.5 24
4443.5 73
4444.5 39.4286
4445.5 22.7143
4446.5 96.4286
4447.5 76.1429
4448.5 98
4449.5 81.7143
4450.5 84.4286
4451.5 165.286
4452.5 214.571
4453.5 408.857
4454.5 768.714
4455.5 1324
4456.5 1717.71
4457.5 1860.57
4458.5 1559.57
4459.5 918.286
4460.5 519.714
4461.5 241.714
4462.5 156.286
4463.5 53.5714
4464.5 37.5714
4465.5 55.7143
4466.5 45.2857
4467.5 19
4468.5 81.2857
4469.5 36.8571
4470.5 46.5714
4471.5 75.1429
4472.5 71.7143
4473.5 27.8571
4474.5 77.4286
4475.5 55.1429
4476.5 61.8571
4477.5 62.4286
4478.5 62.1429
4479.5 55.2857
4480.5 -0.571425
4481.5 48.2857
4482.5 35
4483.5 50.5714
4484.5 54.7143
4485.5 53.2857
4486.5 33
4487.5 52.8571
4488.5 9.42858
4489.5 63.2857
4490.5 37.8571
4491.5 64.2857
4492.5 74.4286
4493.5 96.5714
4494.5 73.5714
4495.5 76
4496.5 26.1429
4497.5 41.4286
4498.5 38
4499.5 36
4500.5 34.2857
4501.5 67
4502.5 22.8571
4503.5 70.1429
4504.5 46.1429
4505.5 32.7143
4506.5 55.1429
4507.5 11
4508.5 33.4286
4509.5 76.1429
4510.5 31.4286
4511.5 33.4286
4512.5 41.4286
4513.5 43.8571
4514.5 26.1429
4515.5 37.7143
4516.5 35.4286
4517.5 56.2857
4518.5 39
4519.5 43.1429
4520.5 18.1429
4521.5 21.7143
4522.5 44.5714
4523.5 35.5714
4524.5 48.1429
4525.5 5.85715
4526.5 54.4286
4527.5 35.2857
4528.5 11.8571
4529.5 54.7143
4530.5 23
4531.5 39.5714
4532.5 48
4533.5 24
4534.5 30.7143
4535.5 56.5714
4536.5 37.7143
4537.5 49.7143
4538.5 38.2857
4539.5 -5.71428
4540.5 16.4286
4541.5 42.5714
4542.5 -0.714282
4543.5 15.5714
4544.5 26.7143
4545.5 22.4286
4546.5 72.1429
4547.5 46
4548.5 48.5714
4549.5 37.8571
4550.5 20.1429
4551.5 53
4552.5 55
4553.5 43.1429
4554.5 61
4555.5 54.1429
4556.5 121.571
4557.5 83.5714
4558.5 64.1429
4559.5 94.1429
4560.5 118
4561.5 122
4562.5 162.286
4563.5 254.143
4564.5 377.571
4565.5 244.857
4566.5 216.286
4567.5 109.857
4568.5 98.8571
4569.5 54.7143
4570.5 52.2857
4571.5 35
4572.5 8.57143
4573.5 38.1429
4574.5 35
4575.5 45.5714
4576.5 51.4286
4577.5 62.1429
4578.5 28.1429
4579.5 95.4286
4580.5 67.2857
4581.5 63.1429
4582.5 63.1429
4583.5 42
4584.5 59.7143
4585.5 45.7143
4586.5 68.1429
4587.5 46.5714
4588.5 16.5714
4589.5 40.1429
4590.5 20
4591.5 18
4592.5 48.4286
4593.5 42.2857
4594.5 48.4286
4595.5 47.4286
4596.5 36.7143
4597.5 67
4598.5 115.857
4599.5 50
4600.5 78.2857
4601.5 15.4286
4602.5 38.4286
4603.5 39.5714
4604.5 16.8571
4605.5 64.1429
4606.5 30.2857
4607.5 84.2857
4608.5 55.7143
4609.5 50.5714
4610.5 0.571432
4611.5 25
4612.5 34
4613.5 11.5714
4614.5 63.8571
4615.5 70.4286
4616.5 93.7143
4617.5 45
4618.5 71
4619.5 20.2857
4620.5 29.8571
4621.5 59.2857
4622.5 36.7143
4623.5 59.8571
4624.5 54.7143
4625.5 13.2857
4626.5 11.2857
4627.5 28
4628.5 33.7143
4629.5 14
4630.5 41.4286
4631.5 27.8571
4632.5 84.1429
4633.5 21
4634.5 10.5714
4635.5 46.8571
4636.5 34.4286
4637.5 57.4286
4638.5 25
4639.5 31.7143
4640.5 15.4286
4641.5 26.2857
4642.5 56
4643.5 23.1429
4644.5 33.1429
4645.5 56
4646.5 31.5714
4647.5 43.8571
4648.5 65.5714
4649.5 34.8571
4650.5 22
4651.5 36.7143
4652.5 46.7143
4653.5 37.2857
4654.5 31.2857
4655.5 42.5714
4656.5 74.4286
4657.5 91.5714
4658.5 34.7143
4659.5 49.4286
4660.5 61.7143
4661.5 20.7143
4662.5 56.2857
4663.5 3.57143
4664.5 27.8571
4665.5 8.57143
4666.5 16
4667.5 19
4668.5 17.8571
4669.5 32.2857
4670.5 69
4671.5 41.1429
4672.5 42.2857
4673.5 30.5714
4674.5 43.5714
4675.5 10.8571
4676.5 31.4286
4677.5 66.4286
4678.5 73
4679.5 48
4680.5 51.2857
4681.5 33
4682.5 31.7143
4683.5 20.4286
4684.5 65
4685.5 35.1429
4686.5 36
4687.5 55.1429
4688.5 57.1429
4689.5 23.4286
4690.5 12.8571
4691.5 36.5714
4692.5 30.2857
4693.5 10.1429
4694.5 10.8571
4695.5 -5.28571
4696.5 15.2857
4697.5 49.2857
4698.5 -2.57143
4699.5 4.42857
4700.5 53.7143
4701.5 25.4286
4702.5 70.7143
4703.5 39.4286
4704.5 46.5714
4705.5 73.5714
4706.5 88.4286
4707.5 66
4708.5 76.1429
4709.5 62.5714
4710.5 31
4711.5 42
4712.5 58.7143
4713.5 55.5714
4714.5 49.4286
4715.5 32.5714
4716.5 81.1429
4717.5 20
4718.5 23.8571
4719.5 50.1429
4720.5 62.7143
4721.5 24.1429
4722.5 26.4286
4723.5 31.2857
4724.5 25.8571
4725.5 67.8571
4726.5 41.4286
4727.5 41.7143
4728.5 36.7143
4729.5 11.7143
4730.5 33.2857
4731.5 25
4732.5 29.5714
4733.5 34.1429
4734.5 63.5714
4735.5 27.7143
4736.5 21.1429
4737.5 32.5714
4738.5 49.5714
4739.5 37.7143
4740.5 66.8571
4741.5 28
4742.5 -0.85714
4743.5 51.5714
4744.5 54.2857
4745.5 39.8571
4746.5 51.2857
4747.5 117.429
4748.5 66.4286
4749.5 87.8571
4750.5 32.7143
4751.5 33
4752.5 32
4753.5 42.7143
4754.5 98.8571
4755.5 67.5714
4756.5 16.2857
4757.5 33.4286
4758.5 19.2857
4759.5 18.4286
4760.5 29
4761.5 45.2857
4762.5 36.4286
4763.5 63.7143
4764.5 33.7143
4765.5 37
4766.5 60
4767.5 44
4768.5 7.28572
4769.5 18.5714
4770.5 12.1429
4771.5 45.2857
4772.5 31.4286
4773.5 42.1429
4774.5 64
4775.5 44.8571
4776.5 42.4286
4777.5 21.4286
4778.5 34.8571
4779.5 27.7143
4780.5 56
4781.5 38
4782.5 33
4783.5 -4.57143
4784.5 7
4785.5 2.28572
4786.5 48.8571
4787.5 35.8571
4788.5 -16.5714
4789.5 10
4790.5 4.42857
4791.5 46.2857
4792.5 48.5714
4793.5 74.1429
4794.5 12.2857
4795.5 -0.714282
4796.5 32.2857
4797.5 11.1429
4798.5 -5.28571
4799.5 47
4800.5 24.4286
4801.5 44.4286
4802.5 -1.71428
4803.5 45.1429
4804.5 21.4286
4805.5 62.1429
4806.5 62.8571
4807.5 45.1429
4808.5 16.2857
4809.5 46.4286
4810.5 13.4286
4811.5 60.2857
4812.5 28.4286
4813.5 28.2857
4814.5 52.2857
4815.5 99.8571
4816.5 104.571
4817.5 40.2857
4818.5 37.2857
4819.5 47.2857
4820.5 35.7143
4821.5 51.4286
4822.5 14.5714
4823.5 59.7143
4824.5 43.2857
4825.5 14
4826.5 27
4827.5 39.8571
4828.5 14.1429
4829.5 64
4830.5 43.8571
4831.5 23.7143
4832.5 9
4833.5 29.2857
4834.5 37.1429
4835.5 42.8571
4836.5 17.8571
4837.5 51.4286
4838.5 12.8571
4839.5 52.5714
4840.5 74.1429
4841.5 49.1429
4842.5 94.8571
4843.5 74.8571
4844.5 95.2857
4845.5 89.2857
4846.5 68.8571
4847.5 25.1429
4848.5 34.1429
4849.5 64.2857
4850.5 34.4286
4851.5 28.2857
4852.5 41.5714
4853.5 36
4854.5 21.1429
4855.5 -2.42857
4856.5 37.2857
4857.5 15.5714
4858.5 15.1429
4859.5 27.7143
4860.5 1.42857
4861.5 21.2857
4862.5 12.5714
4863.5 39
4864.5 32.1429
4865.5 41.7143
4866.5 26
4867.5 58
4868.5 23.4286
4869.5 -0.142854
4870.5 49.1429
4871.5 31.5714
4872.5 50.2857
4873.5 40.8571
4874.5 0.714289
4875.5 53.8571
4876.5 85
4877.5 21.1429
4878.5 15
4879.5 44.1429
4880.5 41
4881.5 56
4882.5 64.7143
4883.5 34.4286
4884.5 32.8571
4885.5 54.1429
4886.5 16.1429
4887.5 74.7143
4888.5 31.5714
4889.5 41.7143
4890.5 40
4891.5 44.2857
4892.5 47.5714
4893.5 27.4286
4894.5 27.5714
4895.5 24
4896.5 -10.7143
4897.5 42.2857
4898.5 55.2857
4899.5 30.8571
4900.5 60.2857
4901.5 45.8571
4902.5 91.1429
4903.5 105.429
4904.5 71.7143
4905.5 110.857
4906.5 110.571
4907.5 39.8571
4908.5 74.5714
4909.5 30.5714
4910.5 56
4911.5 12.1429
4912.5 2.28572
4913.5 23.2857
4914.5 31.7143
4915.5 55.2857
4916.5 24.1429
4917.5 48.2857
4918.5 72.4286
4919.5 54.5714
4920.5 32.5714
4921.5 21.2857
4922.5 24.7143
4923.5 53.2857
4924.5 28.7143
4925.5 34.7143
4926.5 49.7143
4927.5 56.2857
4928.5 38.4286
4929.5 41.4286
4930.5 35.5714
4931.5 16.2857
4932.5 19.4286
4933.5 46.7143
4934.5 27.5714
4935.5 53.8571
4936.5 33.8571
4937.5 43.5714
4938.5 46.4286
4939.5 50.1429
4940.5 46.1429
4941.5 38.4286
4942.5 67.8571
4943.5 31
4944.5 40.4286
4945.5 50.5714
4946.5 49.1429
4947.5 15.2857
4948.5 35.5714
4949.5 16.7143
4950.5 58
4951.5 26.5714
4952.5 49.7143
4953.5 4.85715
4954.5 32.7143
4955.5 25.8571
4956.5 14.5714
4957.5 36.5714
4958.5 90
4959.5 62
4960.5 41
4961.5 45.8571
4962.5 56.7143
4963.5 5.42858
4964.5 70.8571
4965.5 48.7143
4966.5 37.8571
4967.5 24.5714
4968.5 29.5714
4969.5 45.2857
4970.5 12.1429
4971.5 28.4286
4972.5 34
4973.5 79.1429
4974.5 69.4286
4975.5 55.7143
4976.5 40.7143
4977.5 37.1429
4978.5 24.7143
4979.5 28.7143
4980.5 70.7143
4981.5 142
4982.5 127.286
4983.5 127.857
4984.5 130.714
4985.5 93
4986.5 67
4987.5 42.8571
4988.5 42.2857
4989.5 -17.2857
4990.5 15.5714
4991.5 3.33786e-06
4992.5 33.4286
4993.5 34.5714
4994.5 36.5714
4995.5 0.14286
4996.5 20.7143
4997.5 24
4998.5 58.7143
4999.5 6.57143
5000.5 40.5714
5001.5 57
5002.5 38.7143
5003.5 59.7143
5004.5 44.4286
5005.5 72.5714
5006.5 37.7143
5007.5 53.1429
5008.5 37.8571
5009.5 58.5714
5010.5 26.8571
5011.5 33.2857
5012.5 21.2857
5013.5 55
5014.5 1.42858
5015.5 68.1429
5016.5 48
5017.5 38.4286
5018.5 37.2857
5019.5 35.7143
5020.5 26.1429
5021.5 85.1429
5022.5 16.4286
5023.5 23.5714
5024.5 56.1429
5025.5 67
5026.5 26.8571
5027.5 66.5714
5028.5 45.4286
5029.5 22
5030.5 68.7143
5031.5 33.7143
5032.5 20
5033.5 29.7143
5034.5 0.714289
5035.5 53
5036.5 50
5037.5 64.4286
5038.5 5.28572
5039.5 54.1429
5040.5 41.2857
5041.5 28.5714
5042.5 59.4286
5043.5 24
5044.5 38.2857
5045.5 43.4286
5046.5 28
5047.5 36.4286
5048.5 42.7143
5049.5 15.1429
5050.5 31.4286
5051.5 32.7143
5052.5 14.7143
5053.5 28.1429
5054.5 31.4286
5055.5 26.4286
5056.5 10.8571
5057.5 33.5714
5058.5 39.2857
5059.5 -10.7143
5060.5 22.8571
5061.5 -7.71428
5062.5 10.8571
5063.5 57.7143
5064.5 60.7143
5065.5 55.1429
5066.5 62.5714
5067.5 33.8571
5068.5 5.57143
5069.5 18.1429
5070.5 90
5071.5 22.4286
5072.5 47.8571
5073.5 54.5714
5074.5 60.4286
5075.5 50.5714
5076.5 42
5077.5 37.8571
5078.5 8.85715
5079.5 61.4286
5080.5 47.7143
5081.5 28.4286
5082.5 32.2857
5083.5 4
5084.5 22.8571
5085.5 68.7143
5086.5 32.2857
5087.5 63.7143
5088.5 70.4286
5089.5 35.1429
5090.5 52.1429
5091.5 41.5714
5092.5 71.7143
5093.5 36.7143
5094.5 87.7143
5095.5 34.4286
5096.5 49.8571
5097.5 42.7143
5098.5 1.42857
5099.5 33.1429
5100.5 67.2857
5101.5 43.1429
5102.5 37.5714
5103.5 48.7143
5104.5 30
5105.5 31.1429
5106.5 17.1429
5107.5 31.7143
5108.5 17.1429
5109.5 62.2857
5110.5 40.4286
5111.5 31
5112.5 27.2857
5113.5 17.8571
5114.5 27
5115.5 39.4286
5116.5 18.2857
5117.5 52.1429
5118.5 7.28572
5119.5 56
5120.5 29.8571
5121.5 19.2857
5122.5 16.8571
5123.5 10.8571
5124.5 56.8571
5125.5 20.2857
5126.5 46
5127.5 56.7143
5128.5 28.1429
5129.5 69.8571
5130.5 7.14286
5131.5 53.7143
5132.5 49.8571
5133.5 50.2857
5134.5 41
5135.5 31.4286
5136.5 -7.42857
5137.5 66.4286
5138.5 -11.1429
5139.5 33
5140.5 40.1429
5141.5 43.7143
5142.5 49.4286
5143.5 35.5714
5144.5 24.8571
5145.5 43
5146.5 27.5714
5147.5 -10.7143
5148.5 29.2857
5149.5 22.1429
5150.5 33.5714
5151.5 31
5152.5 55.1429
5153.5 62
5154.5 57.8571
5155.5 32.5714
5156.5 63.1429
5157.5 32.1429
5158.5 97
5159.5 40.8571
5160.5 69.7143
5161.5 75
5162.5 87.7143
5163.5 48
5164.5 40
5165.5 28.8571
5166.5 60.8571
5167.5 15.4286
5168.5 12.4286
5169.5 71.4286
5170.5 62.2857
5171.5 60.2857
5172.5 36.4286
5173.5 32.5714
5174.5 57.5714
5175.5 6.85715
5176.5 43.4286
5177.5 46.4286
5178.5 27.8571
5179.5 33.4286
5180.5 5.71429
5181.5 36
5182.5 12.8571
5183.5 36
5184.5 35.8571
5185.5 33.4286
5186.5 56.2857
5187.5 10.5714
5188.5 2.85715
5189.5 20.2857
5190.5 21.4286
5191.5 71.4286
5192.5 42
5193.5 56.4286
5194.5 96.8571
5195.5 16.4286
5196.5 56
5197.5 56.5714
5198.5 16.8571
5199.5 -11.4286
5200.5 31.1429
5201.5 83.7143
5202.5 18.8571
5203.5 61.4286
5204.5 3.85715
5205.5 54.8571
5206.5 70.8571
5207.5 50.1429
5208.5 18.4286
5209.5 42.5714
5210.5 51
5211.5 10.4286
5212.5 24.1429
5213.5 38.2857
5214.5 22.1429
5215.5 18.8571
5216.5 52.2857
5217.5 14.2857
5218.5 14.1429
5219.5 12.8571
5220.5 26
5221.5 50.8571
5222.5 29.8571
5223.5 49.7143
5224.5 54
5225.5 51.4286
5226.5 74.8571
5227.5 13.7143
5228.5 47.8571
5229.5 23.4286
5230.5 40.4286
5231.5 46.1429
5232.5 55.5714
5233.5 37.2857
5234.5 27.2857
5235.5 24.2857
5236.5 21.7143
5237.5 5.71429
5238.5 20.7143
5239.5 23.8571
5240.5 25.1429
5241.5 25.7143
5242.5 26.4286
5243.5 33.1429
5244.5 13.4286
5245.5 10.7143
5246.5 10.2857
5247.5 63.7143
5248.5 25.5714
5249.5 29.8571
5250.5 45
5251.5 57.4286
5252.5 35.2857
5253.5 33.8571
5254.5 31.4286
5255.5 -7.71428
5256.5 38
5257.5 44
5258.5 68
5259.5 -3.42857
5260.5 -7.57142
5261.5 -3.85714
5262.5 22
5263.5 46.5714
5264.5 61
5265.5 43.4286
5266.5 62.7143
5267.5 39.8571
5268.5 20.2857
5269.5 19.5714
5270.5 52.1429
5271.5 21.2857
5272.5 8.42857
5273.5 8.71429
5274.5 63.8571
5275.5 20.1429
5276.5 54.2857
5277.5 68
5278.5 39.4286
5279.5 26.8571
5280.5 36.8571
5281.5 16.7143
5282.5 25.2857
5283.5 44.2857
5284.5 7.57143
5285.5 58.5714
5286.5 59.5714
5287.5 61.4286
5288.5 38.7143
5289.5 48.7143
5290.5 37.4286
5291.5 54.5714
5292.5 46.2857
5293.5 54.5714
5294.5 35.4286
5295.5 37.1429
5296.5 27
5297.5 62.8571
5298.5 41.4286
5299.5 6.85715
5300.5 44.5714
5301.5 61.1429
5302.5 -9.71428
5303.5 97.4286
5304.5 35.7143
5305.5 54
5306.5 14.7143
5307.5 49.5714
5308.5 11.7143
5309.5 22
5310.5 8.71429
5311.5 27
5312.5 50
5313.5 34.4286
5314.5 19.8571
5315.5 15.7143
5316.5 39
5317.5 32.4286
5318.5 52.5714
5319.5 15.2857
5320.5 -15.4286
5321.5 30.2857
5322.5 28.2857
5323.5 44.1429
5324.5 56.7143
5325.5 24.8571
5326.5 37.5714
5327.5 12.4286
5328.5 19.2857
5329.5 38.5714
5330.5 46.2857
5331.5 33.2857
5332.5 44
5333.5 42.7143
5334.5 21.4286
5335.5 6
5336.5 19.2857
5337.5 16.5714
5338.5 33.8571
5339.5 30.7143
5340.5 14.1429
5341.5 29.2857
5342.5 47
5343.5 -7.14285
5344.5 -1.85714
5345.5 47.2857
5346.5 63.8571
5347.5 40.4286
5348.5 41.8571
5349.5 83.2857
5350.5 49.5714
5351.5 102.714
5352.5 86.4286
5353.5 167.286
5354.5 230
5355.5 249
5356.5 173
5357.5 128.429
5358.5 62.2857
5359.5 64.4286
5360.5 22.2857
5361.5 36.5714
5362.5 37.7143
5363.5 38.5714
5364.5 11.7143
5365.5 12.2857
5366.5 7
5367.5 30.1429
5368.5 11.7143
5369.5 35.2857
5370.5 32
5371.5 52.2857
5372.5 21.8571
5373.5 31.1429
5374.5 -0.85714
5375.5 40.2857
5376.5 27.7143
5377.5 31.7143
5378.5 29.5714
5379.5 31.7143
5380.5 22.8571
5381.5 -32.7143
5382.5 20.4286
5383.5 -5.14285
5384.5 -10.5714
5385.5 7.00001
5386.5 25.4286
5387.5 44
5388.5 8.7143
5389.5 25.2857
5390.5 73.2857
5391.5 55.5714
5392.5 80.4286
5393.5 79.7143
5394.5 40.5714
5395.5 99.5714
5396.5 234.429
5397.5 54.1429
5398.5 91.7143
5399.5 95
5400.5 66.5714
5401.5 61.2857
5402.5 36.7143
5403.5 52.1429
5404.5 54.4286
5405.5 21.1429
5406.5 46.8571
5407.5 64.2857
5408.5 43
5409.5 54.5714
5410.5 29
5411.5 41.1429
5412.5 40.5714
5413.5 53.5714
5414.5 48.5714
5415.5 -0.428569
5416.5 10.4286
5417.5 29.8571
5418.5 28.2857
5419.5 44.8571
5420.5 40.1429
5421.5 14
5422.5 8.28572
5423.5 10.4286
5424.5 41.4286
5425.5 44.5714
5426.5 8.85715
5427.5 53
5428.5 39.1429
5429.5 58.4286
5430.5 26.4286
5431.5 49.5714
5432.5 17.1429
5433.5 48.5714
5434.5 53.1429
5435.5 26.8571
5436.5 32.2857
5437.5 44.2857
5438.5 42
5439.5 52.2857
5440.5 3.28572
5441.5 65.1429
5442.5 52.1429
5443.5 25.4286
5444.5 -5.42857
5445.5 17.5714
5446.5 14.4286
5447.5 33.5714
5448.5 15.2857
5449.5 32.1429
5450.5 1.85715
5451.5 44.8571
5452.5 -8.42857
5453.5 36.5714
5454.5 23.2857
5455.5 12.7143
5456.5 54.7143
5457.5 32.7143
5458.5 34
5459.5 30.2857
5460.5 38
5461.5 28.2857
5462.5 11.8571
5463.5 34
5464.5 38
5465.5 36.2857
5466.5 27.8571
5467.5 22.8571
5468.5 73.4286
5469.5 63.4286
5470.5 63.7143
5471.5 75.4286
5472.5 54.2857
5473.5 92.1429
5474.5 31.8571
5475.5 10.8571
5476.5 36.4286
5477.5 31.8571
5478.5 48.2857
5479.5 20.2857
5480.5 27.2857
5481.5 18.5714
5482.5 11.7143
5483.5 42.2857
5484.5 35.2857
5485.5 39
5486.5 33
5487.5 31.4286
5488.5 22.4286
5489.5 18.7143
5490.5 62.2857
5491.5 23.7143
5492.5 45.2857
5493.5 17.4286
5494.5 15.2857
5495.5 56.1429
5496.5 51.7143
5497.5 34.7143
5498.5 28.7143
5499.5 48.5714
5500.5 48.2857
5501.5 36.5714
5502.5 27.5714
5503.5 -3.42857
5504.5 50.5714
5505.5 25.4286
5506.5 36.7143
5507.5 26.1429
5508.5 44.8571
5509.5 31.8571
5510.5 -9.14285
5511.5 58.2857
5512.5 37.2857
5513.5 5.42858
5514.5 98.5714
5515.5 45.8572
5516.5 83.7143
5517.5 89.2857
5518.5 102
5519.5 109.857
5520.5 97.2857
5521.5 187.571
5522.5 280.143
5523.5 389.714
5524.5 363.571
5525.5 305.429
5526.5 224.571
5527.5 145.571
5528.5 64.8571
5529.5 51.1429
5530.5 39.7143
5531.5 31.8571
5532.5 58.8571
5533.5 31.2857
5534.5 57.8571
5535.5 21
5536.5 59.8571
5537.5 51.8571
5538.5 33.7143
5539.5 75.2857
5540.5 14
5541.5 66.8571
5542.5 49.5714
5543.5 40.2857
5544.5 32.2857
5545.5 18.2857
5546.5 36.2857
5547.5 48.8571
5548.5 32.1429
5549.5 41
5550.5 46.7143
5551.5 37.5714
5552.5 57
5553.5 55.2857
5554.5 12.2857
5555.5 20.5714
5556.5 51.8571
5557.5 43
5558.5 34.5714
5559.5 14.5714
5560.5 15.7143
5561.5 27.4286
5562.5 -3.71428
5563.5 44.8571
5564.5 -13.2857
5565.5 64.5714
5566.5 59.1429
5567.5 31
5568.5 63.8571
5569.5 53.1429
5570.5 21.5714
5571.5 47.1429
5572.5 48.7143
5573.5 49.1429
5574.5 51
5575.5 71.4286
5576.5 55.1429
5577.5 80.7143
5578.5 70.5714
5579.5 96.2857
5580.5 81.4286
5581.5 96.5714
5582.5 92.2857
5583.5 67.5714
5584.5 98.4286
5585.5 77.8571
5586.5 53.7143
5587.5 38.7143
5588.5 39.2857
5589.5 23.1429
5590.5 55.8571
5591.5 44
5592.5 39.1429
5593.5 50.5714
5594.5 46.4286
5595.5 61.2857
5596.5 49.4286
5597.5 15.5714
5598.5 19.4286
5599.5 40.7143
5600.5 39.7143
5601.5 39.5714
5602.5 50.5714
5603.5 58.7143
5604.5 69.8571
5605.5 37
5606.5 20.2857
5607.5 45
5608.5 14.8571
5609.5 36.8571
5610.5 40.8571
5611.5 16.8571
5612.5 55.1429
5613.5 44.5714
5614.5 29.7143
5615.5 37.7143
5616.5 50
5617.5 26.7143
5618.5 50.1429
5619.5 94.1429
5620.5 38.8571
5621.5 40.8571
5622.5 49
5623.5 55.8571
5624.5 24.1429
5625.5 50.7143
5626.5 52.5714
5627.5 40
5628.5 52.7143
5629.5 25.1429
5630.5 52.5714
5631.5 41.7143
5632.5 45.2857
5633.5 31.4286
5634.5 23.5714
5635.5 57.7143
5636.5 26.5714
5637.5 44.5714
5638.5 23.2857
5639.5 23.2857
5640.5 68.2857
5641.5 38.2857
5642.5 30.7143
5643.5 49.4286
5644.5 31.5714
5645.5 17.1429
5646.5 17.1429
5647.5 52.7143
5648.5 27.2857
5649.5 12.4286
5650.5 53.5714
5651.5 34.2857
5652.5 13.8571
5653.5 31.7143
5654.5 19
5655.5 33.4286
5656.5 26.7143
5657.5 38.5714
5658.5 34.2857
5659.5 30.7143
5660.5 54.8571
5661.5 55.5714
5662.5 36.8571
5663.5 48.8571
5664.5 47.7143
5665.5 20.2857
5666.5 20
5667.5 72.1429
5668.5 46.4286
5669.5 81
5670.5 33.1429
5671.5 57.8571
5672.5 35.2857
5673.5 26.8571
5674.5 46.2857
5675.5 51.7143
5676.5 39.5714
5677.5 56.7143
5678.5 48.4286
5679.5 79.2857
5680.5 41.8571
5681.5 46
5682.5 37.8571
5683.5 53.5714
5684.5 35.4286
5685.5 22.7143
5686.5 79.4286
5687.5 64.7143
5688.5 55.5714
5689.5 72.4286
5690.5 36.4286
5691.5 45.1429
5692.5 53.8571
5693.5 75.1429
5694.5 23
5695.5 49.4286
5696.5 71.8571
5697.5 60.4286
5698.5 71.8571
5699.5 33.4286
5700.5 44.4286
5701.5 48.7143
5702.5 32.4286
5703.5 27.4286
5704.5 53.8571
5705.5 55
5706.5 21.1429
5707.5 46.4286
5708.5 56.1429
5709.5 38.1429
5710.5 46.5714
5711.5 59.8571
5712.5 77
5713.5 118.714
5714.5 105.571
5715.5 82
5716.5 89
5717.5 112.286
5718.5 134.571
5719.5 57
5720.5 61
5721.5 47
5722.5 24.2857
5723.5 31.8571
5724.5 28.5714
5725.5 34.2857
5726.5 50.1429
5727.5 41.2857
5728.5 51.5714
5729.5 61.5714
5730.5 20.4286
5731.5 66.7143
5732.5 36.2857
5733.5 59
5734.5 61.2857
5735.5 21
5736.5 37.2857
5737.5 57.2857
5738.5 45.8571
5739.5 64.7143
5740.5 39
5741.5 52.4286
5742.5 47.7143
5743.5 35.7143
5744.5 37
5745.5 54.4286
5746.5 46.1429
5747.5 25.2857
5748.5 71.7143
5749.5 63
5750.5 63.7143
5751.5 49.7143
5752.5 20.1429
5753.5 76.8571
5754.5 36.7143
5755.5 31.1429
5756.5 39.2857
5757.5 45.4286
5758.5 40.7143
5759.5 52.8571
5760.5 50.1429
5761.5 63.5714
5762.5 46.2857
5763.5 41.2857
5764.5 56.8571
5765.5 48.7143
5766.5 43.1429
5767.5 61.7143
5768.5 75.8571
5769.5 55.8571
5770.5 66
5771.5 51.4286
5772.5 31.5714
5773.5 23.1429
5774.5 50.2857
5775.5 39.5714
5776.5 60.8571
5777.5 48.1429
5778.5 70.7143
5779.5 43.1429
5780.5 52.5714
5781.5 44.5714
5782.5 42
5783.5 42.1429
5784.5 61.2857
5785.5 13.1429
5786.5 34.4286
5787.5 60.8571
5788.5 39.8571
5789.5 50.4286
5790.5 35.8571
5791.5 46.5714
5792.5 53.8571
5793.5 73.4286
5794.5 53.7143
5795.5 27.5714
5796.5 37.1429
5797.5 55.4286
5798.5 81.1429
5799.5 41.5714
5800.5 64.5714
5801.5 33.4286
5802.5 37.5714
5803.5 39.5714
5804.5 54.1429
5805.5 57.2857
5806.5 55.2857
5807.5 37.7143
5808.5 45
5809.5 54.7143
5810.5 52.1429
5811.5 55.8571
5812.5 26.7143
5813.5 26.2857
5814.5 64
5815.5 53
5816.5 45
5817.5 63.4286
5818.5 44.7143
5819.5 64.7143
5820.5 31
5821.5 53.4286
5822.5 57.8571
5823.5 46.2857
5824.5 59.8571
5825.5 44.8571
5826.5 34.8571
5827.5 55.1429
5828.5 70
5829.5 70.1429
5830.5 73.8571
5831.5 44.8571
5832.5 60.5714
5833.5 58.5714
5834.5 40.4286
5835.5 46.5714
5836.5 73.5714
5837.5 46.4286
5838.5 63.7143
5839.5 94.5714
5840.5 50.2857
5841.5 59
5842.5 103.571
5843.5 80.1429
5844.5 82
5845.5 51.4286
5846.5 43
5847.5 67.2857
5848.5 86.1429
5849.5 57.7143
5850.5 68
5851.5 50
5852.5 57.7143
5853.5 17.2857
5854.5 51.7143
5855.5 61.5714
5856.5 60.1429
5857.5 47
5858.5 62.2857
5859.5 40.4286
5860.5 17.7143
5861.5 39.4286
5862.5 15
5863.5 56
5864.5 39.1429
5865.5 33.8571
5866.5 58.5714
5867.5 79.1429
5868.5 54.5714
5869.5 78.2857
5870.5 69.1429
5871.5 80.1429
5872.5 69.8571
5873.5 45.5714
5874.5 74.2857
5875.5 57.5714
5876.5 65.4286
5877.5 36.2857
5878.5 32.1429
5879.5 70.5714
5880.5 38.7143
5881.5 40.7143
5882.5 34.7143
5883.5 46.2857
5884.5 16.7143
5885.5 41
5886.5 12.4286
5887.5 30
5888.5 26.2857
5889.5 31.1429
5890.5 65.7143
5891.5 55.5714
5892.5 29.2857
5893.5 47.5714
5894.5 77.7143
5895.5 11
5896.5 83.7143
5897.5 30.4286
5898.5 80.1429
5899.5 135.143
5900.5 154.571
5901.5 163
5902.5 95
5903.5 75.5714
5904.5 78.2857
5905.5 84
5906.5 28.2857
5907.5 95.8571
5908.5 91.4286
5909.5 92.8571
5910.5 88.1429
5911.5 105.143
5912.5 96.8571
5913.5 78
5914.5 81.4286
5915.5 73
5916.5 55.8571
5917.5 50.2857
5918.5 67
5919.5 49.1429
5920.5 64.4286
5921.5 58.5714
5922.5 67.5714
5923.5 40.1429
5924.5 40.5714
5925.5 61.4286
5926.5 30.4286
5927.5 40.7143
5928.5 39
5929.5 36.8571
5930.5 69.7143
5931.5 35.1429
5932.5 18.8571
5933.5 40.4286
5934.5 29.7143
5935.5 41.8571
5936.5 69.5714
5937.5 27.5714
5938.5 47.7143
5939.5 60.5714
5940.5 63.7143
5941.5 36.4286
5942.5 42.8571
5943.5 38.8571
5944.5 33
5945.5 42.1429
5946.5 39.8571
5947.5 70.5714
5948.5 34.8571
5949.5 52.8571
5950.5 19.4286
5951.5 37.8571
5952.5 24
5953.5 33.8571
5954.5 62.5714
5955.5 50.2857
5956.5 62.4286
5957.5 39.8571
5958.5 28
5959.5 50.4286
5960.5 35.1429
5961.5 27.2857
5962.5 30.4286
5963.5 50.5714
5964.5 71.1429
5965.5 46.4286
5966.5 64.2857
5967.5 51.1429
5968.5 50.2857
5969.5 51.4286
5970.5 39.4286
5971.5 50
5972.5 44.2857
5973.5 72.5714
5974.5 39.8571
5975.5 17.5714
5976.5 43.2857
5977.5 57.7143
5978.5 37.2857
5979.5 26.7143
5980.5 41.4286
5981.5 52.1429
5982.5 50.7143
5983.5 43.8571
5984.5 52.2857
5985.5 55.7143
5986.5 22.4286
5987.5 30.5714
5988.5 46.8571
5989.5 53.5714
5990.5 36.7143
5991.5 28.1429
5992.5 48.1429
5993.5 15.5714
5994.5 66.7143
5995.5 42.7143
5996.5 59.2857
5997.5 39.7143
5998.5 38.2857
5999.5 56.2857
6000.5 13.5714
6001.5 34
6002.5 102.286
6003.5 106.857
6004.5 53
6005.5 34
6006.5 35.7143
6007.5 48.7143
6008.5 60
6009.5 28
6010.5 50
6011.5 40.5714
6012.5 41
6013.5 50.1429
6014.5 43.2857
6015.5 52.8571
6016.5 47.2857
6017.5 42.2857
6018.5 70.4286
6019.5 19.2857
6020.5 30
6021.5 57.8571
6022.5 52.8571
6023.5 64
6024.5 47
6025.5 57.4286
6026.5 120
6027.5 121.286
6028.5 201.571
6029.5 220.429
6030.5 350.429
6031.5 439.429
6032.5 624.857
6033.5 754.429
6034.5 938.857
6035.5 959.286
6036.5 841.286
6037.5 578.143
6038.5 370.857
6039.5 190.857
6040.5 127.286
6041.5 95
6042.5 94.5714
6043.5 51.4286
6044.5 45.5714
6045.5 67.2857
6046.5 72.7143
6047.5 28.4286
6048.5 49.1429
6049.5 38
6050.5 38.2857
6051.5 55
6052.5 29.8571
6053.5 52
6054.5 34.4286
6055.5 57.8571
6056.5 53.8571
6057.5 32.5714
6058.5 36.7143
6059.5 63.1429
6060.5 48
6061.5 50.2857
6062.5 52.2857
6063.5 46.1429
6064.5 66.5714
6065.5 52.1429
6066.5 61.8571
6067.5 44.2857
6068.5 68.1429
6069.5 48.2857
6070.5 49.8571
6071.5 58.8571
6072.5 71.4286
6073.5 63.1429
6074.5 60.4286
6075.5 23.8571
6076.5 57.8571
6077.5 49.1429
6078.5 41.5714
6079.5 47.8571
6080.5 28.7143
6081.5 47.7143
6082.5 45.4286
6083.5 50.1429
6084.5 59
6085.5 42.5714
6086.5 54.1429
6087.5 43.2857
6088.5 65.8571
6089.5 59.4286
6090.5 60
6091.5 39.2857
6092.5 65.2857
6093.5 66.5714
6094.5 78.8571
6095.5 55.8571
6096.5 60
6097.5 24.4286
6098.5 50.1429
6099.5 71.7143
6100.5 56.7143
6101.5 49.5714
6102.5 48.1429
6103.5 42.5714
6104.5 66.4286
6105.5 65.8571
6106.5 24.8571
6107.5 55.7143
6108.5 39.8571
6109.5 55.7143
6110.5 40.7143
6111.5 52.4286
6112.5 43.5714
6113.5 51.2857
6114.5 32.1429
6115.5 33.7143
6116.5 41
6117.5 68
6118.5 70
6119.5 88.4286
6120.5 59.8571
6121.5 51.4286
6122.5 50.1429
6123.5 66.2857
6124.5 89.4286
6125.5 64.2857
6126.5 56.4286
6127.5 22.7143
6128.5 44.7143
6129.5 47.7143
6130.5 34.5714
6131.5 67
6132.5 48.7143
6133.5 37.1429
6134.5 41.2857
6135.5 44.7143
6136.5 55.5714
6137.5 40
6138.5 35.2857
6139.5 48
6140.5 47.5714
6141.5 45.7143
6142.5 57.4286
6143.5 53.1429
6144.5 48.5714
6145.5 43.5714
6146.5 61.4286
6147.5 62.7143
6148.5 46.7143
6149.5 45.4286
6150.5 40.5714
6151.5 32.1429
6152.5 54.8571
6153.5 24.8571
6154.5 44.8571
6155.5 47.8571
6156.5 43.2857
6157.5 28.8571
6158.5 59.7143
6159.5 58.4286
6160.5 35.8571
6161.5 29.7143
6162.5 47.5714
6163.5 66.4286
6164.5 19.1429
6165.5 59.2857
6166.5 31.5714
6167.5 38.7143
6168.5 43.7143
6169.5 61.1429
6170.5 42.2857
6171.5 68.5714
6172.5 52.7143
6173.5 45.1429
6174.5 68.5714
6175.5 63.2857
6176.5 50.1429
6177.5 29.5714
6178.5 67
6179.5 71
6180.5 62.1429
6181.5 75.1429
6182.5 47.7143
6183.5 37.5714
6184.5 75.7143
6185.5 60.2857
6186.5 40.4286
6187.5 49.4286
6188.5 57.1429
6189.5 50.1429
6190.5 38.4286
6191.5 31
6192.5 75.2857
6193.5 57.4286
6194.5 49.1429
6195.5 37.4286
6196.5 42.2857
6197.5 65.5714
6198.5 41.7143
6199.5 30.5714
6200.5 67.8571
6201.5 44.7143
6202.5 43.2857
6203.5 32.2857
6204.5 43
6205.5 73.5714
6206.5 57.7143
6207.5 56
6208.5 59.1429
6209.5 51.8571
6210.5 66.7143
6211.5 44.1429
6212.5 61
6213.5 45.1429
6214.5 51.1429
6215.5 55.2857
6216.5 48.2857
6217.5 39.8571
6218.5 76.1429
6219.5 36.1429
6220.5 53.1429
6221.5 84.8571
6222.5 72
6223.5 115.429
6224.5 160.429
6225.5 131.143
6226.5 201.714
6227.5 222.571
6228.5 183.714
6229.5 144.571
6230.5 124.286
6231.5 98.8571
6232.5 66.8571
6233.5 54.2857
6234.5 73.5714
6235.5 35.1429
6236.5 60.2857
6237.5 47.7143
6238.5 64.5714
6239.5 47.8571
6240.5 56
6241.5 53.8571
6242.5 55
6243.5 35.7143
6244.5 51.1429
6245.5 40.4286
6246.5 60.4286
6247.5 43.2857
6248.5 67.8571
6249.5 75.2857
6250.5 54.8571
6251.5 37.5714
6252.5 57.2857
6253.5 53.7143
6254.5 42
6255.5 56.7143
6256.5 62
6257.5 55.1429
6258.5 56
6259.5 56.2857
6260.5 59.2857
6261.5 73.2857
6262.5 43.4286
6263.5 47.7143
6264.5 60.2857
6265.5 44.7143
6266.5 29.7143
6267.5 30.1429
6268.5 37
6269.5 49.1429
6270.5 28.2857
6271.5 62.8571
6272.5 58.2857
6273.5 39.1429
6274.5 56.7143
6275.5 80.7143
6276.5 29
6277.5 52
6278.5 68.4286
6279.5 65.2857
6280.5 55.4286
6281.5 80.8571
6282.5 48.1429
6283.5 48.1429
6284.5 29.7143
6285.5 66.5714
6286.5 67.4286
6287.5 57.8571
6288.5 52.7143
6289.5 42.5714
6290.5 69.2857
6291.5 83.7143
6292.5 48.8571
6293.5 51.1429
6294.5 55.2857
6295.5 55.4286
6296.5 60.7143
6297.5 30.8571
6298.5 38.8571
6299.5 50.4286
6300.5 43.5714
6301.5 45.8571
6302.5 58.8571
6303.5 58.8571
6304.5 41.4286
6305.5 41.7143
6306.5 43.2857
6307.5 70.1429
6308.5 39.8571
6309.5 43.7143
6310.5 59.5714
6311.5 61.4286
6312.5 45.4286
6313.5 58
6314.5 63.2857
6315.5 49.8571
6316.5 43.8571
6317.5 40.5714
6318.5 44.5714
6319.5 65.1429
6320.5 51
6321.5 30.8571
6322.5 52.8571
6323.5 33
6324.5 54
6325.5 36.5714
6326.5 54.7143
6327.5 51.4286
6328.5 46.5714
6329.5 41.4286
6330.5 50
6331.5 31.4286
6332.5 36.1429
6333.5 61.1429
6334.5 53.7143
6335.5 43.1429
6336.5 48.7143
6337.5 42.1429
6338.5 40.7143
6339.5 42.5714
6340.5 55.5714
6341.5 70.2857
6342.5 40.7143
6343.5 34.2857
6344.5 59
6345.5 29.7143
6346.5 48.2857
6347.5 62.7143
6348.5 55.1429
6349.5 65.7143
6350.5 47.8571
6351.5 38.7143
6352.5 25.5714
6353.5 26.8571
6354.5 42
6355.5 28.5714
6356.5 36.4286
6357.5 44.8571
6358.5 48
6359.5 18.2857
6360.5 42.7143
6361.5 62
6362.5 29.2857
6363.5 43.8571
6364.5 48.8571
6365.5 38.1429
6366.5 41.5714
6367.5 39.5714
6368.5 57.7143
6369.5 44.7143
6370.5 44.8571
6371.5 41.4286
6372.5 54.5714
6373.5 39.1429
6374.5 18.4286
6375.5 50.2857
6376.5 35.5714
6377.5 17.1429
6378.5 60.4286
6379.5 53.2857
6380.5 50.1429
6381.5 45.1429
6382.5 47.7143
6383.5 46.2857
6384.5 40
6385.5 42.5714
6386.5 26.8571
6387.5 46.2857
6388.5 36
6389.5 30.5714
6390.5 42.2857
6391.5 38.2857
6392.5 29.5714
6393.5 37
6394.5 31.2857
6395.5 60.5714
6396.5 43.2857
6397.5 39.2857
6398.5 37.8571
6399.5 26.5714
6400.5 49.1429
6401.5 43.4286
6402.5 38.8571
6403.5 48.1429
6404.5 61.4286
6405.5 46.8571
6406.5 22.2857
6407.5 27.1429
6408.5 52.8571
6409.5 31.5714
6410.5 39.8571
6411.5 22
6412.5 38.7143
6413.5 38.8571
6414.5 12
6415.5 45
6416.5 31
6417.5 90.7143
6418.5 100.571
6419.5 111.571
6420.5 83
6421.5 99.1429
6422.5 109.571
6423.5 157.429
6424.5 142.286
6425.5 127.571
6426.5 69.8571
6427.5 51.8571
6428.5 46
6429.5 50.8571
6430.5 16.2857
6431.5 28.2857
6432.5 16.7143
6433.5 52.4286
6434.5 22.5714
6435.5 22
6436.5 19.5714
6437.5 26.8571
6438.5 16.2857
6439.5 13.8571
6440.5 33.5714
6441.5 35.4286
6442.5 31.1429
6443.5 32.5714
6444.5 24.8571
6445.5 26
6446.5 17.7143
6447.5 19.8571
6448.5 25.7143
6449.5 28
6450.5 24.1429
6451.5 37.8571
6452.5 24.1429
6453.5 31
6454.5 28.7143
6455.5 28.8571
6456.5 29
6457.5 22
6458.5 35.5714
6459.5 20.8571
6460.5 20.7143
6461.5 22.5714
6462.5 34.5714
6463.5 23.5714
6464.5 25.5714
6465.5 15.7143
6466.5 12.2857
6467.5 22.7143
6468.5 27.2857
6469.5 20.8571
6470.5 34.5714
6471.5 23.7143
6472.5 28.7143
6473.5 37
6474.5 29
6475.5 21.5714
6476.5 22.7143
6477.5 10.7143
6478.5 31.8571
6479.5 30.7143
6480.5 -5
6481.5 20
6482.5 -1.57143
6483.5 36
6484.5 23.5714
6485.5 16.5714
6486.5 30.4286
6487.5 23.8571
6488.5 22.5714
6489.5 19.4286
6490.5 31.4286
6491.5 17.2857
6492.5 33.1429
6493.5 11.4286
6494.5 35
6495.5 20
6496.5 15
6497.5 19.5714
6498.5 5
6499.5 27.7143
6500.5 27.7143
6501.5 23.1429
6502.5 24
6503.5 27.7143
6504.5 13
6505.5 29
6506.5 13.4286
6507.5 6.14286
6508.5 25.4286
6509.5 20.2857
6510.5 20.8571
6511.5 28.5714
6512.5 12.1429
6513.5 10.8571
6514.5 25.8571
6515.5 27
6516.5 16.7143
6517.5 13.4286
6518.5 30.8571
6519.5 25
6520.5 33.8571
6521.5 32.7143
6522.5 12.4286
6523.5 38.2857
6524.5 12.7143
6525.5 28.4286
6526.5 7.14286
6527.5 39.8571
6528.5 22
6529.5 23.1429
6530.5 1.85714
6531.5 26
6532.5 17.2857
6533.5 42
6534.5 18.8571
6535.5 40.5714
6536.5 56.4286
6537.5 77.1429
6538.5 158.571
6539.5 225.286
6540.5 362.286
6541.5 547.286
6542.5 889.429
6543.5 1170.86
6544.5 1563.43
6545.5 1823.29
6546.5 1924.57
6547.5 1809.29
6548.5 1192.29
6549.5 718.857
6550.5 313.143
6551.5 180.714
6552.5 75.7143
6553.5 68.4286
6554.5 54.4286
6555.5 40.7143
6556.5 20.4286
6557.5 27.7143
6558.5 8.42857
6559.5 18.4286
6560.5 26.7143
6561.5 6.28572
6562.5 15.5714
6563.5 12.5714
6564.5 -5.71428
6565.5 18.5714
6566.5 1.71429
6567.5 41.8571
6568.5 2
6569.5 9
6570.5 2.42857
6571.5 4.28571
6572.5 -2.28571
6573.5 7.14286
6574.5 14.4286
6575.5 1.14286
6576.5 3.14286
6577.5 -0.857142
6578.5 9.14286
6579.5 11.4286
6580.5 19.5714
6581.5 4.57143
6582.5 1.71429
6583.5 5.71429
6584.5 3
6585.5 10.2857
6586.5 2.42857
6587.5 12
6588.5 8.71429
6589.5 15.7143
6590.5 3.57143
6591.5 0.857143
6592.5 5.28571
6593.5 3.71429
6594.5 4.57143
6595.5 6.28571
6596.5 5.14286
6597.5 4.57143
6598.5 -1.85714
6599.5 3
6600.5 10.1429
6601.5 16.8571
6602.5 14.1429
6603.5 0.142858
6604.5 14.8571
6605.5 8.71429
6606.5 17.8571
6607.5 8.42857
6608.5 1.71429
6609.5 14.4286
6610.5 4.71429
6611.5 11.1429
6612.5 5.71429
6613.5 -2.71429
6614.5 13.5714
6615.5 10.2857
6616.5 20.7143
6617.5 -3.14286
6618.5 16
6619.5 -5.42857
6620.5 -10.8571
6621.5 -9.28571
6622.5 1.28572
6623.5 3.71429
6624.5 14.7143
6625.5 8.85714
6626.5 -4.42857
6627.5 -4.57143
6628.5 10.7143
6629.5 0.285715
6630.5 15
6631.5 8.57143
6632.5 1.14286
6633.5 12
6634.5 6.85714
6635.5 6.71429
6636.5 9.57143
6637.5 4.28571
6638.5 23.2857
6639.5 16.7143
6640.5 11.8571
6641.5 3
6642.5 9.14286
6643.5 -2.85714
6644.5 10.5714
6645.5 10.7143
6646.5 7.71429
6647.5 32
6648.5 -2.57143
6649.5 -10.5714
6650.5 26.2857
6651.5 3.71429
6652.5 2.14286
6653.5 11
6654.5 7.42857
6655.5 6
6656.5 16.8571
6657.5 5.28571
6658.5 1.42857
6659.5 2.14286
6660.5 1.85714
6661.5 14.4286
6662.5 -2.42857
6663.5 5.28571
6664.5 11
6665.5 12.2857
6666.5 1.71429
6667.5 1.57143
6668.5 19.1429
6669.5 0.857143
6670.5 11
6671.5 2.85714
6672.5 10.2857
6673.5 23
6674.5 25.2857
6675.5 12.5714
6676.5 5
6677.5 7.14286
6678.5 16.8571
6679.5 12
6680.5 13
6681.5 3.57143
6682.5 19.5714
6683.5 8
6684.5 3.14286
6685.5 -5.14286
6686.5 2.14286
6687.5 8.57143
6688.5 14.8571
6689.5 4.14286
6690.5 16.1429
6691.5 12.4286
6692.5 -8.71428
6693.5 18.7143
6694.5 22.7143
6695.5 3.57143
6696.5 19.5714
6697.5 10.8571
6698.5 1
6699.5 15.1429
6700.5 20.2857
6701.5 3.14286
6702.5 6.57143
6703.5 -7
6704.5 6
6705.5 9.42857
6706.5 3.28571
6707.5 13.4286
6708.5 9.28571
6709.5 13
6710.5 10
6711.5 -3.57143
6712.5 11.4286
6713.5 15.7143
6714.5 1.57143
6715.5 8.71429
6716.5 -2
6717.5 -0.428571
6718.5 16
6719.5 -1
6720.5 10.5714
6721.5 12.5714
6722.5 9.71429
6723.5 3.71429
6724.5 19.1429
6725.5 -3.28571
6726.5 9.28571
6727.5 13.4286
6728.5 7.71429
6729.5 7.42857
6730.5 -5.85714
6731.5 12.4286
6732.5 3
6733.5 -1.85714
6734.5 8.14286
6735.5 10.2857
6736.5 6.14286
6737.5 11.2857
6738.5 9.28571
6739.5 6.28571
6740.5 5.57143
6741.5 13.2857
6742.5 -2.85714
6743.5 1.85714
6744.5 0.285715
6745.5 4.14286
6746.5 21.5714
6747.5 3
6748.5 14.7143
6749.5 -10.8571
6750.5 -3.57143
6751.5 22.4286
6752.5 15.2857
6753.5 1
6754.5 3.57143
6755.5 15.1429
6756.5 5.85714
6757.5 13.5714
6758.5 10
6759.5 1.85714
6760.5 2.85714
6761.5 -4.42857
6762.5 10.4286
6763.5 15.4286
6764.5 11.8571
6765.5 13.2857
6766.5 6.85714
6767.5 -9.71428
6768.5 -3.57143
6769.5 6.71429
6770.5 6.28572
6771.5 10.4286
6772.5 -1.57143
6773.5 -6.57143
6774.5 8.14286
6775.5 -11.2857
6776.5 8.28571
6777.5 -4.14286
6778.5 -0.857142
6779.5 9.85714
6780.5 2.57143
6781.5 11.4286
6782.5 -3.42857
6783.5 5
6784.5 3.57143
6785.5 -4.57143
6786.5 16.2857
6787.5 3.14286
6788.5 14
6789.5 8.42857
6790.5 10.8571
6791.5 14.1429
6792.5 8.71429
6793.5 5.57143
6794.5 -1.28571
6795.5 10.5714
6796.5 8.57143
6797.5 9.57143
6798.5 4.42857
6799.5 9.71429
6800.5 5.71429
6801.5 16.1429
6802.5 5.57143
6803.5 11.5714
6804.5 13.5714
6805.5 10
6806.5 18.5714
6807.5 2.28571
6808.5 2.42857
6809.5 1.71429
6810.5 5.85714
6811.5 16
6812.5 6.42857
6813.5 1.85714
6814.5 18.5714
6815.5 10.2857
6816.5 1.71429
6817.5 10.8571
6818.5 0.857143
6819.5 6.57143
6820.5 -5.28571
6821.5 17.2857
6822.5 3.42857
6823.5 7.85714
6824.5 2.28571
6825.5 -5.85714
6826.5 9.85714
6827.5 6.57143
6828.5 19.2857
6829.5 8.85714
6830.5 -0.142857
6831.5 9.57143
6832.5 2
6833.5 2.85714
6834.5 2.85714
6835.5 0.857143
6836.5 -5.28571
6837.5 7.42857
6838.5 3.42857
6839.5 2.71429
6840.5 6.28571
6841.5 17.5714
6842.5 6.42857
6843.5 5.71429
6844.5 -1.42857
6845.5 -3.42857
6846.5 7.42857
6847.5 6.28571
6848.5 8.28571
6849.5 1.42857
6850.5 2.85714
6851.5 4.14286
6852.5 4.42857
6853.5 6.85714
6854.5 6.28571
6855.5 5
6856.5 -3.28571
6857.5 2.57143
6858.5 5.57143
6859.5 -1.71429
6860.5 -3.28571
6861.5 4.57143
6862.5 14.8571
6863.5 -1.71429
6864.5 22.7143
6865.5 7.85714
6866.5 -2.14286
6867.5 6.14286
6868.5 -1.71429
6869.5 -0.857142
6870.5 -0.142857
6871.5 5.14286
6872.5 2.38419e-07
6873.5 5.28571
6874.5 8.14286
6875.5 5
6876.5 10.7143
6877.5 1
6878.5 -1.57143
6879.5 9.28571
6880.5 -3.71429
6881.5 -6.42857
6882.5 -2
6883.5 0.714286
6884.5 7.14286
6885.5 1.28571
6886.5 3.42857
6887.5 5.14286
6888.5 8.14286
6889.5 8
6890.5 8.57143
6891.5 12
6892.5 0.571429
6893.5 12.2857
6894.5 -1.28571
6895.5 12.5714
6896.5 3.57143
6897.5 10.1429
6898.5 0.714286
6899.5 3.57143
6900.5 10.5714
6901.5 10.2857
6902.5 4.85714
6903.5 6.42857
6904.5 5.28571
6905.5 6.85714
6906.5 5
6907.5 10.1429
6908.5 6.28571
6909.5 7.42857
6910.5 2.14286
6911.5 9.71429
6912.5 -1
6913.5 8.42857
6914.5 -0.142857
6915.5 1.85714
6916.5 -3.57143
6917.5 -0.428571
6918.5 3.28571
6919.5 3.85714
6920.5 0.857143
6921.5 -14.5714
6922.5 -5.28571
6923.5 9.57143
6924.5 11.7143
6925.5 19.1429
6926.5 19
6927.5 30.4286
6928.5 47.2857
6929.5 40.2857
6930.5 108.714
6931.5 122
6932.5 164.286
6933.5 200.286
6934.5 238
6935.5 208
6936.5 157.714
6937.5 127
6938.5 75.1429
6939.5 46.8571
6940.5 29
6941.5 15.5714
6942.5 8.71429
6943.5 10.2857
6944.5 14.1429
6945.5 12.5714
6946.5 5.14286
6947.5 5.42857
6948.5 6
6949.5 -0.571428
6950.5 10.2857
6951.5 -2.28571
6952.5 -9.85714
6953.5 2
6954.5 -1.57143
6955.5 6.28571
6956.5 2.14286
6957.5 4.42857
6958.5 1.28571
6959.5 -8.28571
6960.5 -4.14286
6961.5 2.42857
6962.5 0.428572
6963.5 11.2857
6964.5 2.57143
6965.5 2.57143
6966.5 -1.42857
6967.5 -3
6968.5 -2.14286
6969.5 12.7143
6970.5 8.28571
6971.5 -0.142857
6972.5 -3.57143
6973.5 12.7143
6974.5 3.42857
6975.5 -2.14286
6976.5 0.714286
6977.5 -5.14286
6978.5 -2.42857
6979.5 8.14286
6980.5 5
6981.5 2.42857
6982.5 -1.85714
6983.5 3
6984.5 -4.14286
6985.5 5.71429
6986.5 -0.285714
6987.5 6
6988.5 0.571429
6989.5 2
6990.5 7
6991.5 -7.71429
6992.5 14.7143
6993.5 1
6994.5 11.7143
6995.5 2.28571
6996.5 -0.142857
6997.5 -1.85714
6998.5 1
6999.5 -4.57143
7000.5 4.42857
7001.5 5
7002.5 1
7003.5 -2.28571
7004.5 -9.28571
7005.5 1.57143
7006.5 3.42857
7007.5 0.142858
7008.5 0.428572
7009.5 -5
7010.5 -1.71429
7011.5 -3
7012.5 -3.57143
7013.5 -1.71429
7014.5 -6.71429
7015.5 1.28571
7016.5 1
7017.5 -2.71429
7018.5 7.42857
7019.5 -0.857143
7020.5 -8.71429
7021.5 4.28571
7022.5 8.14286
7023.5 10.7143
7024.5 14.1429
7025.5 -5.85714
7026.5 5.14286
7027.5 4.42857
7028.5 11.1429
7029.5 4.71429
7030.5 11.7143
7031.5 -1.57143
7032.5 0.428572
7033.5 0.857143
7034.5 4.85714
7035.5 -0.714285
7036.5 -0.142857
7037.5 0.857143
7038.5 0.857143
7039.5 4.42857
7040.5 6.57143
7041.5 5.57143
7042.5 -3.14286
7043.5 -6.71429
7044.5 5.14286
7045.5 -1.14286
7046.5 3.85714
7047.5 2.38419e-07
7048.5 4.57143
7049.5 9.28571
7050.5 2.38419e-07
7051.5 6.57143
7052.5 2.57143
7053.5 6.57143
7054.5 1.42857
7055.5 1.85714
7056.5 0.571429
7057.5 5.57143
7058.5 4.57143
7059.5 1.57143
7060.5 5.28571
7061.5 -0.142857
7062.5 -11.5714
7063.5 -4.71429
7064.5 10.5714
7065.5 -9
7066.5 1.85714
7067.5 9.57143
7068.5 -1.42857
7069.5 2.14286
7070.5 5.57143
7071.5 13.4286
7072.5 -10.7143
7073.5 7.42857
7074.5 4.71429
7075.5 7.42857
7076.5 3.14286
7077.5 1
7078.5 0.857143
7079.5 3.14286
7080.5 9.57143
7081.5 -0.571428
7082.5 3
7083.5 5.85714
7084.5 3.71429
7085.5 -0.142857
7086.5 8.57143
7087.5 5.85714
7088.5 9.71429
7089.5 2.38419e-07
7090.5 9.71429
7091.5 1
7092.5 -2.71429
7093.5 3.14286
7094.5 4.71429
7095.5 -13.2857
7096.5 6.28571
7097.5 2.85714
7098.5 13.2857
7099.5 -8.28571
7100.5 6.14286
7101.5 -0.285714
7102.5 -1
7103.5 3
7104.5 2.57143
7105.5 1
7106.5 9.71429
7107.5 -0.428571
7108.5 4.71429
7109.5 -4.14286
7110.5 -5.14286
7111.5 6.28571
7112.5 -0.142857
7113.5 1.42857
7114.5 -6.42857
7115.5 -3.14286
7116.5 -4.14286
7117.5 -5.42857
7118.5 4.57143
7119.5 10
7120.5 10.5714
7121.5 1.85714
7122.5 -5.28571
7123.5 -0.142857
7124.5 0.714286
7125.5 5.71429
7126.5 -1.71429
7127.5 -7.28571
7128.5 5.57143
7129.5 -5
7130.5 7.28571
7131.5 -4.14286
7132.5 -2.57143
7133.5 0.571429
7134.5 6.42857
7135.5 -6.28571
7136.5 -1.14286
7137.5 -3
7138.5 9.71429
7139.5 -12.8571
7140.5 -5
7141.5 3.57143
7142.5 -3.14286
7143.5 0.142857
7144.5 0.428572
7145.5 5
7146.5 -6.14286
7147.5 7.85714
7148.5 -3.14286
7149.5 -3
7150.5 -0.571428
7151.5 -4
7152.5 -2.14286
7153.5 2.71429
7154.5 12.4286
7155.5 5.71429
7156.5 6.57143
7157.5 4.85714
7158.5 -5.57143
7159.5 3.14286
7160.5 0.714286
7161.5 1.57143
7162.5 -0.428571
7163.5 2.57143
7164.5 -0.285714
7165.5 0.428572
7166.5 -2.57143
7167.5 -2.28571
7168.5 -9.42857
7169.5 -0.142857
7170.5 7.14286
7171.5 -0.285714
7172.5 7.71429
7173.5 2.71429
7174.5 -14
7175.5 2
7176.5 5.28571
7177.5 4.71429
7178.5 5.28571
7179.5 11.2857
7180.5 0.571429
7181.5 -4.14286
7182.5 -6.71429
7183.5 5
7184.5 -0.428571
7185.5 7.14286
7186.5 -1.57143
7187.5 -1.14286
7188.5 7.71429
7189.5 4.57143
7190.5 5.71429
7191.5 -5.57143
7192.5 4
7193.5 3.85714
7194.5 5.57143
7195.5 8.85714
7196.5 5.57143
7197.5 6.57143
7198.5 4.14286
7199.5 -2.71429
7200.5 1.28571
7201.5 10.4286
7202.5 -22.4286
7203.5 -5.28571
7204.5 -9.14286
7205.5 -7.85714
7206.5 -0.42857
7207.5 -6
7208.5 1.19209e-06
7209.5 14.5714
7210.5 3.57143
7211.5 0.714286
7212.5 -2
7213.5 6.28571
7214.5 -2.57143
7215.5 -1.14286
7216.5 6.14286
7217.5 6.28571
7218.5 14.1429
7219.5 -1.57143
7220.5 0.571429
7221.5 3.14286
7222.5 5.14286
7223.5 -1.28571
7224.5 -3.57143
7225.5 0.571429
7226.5 2.38419e-07
7227.5 -6.14286
7228.5 -1
7229.5 -0.428571
7230.5 2.28571
7231.5 -2.42857
7232.5 -3.42857
7233.5 2.57143
7234.5 7.28571
7235.5 -2.85714
7236.5 6.28571
7237.5 4.14286
7238.5 9.42857
7239.5 3.14286
7240.5 3.14286
7241.5 4.14286
7242.5 -4.42857
7243.5 2.42857
7244.5 -7.71429
7245.5 4.57143
7246.5 -1.28571
7247.5 2.71429
7248.5 7.14286
7249.5 -2
7250.5 -3.71429
7251.5 -4.57143
7252.5 4.71429
7253.5 1.28571
7254.5 3.14286
7255.5 7.14286
7256.5 8.85714
7257.5 -1.57143
7258.5 -9.85714
7259.5 21.4286
7260.5 7.85714
7261.5 6.14286
7262.5 2.14286
7263.5 12.2857
7264.5 3.71429
7265.5 -9.57143
7266.5 -0.714285
7267.5 -11.1429
7268.5 6.57143
7269.5 -1.14286
7270.5 -3.14286
7271.5 2.85714
7272.5 -2.42857
7273.5 -5.57143
7274.5 -2.57143
7275.5 1.57143
7276.5 -7.71429
7277.5 4.28571
7278.5 12.5714
7279.5 2
7280.5 2
7281.5 3.14286
7282.5 -0.285714
7283.5 -3.14286
7284.5 -0.857143
7285.5 5.28571
7286.5 -0.857143
7287.5 -6.57143
7288.5 -2.42857
7289.5 -5.71429
7290.5 -6.57143
7291.5 2.38419e-07
7292.5 3.42857
7293.5 -4.14286
7294.5 1
7295.5 -4.57143
7296.5 -6.28571
7297.5 2.38419e-07
7298.5 1.28571
7299.5 10.5714
7300.5 7.57143
7301.5 11.1429
7302.5 -9.57143
7303.5 6.71429
7304.5 14.5714
7305.5 15
7306.5 16
7307.5 2
7308.5 9.71429
7309.5 9.71429
7310.5 1.28571
7311.5 -3.85714
7312.5 3.28571
7313.5 -2.42857
7314.5 8
7315.5 4.42857
7316.5 7
7317.5 -14.7143
7318.5 -9.14286
7319.5 -7
7320.5 3.85714
7321.5 0.428572
7322.5 0.571429
7323.5 -5.42857
7324.5 -8.14286
7325.5 1.71429
7326.5 -2.42857
7327.5 0.571429
7328.5 4.42857
7329.5 -3.85714
7330.5 6
7331.5 2.71429
7332.5 1.28571
7333.5 -6
7334.5 -6.14286
7335.5 4.85714
7336.5 5.42857
7337.5 4.85714
7338.5 1.71429
7339.5 3.85714
7340.5 -0.857143
7341.5 -2.28571
7342.5 -2
7343.5 -0.428571
7344.5 6.85714
7345.5 -3.28571
7346.5 -4.14286
7347.5 3.71429
7348.5 4.28571
7349.5 2.28571
7350.5 0.857143
7351.5 3.71429
7352.5 1.85714
7353.5 17.4286
7354.5 1.57143
7355.5 1.14286
7356.5 -13.1429
7357.5 -2.28571
7358.5 -3.42857
7359.5 -6.57143
7360.5 -2
7361.5 -6.57143
7362.5 -1.42857
7363.5 -6.57143
7364.5 -2
7365.5 -1.42857
7366.5 -0.428571
7367.5 2.85714
7368.5 -2.42857
7369.5 -3
7370.5 3.28571
7371.5 5.28571
7372.5 3.14286
7373.5 2.14286
7374.5 3.57143
7375.5 -2.42857
7376.5 -10.2857
7377.5 -3.85714
7378.5 -4.42857
7379.5 6.42857
7380.5 -2.85714
7381.5 -2.42857
7382.5 -1.28571
7383.5 -2.85714
7384.5 4.71429
7385.5 -6.57143
7386.5 1.14286
7387.5 -4.42857
7388.5 -4
7389.5 6.85714
7390.5 0.285714
7391.5 -0.285714
7392.5 -1.28571
7393.5 -4
7394.5 1.28571
7395.5 2.28571
7396.5 -6
7397.5 8
7398.5 -5.42857
7399.5 -0.714286
7400.5 -0.857143
7401.5 2.14286
7402.5 2.14286
7403.5 0.714286
7404.5 4.28571
7405.5 -0.857143
7406.5 2.71429
7407.5 5.42857
7408.5 0.714286
7409.5 3.71429
7410.5 6.71429
7411.5 15.2857
7412.5 0.571429
7413.5 -0.142857
7414.5 -4
7415.5 5
7416.5 10.8571
7417.5 -8.57143
7418.5 8.85714
7419.5 5.85714
7420.5 7.42857
7421.5 -12.5714
7422.5 -10.7143
7423.5 -0.857143
7424.5 -5.57143
7425.5 -2.28571
7426.5 3.28571
7427.5 2.28571
7428.5 4.42857
7429.5 7.28571
7430.5 -1.71429
7431.5 4.85714
7432.5 4.85714
7433.5 -1.28571
7434.5 2.14286
7435.5 0.571429
7436.5 -6.42857
7437.5 2.57143
7438.5 -8.14286
7439.5 0.714286
7440.5 4.85714
7441.5 -4.57143
7442.5 -2.28571
7443.5 -4.57143
7444.5 -4.28571
7445.5 7.42857
7446.5 9.42857
7447.5 -1.42857
7448.5 -7.14286
7449.5 -1
7450.5 1.71429
7451.5 0.571429
7452.5 5.14286
7453.5 -4.57143
7454.5 6.71429
7455.5 2.57143
7456.5 6.57143
7457.5 8.28571
7458.5 1.28571
7459.5 -3
7460.5 -0.857143
7461.5 3.71429
7462.5 1.85714
7463.5 9.42857
7464.5 0.714286
7465.5 -2.28571
7466.5 -9.14286
7467.5 0.142857
7468.5 6.71429
7469.5 0.285714
7470.5 1.57143
7471.5 -0.285714
7472.5 1.28571
7473.5 0.714286
7474.5 1.28571
7475.5 3.42857
7476.5 -4
7477.5 2.28571
7478.5 -3.85714
7479.5 4.85714
7480.5 -8.57143
7481.5 -0.285714
7482.5 -8.57143
7483.5 0.714286
7484.5 7.42857
7485.5 5.85714
7486.5 -0.857143
7487.5 -0.857143
7488.5 -3
7489.5 4.28571
7490.5 -3.85714
7491.5 -6.42857
7492.5 -0.428571
7493.5 4.28571
7494.5 -5.42857
7495.5 -1.71429
7496.5 -6.42857
7497.5 1.28571
7498.5 0.714286
7499.5 -1.14286
7500.5 -5.42857
7501.5 -1.85714
7502.5 -6
7503.5 3.57143
7504.5 5.85714
7505.5 -4.28571
7506.5 -0.285714
7507.5 2.71429
7508.5 -4
7509.5 0.285714
7510.5 -5.42857
7511.5 8.28571
7512.5 4.57143
7513.5 -0.714286
7514.5 -2.28571
7515.5 -5.42857
7516.5 -2.85714
7517.5 2.14286
7518.5 0.857143
7519.5 -0.857143
7520.5 -0.285714
7521.5 -1.42857
7522.5 -2
7523.5 2.14286
7524.5 2.85714
7525.5 0.571429
7526.5 -0.285714
7527.5 7.42857
7528.5 -2.42857
7529.5 -4
7530.5 -2.14286
7531.5 -1.28571
7532.5 -5.42857
7533.5 -4.85714
7534.5 8
7535.5 0.857143
7536.5 4.42857
7537.5 0.285714
7538.5 -1.85714
7539.5 3.42857
7540.5 -3.28571
7541.5 5.42857
7542.5 3.71429
7543.5 7.85714
7544.5 1.85714
7545.5 1.14286
7546.5 0.285714
7547.5 -2.85714
7548.5 4.71429
7549.5 4.42857
7550.5 0.857143
7551.5 1.71429
7552.5 1.71429
7553.5 5.28571
7554.5 1
7555.5 -6
7556.5 0.285714
7557.5 -1
7558.5 1.85714
7559.5 6.42857
7560.5 -6.57143
7561.5 7.14286
7562.5 -0.714286
7563.5 -3.57143
7564.5 -1.85714
7565.5 2.85714
7566.5 -2.85714
7567.5 -10.1429
7568.5 -4.57143
7569.5 -1.71429
7570.5 -0.142857
7571.5 -7
7572.5 7.57143
7573.5 5.85714
7574.5 -4.42857
7575.5 -3.85714
7576.5 4.14286
7577.5 4.28571
7578.5 4.14286
7579.5 6.71429
7580.5 7.28571
7581.5 -1.28571
7582.5 3.71429
7583.5 10.4286
7584.5 -0.428571
7585.5 3.42857
7586.5 -4.71429
7587.5 -4.85714
7588.5 -6.57143
7589.5 -1.71429
7590.5 0.428571
7591.5 -1.85714
7592.5 2.85714
7593.5 -3.71429
7594.5 -0.857143
7595.5 10.4286
7596.5 -6.42857
7597.5 0.285714
7598.5 2.28571
7599.5 1.71429
7600.5 -12.1429
7601.5 -0.714286
7602.5 0.714286
7603.5 -1.14286
7604.5 0.142857
7605.5 -1.14286
7606.5 0.857143
7607.5 -4.42857
7608.5 -4.28571
7609.5 -0.857143
7610.5 -1.28571
7611.5 -1.14286
7612.5 0.714286
7613.5 -6.42857
7614.5 5.42857
7615.5 -2.85714
7616.5 -1.85714
7617.5 6.85714
7618.5 0.714286
7619.5 5
7620.5 5.42857
7621.5 -4.42857
7622.5 0.142857
7623.5 2.85714
7624.5 1.85714
7625.5 6.42857
7626.5 -2.28571
7627.5 -12.8571
7628.5 -2
7629.5 0.714286
7630.5 2.85714
7631.5 2.57143
7632.5 1.71429
7633.5 4.28571
7634.5 -2.42857
7635.5 -6.42857
7636.5 -1.28571
7637.5 -0.285714
7638.5 3.28571
7639.5 -6.42857
7640.5 3.85714
7641.5 2.28571
7642.5 0.285714
7643.5 2.14286
7644.5 -6.42857
7645.5 -1.85714
7646.5 -2.28571
7647.5 2.85714
7648.5 4.71429
7649.5 7.42857
7650.5 6.85714
7651.5 0.857143
7652.5 1.71429
7653.5 5.28571
7654.5 1.85714
7655.5 -8.42857
7656.5 -9
7657.5 -4.42857
7658.5 -9
7659.5 5.42857
7660.5 1.71429
7661.5 0.285714
7662.5 -3.28571
7663.5 2.42857
7664.5 2.42857
7665.5 -3.28571
7666.5 0.714286
7667.5 -1.14286
7668.5 -1
7669.5 2.71429
7670.5 -3.85714
7671.5 1.42857
7672.5 -0.142857
7673.5 -1.28571
7674.5 0.142857
7675.5 -8.57143
7676.5 -4.85714
7677.5 1.28571
7678.5 5.85714
7679.5 -1.71429
7680.5 6.42857
7681.5 0.285714
7682.5 1.28571
7683.5 -4.28571
7684.5 1.42857
7685.5 0.857143
7686.5 -1.28571
7687.5 3
7688.5 0.857143
7689.5 -1.71429
7690.5 4.85714
7691.5 0.285714
7692.5 -4.42857
7693.5 -0.142857
7694.5 -0.285714
7695.5 2
7696.5 5.42857
7697.5 5.28571
7698.5 5.14286
7699.5 -4
7700.5 -4
7701.5 5.28571
7702.5 7.85714
7703.5 1.71429
7704.5 3.85714
7705.5 1.42857
7706.5 2.71429
7707.5 -5.57143
7708.5 -4.42857
7709.5 1.85714
7710.5 -0.428571
7711.5 7.85714
7712.5 6.85714
7713.5 -4.85714
7714.5 -3.85714
7715.5 4.85714
7716.5 0.857143
7717.5 3.42857
7718.5 -0.714286
7719.5 4.85714
7720.5 -2.71429
7721.5 -3.85714
7722.5 -8.71429
7723.5 1.85714
7724.5 -9.57143
7725.5 -7.42857
7726.5 -0.714286
7727.5 1.71429
7728.5 3
7729.5 1.85714
7730.5 1.28571
7731.5 -1.28571
7732.5 -0.714286
7733.5 -1.71429
7734.5 2
7735.5 4.42857
7736.5 1.85714
7737.5 -1.14286
7738.5 6.42857
7739.5 3.85714
7740.5 3.85714
7741.5 1.85714
7742.5 1.42857
7743.5 1.28571
7744.5 1.85714
7745.5 -9.42857
7746.5 7.42857
7747.5 -1.28571
7748.5 2.85714
7749.5 9
7750.5 -1.57143
7751.5 -0.714286
7752.5 -4.71429
7753.5 0.857143
7754.5 2.42857
7755.5 -5
7756.5 -2.28571
7757.5 -1.14286
7758.5 0.714286
7759.5 2
7760.5 1.85714
7761.5 0.285714
7762.5 3
7763.5 -1.42857
7764.5 -5.85714
7765.5 0.714286
7766.5 0.857143
7767.5 3.42857
7768.5 -7.71429
7769.5 -3.71429
7770.5 9.57143
7771.5 7.14286
7772.5 6.85714
7773.5 5.71429
7774.5 4.57143
7775.5 -10.1429
7776.5 6.71429
7777.5 10.2857
7778.5 0.571429
7779.5 -5.42857
7780.5 -1.28571
7781.5 3.28571
7782.5 1.28571
7783.5 0.142857
7784.5 -1.14286
7785.5 4.85714
7786.5 0.857143
7787.5 8.42857
7788.5 -2.71429
7789.5 4.42857
7790.5 3.28571
7791.5 -2.42857
7792.5 1.85714
7793.5 2.85714
7794.5 -0.142857
7795.5 0.428571
7796.5 2.85714
7797.5 -0.714286
7798.5 3
7799.5 -0.714286
7800.5 -0.142857
7801.5 -1.71429
7802.5 -1.71429
7803.5 0.428571
7804.5 -1.28571
7805.5 1.85714
7806.5 -5.28571
7807.5 1.42857
7808.5 3.42857
7809.5 -0.714286
7810.5 -2.28571
7811.5 -0.142857
7812.5 1.85714
7813.5 -0.142857
7814.5 0.857143
7815.5 -3.85714
7816.5 -1.42857
7817.5 1.71429
7818.5 6.14286
7819.5 -3.28571
7820.5 -9.85714
7821.5 6.85714
7822.5 5.14286
7823.5 -6.28571
7824.5 7.28571
7825.5 -0.714285
7826.5 16.4286
7827.5 0.571429
7828.5 -12.1429
7829.5 11
7830.5 -12
7831.5 3.42857
7832.5 6.85714
7833.5 -1.71429
7834.5 1.85714
7835.5 0.428571
7836.5 -2.28571
7837.5 -2.28571
7838.5 -2.28571
7839.5 2.42857
7840.5 0.857143
7841.5 -10.1429
7842.5 2.85714
7843.5 3
7844.5 -0.714286
7845.5 3.42857
7846.5 4
7847.5 4.42857
7848.5 6.42857
7849.5 -1.28571
7850.5 -2.71429
7851.5 -1.71429
7852.5 1.42857
7853.5 -0.142857
7854.5 -5.28571
7855.5 1.85714
7856.5 -0.285714
7857.5 0.857143
7858.5 2.42857
7859.5 3.42857
7860.5 1.42857
7861.5 4
7862.5 2.42857
7863.5 2
7864.5 -4.28571
7865.5 -2.71429
7866.5 -1.71429
7867.5 -0.571429
7868.5 -2.14286
7869.5 -1.71429
7870.5 -6.85714
7871.5 -1.57143
7872.5 4
7873.5 -2.28571
7874.5 5
7875.5 -0.571429
7876.5 1.85714
7877.5 0.857143
7878.5 -2.14286
7879.5 0.857143
7880.5 1.42857
7881.5 -0.142857
7882.5 -0.571429
7883.5 0.857143
7884.5 0.428571
7885.5 -0.142857
7886.5 5
7887.5 -4.71429
7888.5 -5.28571
7889.5 -3.14286
7890.5 -0.571429
7891.5 -0.571429
7892.5 5
7893.5 1.42857
7894.5 3
7895.5 -6.28571
7896.5 -2.14286
7897.5 2.85714
7898.5 -2.85714
7899.5 -0.571429
7900.5 -2.14286
7901.5 0.428571
7902.5 2
7903.5 -0.142857
7904.5 -2.71429
7905.5 -3.71429
7906.5 3
7907.5 -2.28571
7908.5 1.42857
7909.5 2
7910.5 -5.85714
7911.5 6.85714
7912.5 2.42857
7913.5 -2.28571
7914.5 0.428571
7915.5 5.85714
7916.5 -1.71429
7917.5 2.28571
7918.5 4
7919.5 3.28571
7920.5 1.28571
7921.5 0.285714
7922.5 2.28571
7923.5 1.85714
7924.5 0.857143
7925.5 2.85714
7926.5 -1.14286
7927.5 2.42857
7928.5 3.42857
7929.5 1.42857
7930.5 -4.28571
7931.5 2
7932.5 2
7933.5 2
7934.5 -2.14286
7935.5 5
7936.5 1
7937.5 -1.57143
7938.5 2.42857
7939.5 -4.85714
7940.5 0.857143
7941.5 0.428571
7942.5 2.42857
7943.5 -4.28571
7944.5 2.42857
7945.5 3
7946.5 -0.285714
7947.5 -5.28571
7948.5 3.42857
7949.5 0.428571
7950.5 0.857143
7951.5 2.42857
7952.5 -0.571429
7953.5 -2.71429
7954.5 -0.142857
7955.5 1.85714
7956.5 -2.28571
7957.5 1.42857
7958.5 2
7959.5 -2.28571
7960.5 -1.57143
7961.5 -0.571429
7962.5 0.428571
7963.5 -0.714286
7964.5 0.428571
7965.5 -4.28571
7966.5 -0.142857
7967.5 -1.57143
7968.5 -0.714286
7969.5 6
7970.5 -3.71429
7971.5 -2.71429
7972.5 -0.142857
7973.5 -2.14286
7974.5 -5.85714
7975.5 -3.28571
7976.5 0.428571
7977.5 -4.71429
7978.5 -3.14286
7979.5 -5.85714
7980.5 0.428571
7981.5 1
7982.5 1.42857
7983.5 1.42857
7984.5 -0.142857
7985.5 -2.14286
7986.5 -1.14286
7987.5 0.857143
7988.5 1.42857
7989.5 2
7990.5 5
7991.5 2
7992.5 2
7993.5 3
7994.5 0.428571
7995.5 -2.14286
7996.5 -0.571429
7997.5 0.428571
7998.5 2.42857
7999.5 -2.71429
8000.5 3.42857
8001.5 0.857143
8002.5 -4.28571
8003.5 -2.71429
8004.5 -4.71429
8005.5 -1.71429
8006.5 0.428571
8007.5 0.428571
8008.5 1
8009.5 0.428571
8010.5 0.857143
8011.5 -0.571429
8012.5 -0.571429
8013.5 2
8014.5 -0.571429
8015.5 2.85714
8016.5 -1.71429
8017.5 3
8018.5 2
8019.5 1
8020.5 1
8021.5 1.42857
8022.5 3.42857
8023.5 -0.714286
8024.5 -1.14286
8025.5 1.42857
8026.5 1
8027.5 -2.71429
8028.5 -0.714286
8029.5 -7.42857
8030.5 -0.571429
8031.5 -1.71429
8032.5 -0.714286
8033.5 -0.571429
8034.5 -3.71429
8035.5 -2.14286
8036.5 0.428571
8037.5 1
8038.5 0.428571
8039.5 3
8040.5 -1.57143
8041.5 1
8042.5 1
8043.5 -0.571429
8044.5 -1.57143
8045.5 3
8046.5 -0.142857
8047.5 -3.71429
8048.5 -3.14286
8049.5 5
8050.5 3.42857
8051.5 2
8052.5 5.42857
8053.5 -2.71429
8054.5 1
8055.5 2
8056.5 -0.142857
8057.5 2.42857
8058.5 5
8059.5 1.42857
8060.5 1
8061.5 0.428571
8062.5 0.428571
8063.5 0.428571
8064.5 0.428571
8065.5 3
8066.5 0.857143
8067.5 -1.14286
8068.5 -2.14286
8069.5 3.42857
8070.5 -3.71429
8071.5 2.42857
8072.5 0.285714
8073.5 1.42857
8074.5 3
8075.5 2.42857
8076.5 -0.142857
8077.5 0.857143
8078.5 5.42857
8079.5 -1.85714
8080.5 -6.14286
8081.5 -4.71429
8082.5 1.14286
8083.5 -4.42857
8084.5 5.14286
8085.5 12
8086.5 -16.7143
8087.5 6.42857
8088.5 -1
8089.5 0.285715
8090.5 -7.71429
8091.5 -0.142857
8092.5 0.714286
8093.5 5.42857
8094.5 -0.714286
8095.5 1
8096.5 1.42857
8097.5 4
8098.5 3
8099.5 -1.57143
8100.5 0
8101.5 1
8102.5 8
8103.5 1
8104.5 -5.28571
8105.5 -1.14286
8106.5 0.428571
8107.5 -2.14286
8108.5 0.428571
8109.5 -2.71429
8110.5 2.42857
8111.5 1
8112.5 0.857143
8113.5 0
8114.5 0
8115.5 0
8116.5 -3.14286
8117.5 1
8118.5 2
8119.5 2.42857
8120.5 -1.57143
8121.5 -2.14286
8122.5 1
8123.5 -2.14286
8124.5 1
8125.5 2
8126.5 3
8127.5 -0.571429
8128.5 -1.57143
8129.5 0
8130.5 2
8131.5 -0.571429
8132.5 0
8133.5 -1.57143
8134.5 0.428571
8135.5 2
8136.5 -0.571429
8137.5 5
8138.5 -1.57143
8139.5 6
8140.5 -4.71429
8141.5 1
8142.5 3
8143.5 2
8144.5 0.285714
8145.5 1
8146.5 1.42857
8147.5 3.42857
8148.5 -2.14286
8149.5 2.42857
8150.5 0
8151.5 -0.571429
8152.5 -4.28571
8153.5 -1.14286
8154.5 1
8155.5 -0.571429
8156.5 0
8157.5 0.428571
8158.5 -0.571429
8159.5 1.42857
8160.5 3
8161.5 -1.14286
8162.5 -0.571429
8163.5 -2.14286
8164.5 0.428571
8165.5 -1.71429
8166.5 -3.28571
8167.5 4
8168.5 -3.28571
8169.5 1.42857
8170.5 -0.571429
8171.5 -1.57143
8172.5 2
8173.5 2
8174.5 1
8175.5 1
8176.5 2
8177.5 0
8178.5 -3.14286
8179.5 3
8180.5 0
8181.5 -0.571429
8182.5 2
8183.5 -4.71429
8184.5 2.42857
8185.5 -0.142857
8186.5 0.428571
8187.5 -1.57143
8188.5 1
8189.5 -0.571429
8190.5 -0.571429
8191.5 1
8192.5 2
8193.5 -2.14286
8194.5 -2.14286
8195.5 -2.14286
8196.5 1.42857
8197.5 -1.14286
8198.5 0.428571
8199.5 2
8200.5 -1.14286
8201.5 0
8202.5 -2.14286
8203.5 1.42857
8204.5 -1.57143
8205.5 0.428571
8206.5 -0.571429
8207.5 0
8208.5 3
8209.5 5
8210.5 1
8211.5 -2.14286
8212.5 1.42857
8213.5 -0.142857
8214.5 -2.14286
8215.5 1.42857
8216.5 3
8217.5 -3.14286
8218.5 0
8219.5 1
8220.5 1
8221.5 0.428571
8222.5 -2.14286
8223.5 2
8224.5 0.428571
8225.5 3
8226.5 1
8227.5 0.428571
8228.5 3
8229.5 2
8230.5 -0.571429
8231.5 1.42857
8232.5 3
8233.5 -1.57143
8234.5 1
8235.5 0
8236.5 -2.14286
8237.5 -0.571429
8238.5 1
8239.5 -2.14286
8240.5 -0.571429
8241.5 -1.57143
8242.5 1
8243.5 1
8244.5 1.42857
8245.5 6
8246.5 -0.571429
8247.5 3
8248.5 0.428571
8249.5 2
8250.5 -0.571429
8251.5 -3.71429
8252.5 0.428571
8253.5 0
8254.5 -1.57143
8255.5 2.42857
8256.5 -3.14286
8257.5 0.428571
8258.5 2
8259.5 0.428571
8260.5 -1.57143
8261.5 -2.14286
8262.5 0.428571
8263.5 -1.57143
8264.5 1
8265.5 2.42857
8266.5 4
8267.5 1
8268.5 0.428571
8269.5 1
8270.5 2
8271.5 1
8272.5 -0.571429
8273.5 -0.571429
8274.5 1.42857
8275.5 -1.14286
8276.5 1
8277.5 3
8278.5 0
8279.5 -2.71429
8280.5 -0.142857
8281.5 2.42857
8282.5 3
8283.5 -0.571429
8284.5 2
8285.5 1
8286.5 2
8287.5 1
8288.5 0.428571
8289.5 2.42857
8290.5 0
8291.5 0
8292.5 -0.571429
8293.5 1
8294.5 -1.57143
8295.5 -1.57143
8296.5 -3.14286
8297.5 -1.57143
8298.5 -1.57143
8299.5 0
8300.5 0
8301.5 -0.571429
8302.5 -3.71429
8303.5 0.428571
8304.5 0
8305.5 -0.571429
8306.5 2
8307.5 0
8308.5 3
8309.5 1
8310.5 2
8311.5 0.428571
8312.5 -0.571429
8313.5 -2.14286
8314.5 0.428571
8315.5 0
8316.5 -0.571429
8317.5 0.428571
8318.5 4
8319.5 1
8320.5 2
8321.5 -0.571429
8322.5 1
8323.5 -0.571429
8324.5 0
8325.5 0
8326.5 1
8327.5 0
8328.5 -0.571429
8329.5 1
8330.5 -1.57143
8331.5 -1.57143
8332.5 0
8333.5 -1.57143
8334.5 -2.71429
8335.5 -0.142857
8336.5 -1.57143
8337.5 1.42857
8338.5 1
8339.5 -0.571429
8340.5 0
8341.5 -1.57143
8342.5 1
8343.5 2
8344.5 -0.571429
8345.5 2
8346.5 -3.14286
8347.5 -2.14286
8348.5 -1.57143
8349.5 3
8350.5 -0.571429
8351.5 2
8352.5 -0.571429
8353.5 0.428571
8354.5 -1.57143
8355.5 1
8356.5 3
8357.5 -3.14286
8358.5 0
8359.5 -3.14286
8360.5 0
8361.5 -0.571429
8362.5 0
8363.5 -4.71429
8364.5 0.428571
8365.5 0
8366.5 -0.571429
8367.5 -0.142857
8368.5 3.42857
8369.5 3
8370.5 1
8371.5 -0.571429
8372.5 -1.57143
8373.5 -3.14286
8374.5 3
8375.5 0.428571
8376.5 0.428571
8377.5 0
8378.5 -1.57143
8379.5 0
8380.5 0
8381.5 -3.14286
8382.5 0
8383.5 0.428571
8384.5 2
8385.5 0
8386.5 0
8387.5 -2.14286
8388.5 0
8389.5 2
8390.5 -1.57143
8391.5 1
8392.5 -1.14286
8393.5 1
8394.5 1.42857
8395.5 0
8396.5 -0.571429
8397.5 0
8398.5 0
8399.5 2
8400.5 0
8401.5 -2.71429
8402.5 0.428571
8403.5 1
8404.5 -3.71429
8405.5 1
8406.5 1
8407.5 1
8408.5 1
8409.5 -1.57143
8410.5 -0.571429
8411.5 0
8412.5 0
8413.5 -3.14286
8414.5 0
8415.5 1
8416.5 -0.571429
8417.5 0
8418.5 3
8419.5 1
8420.5 1.42857
8421.5 2
8422.5 -0.571429
8423.5 0
8424.5 2.42857
8425.5 -0.571429
8426.5 1
8427.5 1
8428.5 5
8429.5 0.428571
8430.5 5
8431.5 -0.142857
8432.5 2.42857
8433.5 -1.57143
8434.5 -1.57143
8435.5 -2.14286
8436.5 -2.14286
8437.5 -1.14286
8438.5 -0.571429
8439.5 0
8440.5 0.428571
8441.5 -2.71429
8442.5 0
8443.5 0
8444.5 -0.571429
8445.5 1
8446.5 0
8447.5 -1.14286
8448.5 0.428571
8449.5 -1.57143
8450.5 0
8451.5 -1.57143
8452.5 -0.571429
8453.5 0.428571
8454.5 -0.571429
8455.5 -1.57143
8456.5 0
8457.5 -1.57143
8458.5 0
8459.5 0
8460.5 1
8461.5 -2.14286
8462.5 1
8463.5 0
8464.5 -0.571429
8465.5 1
8466.5 -3.14286
8467.5 -1.57143
8468.5 -2.14286
8469.5 -1.57143
8470.5 -1.57143
8471.5 2
8472.5 0
8473.5 -0.571429
8474.5 -1.14286
8475.5 2
8476.5 0
8477.5 0.428571
8478.5 0
8479.5 -3.14286
8480.5 0
8481.5 1
8482.5 0
8483.5 0.428571
8484.5 -0.571429
8485.5 1.42857
8486.5 1
8487.5 1.42857
8488.5 1
8489.5 -1.57143
8490.5 1
8491.5 2
8492.5 -0.571429
8493.5 0.428571
8494.5 0
8495.5 -0.571429
8496.5 1
8497.5 2
8498.5 -0.571429
8499.5 2
8500.5 0.857143
8501.5 0
8502.5 1
8503.5 1
8504.5 -1.57143
8505.5 -1.57143
8506.5 0
8507.5 -1.57143
8508.5 1
8509.5 1
8510.5 0
8511.5 0.428571
8512.5 -1.57143
8513.5 1
8514.5 0
8515.5 0
8516.5 0
8517.5 2
8518.5 1
8519.5 0
8520.5 2
8521.5 2
8522.5 0
8523.5 0.428571
8524.5 -0.571429
8525.5 0
8526.5 0.428571
8527.5 0
8528.5 0
8529.5 1
8530.5 0
8531.5 1
8532.5 0
8533.5 -0.571429
8534.5 -0.571429
8535.5 0.428571
8536.5 2
8537.5 -1.57143
8538.5 0
8539.5 2
8540.5 -1.57143
8541.5 0
8542.5 1
8543.5 -0.571429
8544.5 0.428571
8545.5 -1.57143
8546.5 0
8547.5 1
8548.5 1
8549.5 0
8550.5 0
8551.5 0.428571
8552.5 0
8553.5 -0.571429
8554.5 0.428571
8555.5 1.42857
8556.5 0
8557.5 0
8558.5 0
8559.5 0
8560.5 0
8561.5 3
8562.5 -1.57143
8563.5 0
8564.5 0.428571
8565.5 0
8566.5 -0.571429
8567.5 -1.57143
8568.5 -1.57143
8569.5 1
8570.5 -1.57143
8571.5 -1.57143
8572.5 -1.57143
8573.5 1
8574.5 0
8575.5 0.428571
8576.5 2
8577.5 1
8578.5 0
8579.5 1
8580.5 -1.57143
8581.5 -1.57143
8582.5 -0.571429
8583.5 0
8584.5 2
8585.5 0
8586.5 0
8587.5 0
8588.5 0
8589.5 1
8590.5 2
8591.5 -1.57143
8592.5 1
8593.5 1
8594.5 0
8595.5 0
8596.5 0
8597.5 0
8598.5 1.42857
8599.5 -0.142857
8600.5 1
8601.5 -1.57143
8602.5 0
8603.5 0
8604.5 0
8605.5 0
8606.5 1
8607.5 0
8608.5 1
8609.5 1
8610.5 0
8611.5 1
8612.5 0
8613.5 -1.57143
8614.5 -1.57143
8615.5 0
8616.5 2
8617.5 1
8618.5 0
8619.5 -1.57143
8620.5 -0.571429
8621.5 -3.14286
8622.5 2
8623.5 -2.14286
8624.5 -1.57143
8625.5 0
8626.5 1
8627.5 0
8628.5 1
8629.5 -1.57143
8630.5 2
8631.5 0
8632.5 0
8633.5 0
8634.5 2
8635.5 0
8636.5 -1.57143
8637.5 1
8638.5 -0.571429
8639.5 -1.57143
8640.5 0
8641.5 -1.57143
8642.5 0
8643.5 -1.57143
8644.5 0
8645.5 -1.57143
8646.5 -0.571429
8647.5 0
8648.5 3
8649.5 0
8650.5 0
8651.5 3
8652.5 0
8653.5 -1.14286
8654.5 0.428571
8655.5 2
8656.5 1
8657.5 0
8658.5 0
8659.5 1
8660.5 -1.57143
8661.5 3
8662.5 -1.57143
8663.5 1
8664.5 -1.57143
8665.5 0
8666.5 -0.571429
8667.5 0
8668.5 3
8669.5 1
8670.5 2
8671.5 0.428571
8672.5 0
8673.5 0
8674.5 -1.57143
8675.5 1
8676.5 0
8677.5 -3.14286
8678.5 2
8679.5 3
8680.5 -2.14286
8681.5 2
8682.5 0
8683.5 1
8684.5 0
8685.5 -0.571429
8686.5 0
8687.5 1
8688.5 0
8689.5 1
8690.5 -1.57143
8691.5 1
8692.5 -1.57143
8693.5 0
8694.5 1
8695.5 -1.57143
8696.5 0
8697.5 -0.571429
8698.5 0
8699.5 0
8700.5 0
8701.5 2
8702.5 1
8703.5 -1.57143
8704.5 2
8705.5 0
8706.5 -1.57143
8707.5 0
8708.5 1
8709.5 -1.57143
8710.5 0
8711.5 0
8712.5 1
8713.5 -3.14286
8714.5 -1.57143
8715.5 0
8716.5 -3.14286
8717.5 1
8718.5 0
8719.5 0
8720.5 0
8721.5 -0.571429
8722.5 -0.571429
8723.5 2
8724.5 1
8725.5 0
8726.5 -0.571429
8727.5 1
8728.5 0
8729.5 1
8730.5 -0.571429
8731.5 0
8732.5 -0.571429
8733.5 0
8734.5 0
8735.5 0.428571
8736.5 -1.57143
8737.5 0.428571
8738.5 1
8739.5 -1.57143
8740.5 1
8741.5 1
8742.5 2
8743.5 -1.57143
8744.5 0
8745.5 0
8746.5 0
8747.5 -1.57143
8748.5 1
8749.5 -1.57143
8750.5 1
8751.5 0
8752.5 1
8753.5 0
8754.5 -1.57143
8755.5 -1.57143
8756.5 2
8757.5 0
8758.5 -3.14286
8759.5 1
8760.5 0
8761.5 0
8762.5 0
8763.5 0
8764.5 -1.57143
8765.5 -0.571429
8766.5 0
8767.5 0
8768.5 0
8769.5 0
8770.5 0
8771.5 -2.14286
8772.5 -0.571429
8773.5 2
8774.5 0
8775.5 -0.571429
8776.5 0
8777.5 0
8778.5 0
8779.5 -1.57143
8780.5 1
8781.5 1
8782.5 1
8783.5 1
8784.5 1
8785.5 -1.57143
8786.5 -0.571429
8787.5 0
8788.5 -0.571429
8789.5 -1.57143
8790.5 -1.57143
8791.5 1
8792.5 0
8793.5 -3.14286
8794.5 0
8795.5 1
8796.5 0
8797.5 -0.571429
8798.5 0
8799.5 1
8800.5 -0.571429
8801.5 2
8802.5 0
8803.5 0
8804.5 1
8805.5 -1.57143
8806.5 1
8807.5 -2.14286
8808.5 -0.571429
8809.5 0
8810.5 -0.571429
8811.5 0
8812.5 0
8813.5 0
8814.5 0
8815.5 1
8816.5 -1.57143
8817.5 0
8818.5 1.42857
8819.5 0
8820.5 0.428571
8821.5 -1.57143
8822.5 0
8823.5 2
8824.5 0
8825.5 0
8826.5 0
8827.5 -1.57143
8828.5 0
8829.5 0
8830.5 -1.57143
8831.5 -1.57143
8832.5 0
8833.5 -1.57143
8834.5 0
8835.5 2
8836.5 0
8837.5 1
8838.5 0
8839.5 -1.57143
8840.5 -2.14286
8841.5 1
8842.5 1
8843.5 2
8844.5 2
8845.5 -1.14286
8846.5 0.428571
8847.5 -1.57143
8848.5 2
8849.5 -0.571429
8850.5 1
8851.5 1
8852.5 0
8853.5 0
8854.5 3
8855.5 -0.142857
8856.5 3
8857.5 0
8858.5 -1.57143
8859.5 3
8860.5 0
8861.5 1
8862.5 0
8863.5 0
8864.5 0
8865.5 1
8866.5 0
8867.5 -3.14286
8868.5 -1.57143
8869.5 -1.57143
8870.5 -1.57143
8871.5 2
8872.5 -0.571429
8873.5 0.428571
8874.5 -1.57143
8875.5 0
8876.5 1
8877.5 1
8878.5 1
8879.5 0
8880.5 1
8881.5 2
8882.5 0
8883.5 2
8884.5 2
8885.5 0
8886.5 1
8887.5 1
8888.5 0
8889.5 1
8890.5 1
8891.5 0
8892.5 0
8893.5 0
8894.5 -0.571429
8895.5 0.428571
8896.5 -1.57143
8897.5 1
8898.5 1
8899.5 -1.14286
8900.5 0
8901.5 0
8902.5 0
8903.5 -1.57143
8904.5 0
8905.5 0
8906.5 0
8907.5 0
8908.5 -1.57143
8909.5 0
8910.5 -0.571429
8911.5 0
8912.5 2
8913.5 -0.571429
8914.5 0
8915.5 1
8916.5 0
8917.5 0
8918.5 1
8919.5 1
8920.5 1
8921.5 -1.57143
8922.5 0
8923.5 1
8924.5 0
8925.5 -1.57143
8926.5 0
8927.5 0
8928.5 1
8929.5 0
8930.5 -1.57143
8931.5 0
8932.5 2
8933.5 0
8934.5 1
8935.5 0
8936.5 0
8937.5 0
8938.5 1
8939.5 0
8940.5 0
8941.5 -1.57143
8942.5 0
8943.5 0
8944.5 1
8945.5 1
8946.5 -3.14286
8947.5 -1.57143
8948.5 1
8949.5 -3.14286
8950.5 3
8951.5 0
8952.5 0
8953.5 2
8954.5 0
8955.5 0
8956.5 -0.571429
8957.5 0
8958.5 0
8959.5 1
8960.5 -1.57143
8961.5 0
8962.5 -0.571429
8963.5 0
8964.5 1
8965.5 -1.57143
8966.5 -0.571429
8967.5 -3.71429
8968.5 0
8969.5 -0.571429
8970.5 0
8971.5 -0.571429
8972.5 -1.57143
8973.5 0
8974.5 -1.57143
8975.5 1
8976.5 0
8977.5 0
8978.5 -1.57143
8979.5 0
8980.5 -0.571429
8981.5 0
8982.5 -0.571429
8983.5 -1.57143
8984.5 0
8985.5 1
8986.5 0
8987.5 0.428571
8988.5 0
8989.5 0
8990.5 0
8991.5 1
8992.5 0
8993.5 0
8994.5 1
8995.5 2
8996.5 0
8997.5 -4.71429
8998.5 0
8999.5 1
9000.5 -1.57143
9001.5 1
9002.5 0
9003.5 2
9004.5 -0.571429
9005.5 -1.57143
9006.5 0
9007.5 0
9008.5 -1.57143
9009.5 1
9010.5 0
9011.5 2
9012.5 0
9013.5 0
9014.5 0
9015.5 0
9016.5 0
9017.5 1
9018.5 0
9019.5 0
9020.5 1
9021.5 0
9022.5 1
9023.5 1
9024.5 0
9025.5 0
9026.5 -0.571429
9027.5 0
9028.5 0
9029.5 -1.57143
9030.5 0
9031.5 0
9032.5 1
9033.5 1
9034.5 0
9035.5 0
9036.5 0
9037.5 0
9038.5 -0.571429
9039.5 0
9040.5 1
9041.5 1
9042.5 0
9043.5 0
9044.5 1
9045.5 -1.57143
9046.5 0
9047.5 0
9048.5 2
9049.5 -0.571429
9050.5 1
9051.5 -1.57143
9052.5 0
9053.5 0
9054.5 0
9055.5 0
9056.5 -1.57143
9057.5 1
9058.5 -1.57143
9059.5 1
9060.5 0
9061.5 0
9062.5 -1.57143
9063.5 2
9064.5 0
9065.5 -3.14286
9066.5 0
9067.5 0
9068.5 -0.571429
9069.5 -0.571429
9070.5 -0.571429
9071.5 0
9072.5 0
9073.5 0
9074.5 3
9075.5 0.428571
9076.5 0
9077.5 1
9078.5 0
9079.5 0
9080.5 -1.57143
9081.5 0
9082.5 0
9083.5 -0.571429
9084.5 0
9085.5 -1.57143
9086.5 1
9087.5 0
9088.5 2
9089.5 1
9090.5 0
9091.5 -1.57143
9092.5 2
9093.5 -1.57143
9094.5 0
9095.5 1
9096.5 0
9097.5 -1.14286
9098.5 1
9099.5 0
9100.5 -1.57143
9101.5 0
9102.5 2
9103.5 0
9104.5 0
9105.5 1
9106.5 -0.571429
9107.5 1
9108.5 0
9109.5 0
9110.5 0
9111.5 0
9112.5 2
9113.5 0
9114.5 1
9115.5 0
9116.5 0
9117.5 -1.57143
9118.5 -1.57143
9119.5 0
9120.5 1
9121.5 0
9122.5 0
9123.5 0
9124.5 0.428571
9125.5 -1.57143
9126.5 2
9127.5 -1.57143
9128.5 0
9129.5 -3.14286
9130.5 0
9131.5 0
9132.5 -1.57143
9133.5 0
9134.5 -1.57143
9135.5 0
9136.5 0
9137.5 0
9138.5 0
9139.5 -1.57143
9140.5 0
9141.5 0
9142.5 1
9143.5 1.42857
9144.5 1
9145.5 0.428571
9146.5 -0.571429
9147.5 2
9148.5 2
9149.5 -0.571429
9150.5 0
9151.5 0
9152.5 0
9153.5 -1.57143
9154.5 0
9155.5 0
9156.5 0
9157.5 0
9158.5 0
9159.5 0
9160.5 2
9161.5 0
9162.5 -1.57143
9163.5 0
9164.5 0
9165.5 0
9166.5 0
9167.5 -1.57143
9168.5 1
9169.5 3
9170.5 -1.57143
9171.5 0
9172.5 0
9173.5 0
9174.5 0
9175.5 -1.57143
9176.5 0
9177.5 0
9178.5 1
9179.5 1
9180.5 0
9181.5 1
9182.5 0
9183.5 0
9184.5 0
9185.5 1
9186.5 0
9187.5 -1.57143
9188.5 0
9189.5 -1.57143
9190.5 -0.571429
9191.5 0
9192.5 0
9193.5 0
9194.5 0
9195.5 1
9196.5 1
9197.5 0
9198.5 0
9199.5 0
9200.5 2
9201.5 0
9202.5 -0.571429
9203.5 1
9204.5 0
9205.5 0
9206.5 0
9207.5 2
9208.5 1
9209.5 0
9210.5 -0.571429
9211.5 0
9212.5 0
9213.5 1
9214.5 1
9215.5 -1.57143
9216.5 0
9217.5 0
9218.5 0
9219.5 1
9220.5 1
9221.5 2
9222.5 1
9223.5 0
9224.5 1
9225.5 -1.57143
9226.5 0
9227.5 0
9228.5 1
9229.5 0
9230.5 0
9231.5 1
9232.5 2
9233.5 0
9234.5 0
9235.5 1
9236.5 0
9237.5 1
9238.5 0
9239.5 1
9240.5 0
9241.5 -1.57143
9242.5 -1.57143
9243.5 0
9244.5 0
9245.5 0
9246.5 1
9247.5 0
9248.5 0
9249.5 0
9250.5 1
9251.5 0
9252.5 -1.57143
9253.5 1
9254.5 0
9255.5 0
9256.5 -0.571429
9257.5 1
9258.5 0
9259.5 -0.571429
9260.5 2
9261.5 0
9262.5 0
9263.5 0
9264.5 2
9265.5 0
9266.5 0
9267.5 0
9268.5 2
9269.5 -1.57143
9270.5 1
9271.5 0
9272.5 0
9273.5 -0.571429
9274.5 0
9275.5 1
9276.5 1
9277.5 1
9278.5 1
9279.5 0
9280.5 2
9281.5 0
9282.5 2
9283.5 0
9284.5 -1.57143
9285.5 -1.57143
9286.5 -1.57143
9287.5 0
9288.5 0
9289.5 0
9290.5 1
9291.5 2
9292.5 1
9293.5 0
9294.5 -1.57143
9295.5 -0.571429
9296.5 0
9297.5 -1.57143
9298.5 0
9299.5 1
9300.5 -1.57143
9301.5 0
9302.5 1
9303.5 0
9304.5 0
9305.5 -2.14286
9306.5 0
9307.5 0
9308.5 -0.571429
9309.5 0
9310.5 0
9311.5 0
9312.5 1
9313.5 1
9314.5 1
9315.5 1
9316.5 0
9317.5 0
9318.5 2
9319.5 0
9320.5 0
9321.5 0
9322.5 0
9323.5 1
9324.5 -1.57143
9325.5 0
9326.5 0
9327.5 1
9328.5 0
9329.5 0
9330.5 0
9331.5 0
9332.5 1
9333.5 0
9334.5 0
9335.5 0
9336.5 0
9337.5 0
9338.5 -1.57143
9339.5 0
9340.5 0
9341.5 0
9342.5 1
9343.5 -1.57143
9344.5 -1.57143
9345.5 1
9346.5 1
9347.5 0
9348.5 0
9349.5 1
9350.5 0
9351.5 -1.57143
9352.5 0
9353.5 -1.57143
9354.5 1
9355.5 1
9356.5 0
9357.5 0
9358.5 0
9359.5 0
9360.5 0
9361.5 -1.57143
9362.5 0
9363.5 0
9364.5 0
9365.5 0
9366.5 1
9367.5 -1.57143
9368.5 0
9369.5 0
9370.5 0
9371.5 -1.57143
9372.5 0
9373.5 0
9374.5 0
9375.5 2
9376.5 0
9377.5 0
9378.5 0
9379.5 0
9380.5 0
9381.5 0
9382.5 1
9383.5 0
9384.5 1
9385.5 0
9386.5 0
9387.5 -1.57143
9388.5 0
9389.5 0
9390.5 0
9391.5 0
9392.5 0
9393.5 -1.57143
9394.5 -0.571429
9395.5 2
9396.5 1
9397.5 0
9398.5 0
9399.5 0
9400.5 0
9401.5 0
9402.5 0
9403.5 -1.57143
9404.5 -0.571429
9405.5 -0.571429
9406.5 0
9407.5 0
9408.5 1
9409.5 0
9410.5 0
9411.5 -1.57143
9412.5 0
9413.5 0
9414.5 -1.57143
9415.5 0
9416.5 0
9417.5 0
9418.5 0
9419.5 -0.571429
9420.5 1
9421.5 0
9422.5 0
9423.5 0
9424.5 1
9425.5 0
9426.5 1
9427.5 0
9428.5 0
9429.5 1
9430.5 0
9431.5 1
9432.5 0
9433.5 1
9434.5 0
9435.5 -1.57143
9436.5 -1.57143
9437.5 0
9438.5 0
9439.5 1.42857
9440.5 -1.57143
9441.5 0
9442.5 0
9443.5 -1.57143
9444.5 0
9445.5 0
9446.5 1
9447.5 0
9448.5 1
9449.5 1
9450.5 0
9451.5 0
9452.5 0
9453.5 -1.57143
9454.5 1
9455.5 -1.57143
9456.5 0
9457.5 -1.57143
9458.5 0
9459.5 0
9460.5 0
9461.5 0
9462.5 0
9463.5 0
9464.5 2
9465.5 1
9466.5 0
9467.5 0
9468.5 -1.57143
9469.5 2
9470.5 0
9471.5 0
9472.5 -0.571429
9473.5 0
9474.5 0
9475.5 0
9476.5 0
9477.5 -3.14286
9478.5 0
9479.5 1
9480.5 0
9481.5 1
9482.5 0
9483.5 0
9484.5 0
9485.5 0
9486.5 0
9487.5 0
9488.5 0
9489.5 -0.571429
9490.5 0
9491.5 1
9492.5 0
9493.5 0
9494.5 0
9495.5 0
9496.5 0
9497.5 0
9498.5 -1.57143
9499.5 0
9500.5 2
9501.5 0
9502.5 1
9503.5 0
9504.5 0
9505.5 -0.571429
9506.5 0
9507.5 1
9508.5 1
9509.5 0
9510.5 0
9511.5 0
9512.5 0
9513.5 0
9514.5 3
9515.5 0
9516.5 0
9517.5 0
9518.5 0
9519.5 0
9520.5 2
9521.5 1
9522.5 0
9523.5 0
9524.5 -1.57143
9525.5 0
9526.5 0
9527.5 0
9528.5 0
9529.5 0
9530.5 0
9531.5 0
9532.5 0
9533.5 0
9534.5 0
9535.5 0
9536.5 -1.57143
9537.5 -1.57143
9538.5 0
9539.5 1
9540.5 1
9541.5 0
9542.5 0
9543.5 0
9544.5 0
9545.5 1
9546.5 1
9547.5 1
9548.5 0
9549.5 0
9550.5 0
9551.5 0
9552.5 0
9553.5 -0.571429
9554.5 0
9555.5 1
9556.5 2
9557.5 0
9558.5 0
9559.5 0
9560.5 0
9561.5 0
9562.5 1
9563.5 0
9564.5 0
9565.5 0
9566.5 0
9567.5 0
9568.5 0
9569.5 0
9570.5 -1.57143
9571.5 1
9572.5 1
9573.5 1
9574.5 0
9575.5 0
9576.5 -1.57143
9577.5 1
9578.5 1
9579.5 -1.57143
9580.5 0
9581.5 0
9582.5 -1.57143
9583.5 0
9584.5 0
9585.5 0
9586.5 1
9587.5 0
9588.5 1
9589.5 0
9590.5 1
9591.5 1
9592.5 0
9593.5 1
9594.5 0
9595.5 0
9596.5 0
9597.5 0
9598.5 0
9599.5 0
9600.5 0
9601.5 0
9602.5 0
9603.5 0
9604.5 1
9605.5 0
9606.5 1
9607.5 0
9608.5 -0.571429
9609.5 -1.57143
9610.5 0
9611.5 0
9612.5 0
9613.5 1
9614.5 0
9615.5 1
9616.5 0
9617.5 -3.14286
9618.5 1
9619.5 1
9620.5 0.428571
9621.5 0
9622.5 0
9623.5 0
9624.5 0
9625.5 0
9626.5 1
9627.5 0
9628.5 0
9629.5 0
9630.5 1
9631.5 0
9632.5 0
9633.5 0
9634.5 0
9635.5 1
9636.5 0
9637.5 0
9638.5 2
9639.5 2
9640.5 0
9641.5 0
9642.5 0
9643.5 1
9644.5 1
9645.5 2
9646.5 0
9647.5 0
9648.5 0
9649.5 -1.57143
9650.5 0
9651.5 0
9652.5 0
9653.5 0
9654.5 0
9655.5 0
9656.5 0
9657.5 0
9658.5 0
9659.5 1
9660.5 0
9661.5 0
9662.5 1
9663.5 0
9664.5 1
9665.5 1
9666.5 0
9667.5 0
9668.5 0
9669.5 0
9670.5 0
9671.5 1
9672.5 0
9673.5 0
9674.5 -0.571429
9675.5 0
9676.5 1
9677.5 2
9678.5 0
9679.5 0
9680.5 0
9681.5 -1.57143
9682.5 0
9683.5 0
9684.5 0
9685.5 0
9686.5 0
9687.5 1
9688.5 0
9689.5 0
9690.5 0
9691.5 0
9692.5 0
9693.5 0
9694.5 0
9695.5 0
9696.5 0
9697.5 0
9698.5 -1.57143
9699.5 0
9700.5 0
9701.5 1
9702.5 0
9703.5 0
9704.5 0
9705.5 0
9706.5 1
9707.5 0
9708.5 0
9709.5 -1.57143
9710.5 0
9711.5 -3.14286
9712.5 0
9713.5 0
9714.5 0
9715.5 0
9716.5 1
9717.5 1
9718.5 0
9719.5 0
9720.5 0
9721.5 -0.571429
9722.5 1
9723.5 0
9724.5 0
9725.5 -1.57143
9726.5 0
9727.5 -1.57143
9728.5 -0.571429
9729.5 0
9730.5 0
9731.5 0
9732.5 0
9733.5 0
9734.5 0
9735.5 0
9736.5 -1.57143
9737.5 1
9738.5 0
9739.5 0
9740.5 0.428571
9741.5 0
9742.5 0
9743.5 1
9744.5 0
9745.5 0
9746.5 -1.57143
9747.5 -1.57143
9748.5 0
9749.5 0
9750.5 0
9751.5 0
9752.5 0
9753.5 1
9754.5 0
9755.5 0
9756.5 -1.57143
9757.5 -1.57143
9758.5 0
9759.5 0
9760.5 0
9761.5 1
9762.5 0
9763.5 0
9764.5 0
9765.5 0
9766.5 0
9767.5 0
9768.5 0
9769.5 0
9770.5 1
9771.5 0
9772.5 0
9773.5 0
9774.5 1
9775.5 0
9776.5 0
9777.5 0
9778.5 1
9779.5 0
9780.5 0
9781.5 0
9782.5 0
9783.5 0
9784.5 0
9785.5 -1.57143
9786.5 1
9787.5 0
9788.5 0
9789.5 0
9790.5 0
9791.5 0
9792.5 0
9793.5 0
9794.5 0
9795.5 0
9796.5 0
9797.5 -1.57143
9798.5 -1.57143
9799.5 0
9800.5 0
9801.5 0
9802.5 -1.57143
9803.5 0
9804.5 0
9805.5 0
9806.5 0
9807.5 0
9808.5 0
9809.5 0
9810.5 0
9811.5 0
9812.5 -1.57143
9813.5 -1.57143
9814.5 0
9815.5 1
9816.5 0
9817.5 0
9818.5 2
9819.5 0
9820.5 -0.571429
9821.5 -1.57143
9822.5 0
9823.5 0
9824.5 0
9825.5 0
9826.5 0
9827.5 0
9828.5 0
9829.5 0
9830.5 1
9831.5 -1.57143
9832.5 0
9833.5 0
9834.5 1
9835.5 0
9836.5 0
9837.5 0
9838.5 0
9839.5 0
9840.5 0
9841.5 0
9842.5 0
9843.5 0
9844.5 0
9845.5 0
9846.5 0
9847.5 0
9848.5 0
9849.5 0
9850.5 0
9851.5 0
9852.5 0
9853.5 0
9854.5 -0.571429
9855.5 0
9856.5 0
9857.5 0
9858.5 0
9859.5 0
9860.5 0
9861.5 0
9862.5 0
9863.5 0
9864.5 0
9865.5 0
9866.5 1
9867.5 0
9868.5 0
9869.5 0
9870.5 0
9871.5 0
9872.5 0
9873.5 0
9874.5 0
9875.5 0
9876.5 0
9877.5 0
9878.5 0
9879.5 -1.57143
9880.5 0
9881.5 0
9882.5 0
9883.5 0
9884.5 0
9885.5 0
9886.5 0
9887.5 0
9888.5 0
9889.5 0
9890.5 1
9891.5 0
9892.5 0
9893.5 0
9894.5 0
9895.5 0
9896.5 0
9897.5 0
9898.5 0
9899.5 0
9900.5 0
9901.5 1
9902.5 0
9903.5 0
9904.5 0
9905.5 -1.57143
9906.5 0
9907.5 1
9908.5 0
9909.5 0
9910.5 0
9911.5 0
9912.5 0
9913.5 0
9914.5 1
9915.5 0
9916.5 0
9917.5 0
9918.5 0
9919.5 0
9920.5 0
9921.5 0
9922.5 0
9923.5 0
9924.5 0
9925.5 0
9926.5 0
9927.5 -1.57143
9928.5 0
9929.5 0
9930.5 0
9931.5 0
9932.5 0
9933.5 0
9934.5 0
9935.5 0
9936.5 0
9937.5 0
9938.5 1
9939.5 0
9940.5 0
9941.5 0
9942.5 0
9943.5 0
9944.5 0
9945.5 0
9946.5 0
9947.5 -1.57143
9948.5 -0.571429
9949.5 0
9950.5 0
9951.5 0
9952.5 0
9953.5 1
9954.5 0
9955.5 0
9956.5 0
9957.5 0
9958.5 0
9959.5 0
9960.5 0
9961.5 0
9962.5 0
9963.5 0
9964.5 0
9965.5 -1.57143
9966.5 0
9967.5 0
9968.5 0
9969.5 1
9970.5 0
9971.5 0
9972.5 0
9973.5 0
9974.5 0
9975.5 0
9976.5 0
9977.5 1
9978.5 0
9979.5 0
9980.5 0
9981.5 0
9982.5 0
9983.5 0
9984.5 0
9985.5 0
9986.5 0
9987.5 0
9988.5 0
9989.5 0
9990.5 -1.57143
9991.5 0
9992.5 0
9993.5 0
9994.5 0
9995.5 0
9996.5 0
9997.5 0
9998.5 1
9999.5 0
10000.5 0
10001.5 0
10002.5 0
10003.5 0
10004.5 0
10005.5 0
10006.5 0
10007.5 0
10008.5 0
10009.5 0
10010.5 0
10011.5 0
10012.5 0
10013.5 0
10014.5 0
10015.5 0
10016.5 0
10017.5 -1.57143
10018.5 0
10019.5 0
10020.5 0
10021.5 0
10022.5 0
10023.5 0
10024.5 0
10025.5 0
10026.5 0
10027.5 0
10028.5 0
10029.5 0
10030.5 0
10031.5 0
10032.5 0
10033.5 0
10034.5 0
10035.5 0
10036.5 0
10037.5 0
10038.5 0
10039.5 0
10040.5 0
10041.5 0
10042.5 0
10043.5 0
10044.5 0
10045.5 0
10046.5 -1.57143
10047.5 0
10048.5 1
10049.5 0
10050.5 0
10051.5 1
10052.5 -1.57143
10053.5 0
10054.5 1
10055.5 0
10056.5 0
10057.5 0
10058.5 0
10059.5 0
10060.5 0
10061.5 0
10062.5 0
10063.5 0
10064.5 0
10065.5 0
10066.5 0
10067.5 0
10068.5 0
10069.5 0
10070.5 0
10071.5 0
10072.5 0
10073.5 0
10074.5 0
10075.5 0
10076.5 0
10077.5 0
10078.5 0
10079.5 0
10080.5 0
10081.5 0
10082.5 0
10083.5 0
10084.5 0
10085.5 0
10086.5 0
10087.5 0
10088.5 0
10089.5 0
10090.5 0
10091.5 0
10092.5 0
10093.5 0
10094.5 0
10095.5 0
10096.5 0
10097.5 1
10098.5 0
10099.5 0
10100.5 0
10101.5 0
10102.5 0
10103.5 0
10104.5 0
10105.5 0
10106.5 0
10107.5 0
10108.5 -1.57143
10109.5 -1.57143
10110.5 0
10111.5 0
10112.5 0
10113.5 0
10114.5 0
10115.5 0
10116.5 0
10117.5 0
10118.5 0
10119.5 1
10120.5 0
10121.5 0
10122.5 0
10123.5 0
10124.5 0
10125.5 0
10126.5 0
10127.5 0
10128.5 0
10129.5 0
10130.5 1
10131.5 0
10132.5 0
10133.5 0
10134.5 0
10135.5 0
10136.5 1
10137.5 -1.57143
10138.5 0
10139.5 0
10140.5 0
10141.5 0
10142.5 0
10143.5 0
10144.5 0
10145.5 0
10146.5 0
10147.5 0
10148.5 0
10149.5 0
10150.5 0
10151.5 0
10152.5 0
10153.5 0
10154.5 -1.57143
10155.5 0
10156.5 0
10157.5 0
10158.5 0
10159.5 0
10160.5 0
10161.5 0
10162.5 0
10163.5 0
10164.5 0
10165.5 0
10166.5 0
10167.5 0
10168.5 0
10169.5 0
10170.5 0
10171.5 0
10172.5 0
10173.5 0
10174.5 0
10175.5 1
10176.5 0
10177.5 0
10178.5 1
10179.5 0
10180.5 0
10181.5 0
10182.5 0
10183.5 0
10184.5 0
10185.5 0
10186.5 0
10187.5 0
10188.5 0
10189.5 0
10190.5 0
10191.5 0
10192.5 0
10193.5 0
10194.5 0
10195.5 0
10196.5 0
10197.5 0
10198.5 1
10199.5 0
10200.5 0
10201.5 0
10202.5 0
10203.5 0
10204.5 0
10205.5 -0.571429
10206.5 0
10207.5 0
10208.5 0
10209.5 0
10210.5 0
10211.5 0
10212.5 1
10213.5 0
10214.5 1
10215.5 0
10216.5 0
10217.5 1
10218.5 0
10219.5 0
10220.5 0
10221.5 0
10222.5 0
10223.5 0
10224.5 0
10225.5 0
10226.5 0
10227.5 0
10228.5 0
10229.5 0
10230.5 0
10231.5 1
10232.5 0
10233.5 0
10234.5 0
10235.5 0
10236.5 0
10237.5 0
10238.5 0
10239.5 0
10240.5 0
10241.5 0
10242.5 0
10243.5 0
10244.5 0
10245.5 1
10246.5 0
10247.5 0
10248.5 0
10249.5 0
10250.5 0
10251.5 0
10252.5 0
10253.5 0
10254.5 0
10255.5 0
10256.5 0
10257.5 0
10258.5 0
10259.5 0
10260.5 0
10261.5 0
10262.5 0
10263.5 0
10264.5 0
10265.5 0
10266.5 0
10267.5 0
10268.5 0
10269.5 0
10270.5 0
10271.5 0
10272.5 0
10273.5 0
10274.5 1
10275.5 0
10276.5 0
10277.5 0
10278.5 0
10279.5 0
10280.5 0
10281.5 0
10282.5 0
10283.5 1
10284.5 0
10285.5 0
10286.5 0
10287.5 0
10288.5 0
10289.5 0
10290.5 0
10291.5 0
10292.5 0
10293.5 0
10294.5 0
10295.5 0
10296.5 0
10297.5 0
10298.5 0
10299.5 0
10300.5 0
10301.5 0
10302.5 0
10303.5 0
10304.5 0
10305.5 -1.57143
10306.5 0
10307.5 0
10308.5 0
10309.5 0
10310.5 0
10311.5 0
10312.5 0
10313.5 0
10314.5 0
10315.5 0
10316.5 0
10317.5 1
10318.5 0
10319.5 0
10320.5 0
10321.5 0
10322.5 0
10323.5 0
10324.5 0
10325.5 0
10326.5 1
10327.5 0
10328.5 0
10329.5 0
10330.5 0
10331.5 0
10332.5 0
10333.5 0
10334.5 0
10335.5 0
10336.5 0
10337.5 0
10338.5 0
10339.5 0
10340.5 0
10341.5 0
10342.5 0
10343.5 0
10344.5 0
10345.5 0
10346.5 0
10347.5 0
10348.5 0
10349.5 0
10350.5 0
10351.5 0
10352.5 0
10353.5 0
10354.5 0
10355.5 0
10356.5 0
10357.5 0
10358.5 0
10359.5 0
10360.5 0
10361.5 0
10362.5 0
10363.5 1
10364.5 0
10365.5 0
10366.5 0
10367.5 0
10368.5 0
10369.5 1
10370.5 0
10371.5 0
10372.5 0
10373.5 0
10374.5 0
10375.5 0
10376.5 0
10377.5 0
10378.5 0
10379.5 0
10380.5 0
10381.5 0
10382.5 0
10383.5 0
10384.5 0
10385.5 0
10386.5 1
10387.5 0
10388.5 0
10389.5 0
10390.5 1
10391.5 0
10392.5 0
10393.5 -1.57143
10394.5 0
10395.5 0
10396.5 0
10397.5 0
10398.5 0
10399.5 0
10400.5 0
10401.5 0
10402.5 0
10403.5 0
10404.5 0
10405.5 1
10406.5 0
10407.5 0
10408.5 0
10409.5 0
10410.5 0
10411.5 1
10412.5 0
10413.5 0
10414.5 0
10415.5 0
10416.5 0
10417.5 0
10418.5 1
10419.5 0
10420.5 0
10421.5 0
10422.5 0
10423.5 0
10424.5 0
10425.5 0
10426.5 0
10427.5 0
10428.5 0
10429.5 0
10430.5 0
10431.5 0
10432.5 0
10433.5 0
10434.5 0
10435.5 0
10436.5 0
10437.5 0
10438.5 0
10439.5 0
10440.5 0
10441.5 0
10442.5 0
10443.5 0
10444.5 0
10445.5 0
10446.5 0
10447.5 0
10448.5 0
10449.5 0
10450.5 0
10451.5 0
10452.5 0
10453.5 0
10454.5 0
10455.5 0
10456.5 0
10457.5 0
10458.5 0
10459.5 0
10460.5 0
10461.5 0
10462.5 0
10463.5 0
10464.5 0
10465.5 0
10466.5 0
10467.5 0
10468.5 0
10469.5 0
10470.5 0
10471.5 0
10472.5 0
10473.5 0
10474.5 0
10475.5 0
10476.5 0
10477.5 0
10478.5 0
10479.5 0
10480.5 0
10481.5 0
10482.5 0
10483.5 0
10484.5 0
10485.5 0
10486.5 0
10487.5 0
10488.5 0
10489.5 0
10490.5 0
10491.5 0
10492.5 0
10493.5 0
10494.5 -1.57143
10495.5 0
10496.5 0
10497.5 0
10498.5 0
10499.5 0
10500.5 0
10501.5 0
10502.5 0
10503.5 0
10504.5 0
10505.5 0
10506.5 0
10507.5 0
10508.5 0
10509.5 0
10510.5 0
10511.5 0
10512.5 0
10513.5 0
10514.5 0
10515.5 0
10516.5 0
10517.5 0
10518.5 0
10519.5 0
10520.5 0
10521.5 0
10522.5 0
10523.5 0
10524.5 0
10525.5 0
10526.5 0
10527.5 0
10528.5 0
10529.5 0
10530.5 0
10531.5 0
10532.5 0
10533.5 0
10534.5 0
10535.5 0
10536.5 0
10537.5 0
10538.5 0
10539.5 0
10540.5 0
10541.5 0
10542.5 0
10543.5 0
10544.5 -1.57143
10545.5 0
10546.5 0
10547.5 0
10548.5 0
10549.5 0
10550.5 0
10551.5 0
10552.5 0
10553.5 -1.57143
10554.5 0
10555.5 -1.57143
10556.5 0
10557.5 0
10558.5 0
10559.5 0
10560.5 0
10561.5 0
10562.5 0
10563.5 1
10564.5 0
10565.5 0
10566.5 2
10567.5 0
10568.5 0
10569.5 0
10570.5 0
10571.5 0
10572.5 0
10573.5 0
10574.5 0
10575.5 0
10576.5 0
10577.5 0
10578.5 0
10579.5 0
10580.5 0
10581.5 0
10582.5 0
10583.5 0
10584.5 0
10585.5 0
10586.5 1
10587.5 0
10588.5 0
10589.5 0
10590.5 0
10591.5 0
10592.5 0
10593.5 0
10594.5 0
10595.5 0
10596.5 1
10597.5 0
10598.5 0
10599.5 0
10600.5 0
10601.5 0
10602.5 0
10603.5 0
10604.5 0
10605.5 0
10606.5 0
10607.5 0
10608.5 0
10609.5 0
10610.5 0
10611.5 0
10612.5 0
10613.5 0
10614.5 0
10615.5 0
10616.5 0
10617.5 0
10618.5 0
10619.5 0
10620.5 0
10621.5 0
10622.5 0
10623.5 0
10624.5 0
10625.5 0
10626.5 0
10627.5 0
10628.5 0
10629.5 -1.57143
10630.5 0
10631.5 0
10632.5 0
10633.5 0
10634.5 0
10635.5 0
10636.5 0
10637.5 0
10638.5 0
10639.5 0
10640.5 0
10641.5 0
10642.5 0
10643.5 0
10644.5 0
10645.5 0
10646.5 0
10647.5 0
10648.5 0
10649.5 1
10650.5 1
10651.5 0
10652.5 0
10653.5 0
10654.5 0
10655.5 0
10656.5 0
10657.5 1
10658.5 0
10659.5 0
10660.5 0
10661.5 2
10662.5 0
10663.5 0
10664.5 0
10665.5 0
10666.5 0
10667.5 0
10668.5 0
10669.5 0
10670.5 0
10671.5 0
10672.5 0
10673.5 0
10674.5 0
10675.5 0
10676.5 0
10677.5 0
10678.5 0
10679.5 0
10680.5 0
10681.5 0
10682.5 0
10683.5 0
10684.5 0
10685.5 0
10686.5 0
10687.5 0
10688.5 0
10689.5 0
10690.5 -1.57143
10691.5 0
10692.5 0
10693.5 0
10694.5 0
10695.5 0
10696.5 0
10697.5 0
10698.5 0
10699.5 0
10700.5 0
10701.5 0
10702.5 0
10703.5 -1.57143
10704.5 0
10705.5 1
10706.5 0
10707.5 0
10708.5 0
10709.5 0
10710.5 0
10711.5 0
10712.5 0
10713.5 0
10714.5 0
10715.5 0
10716.5 0
10717.5 0
10718.5 1
10719.5 0
10720.5 0
10721.5 0
10722.5 0
10723.5 0
10724.5 0
10725.5 0
10726.5 0
10727.5 0
10728.5 0
10729.5 0
10730.5 0
10731.5 0
10732.5 0
10733.5 0
10734.5 0
10735.5 0
10736.5 0
10737.5 0
10738.5 0
10739.5 0
10740.5 0
10741.5 0
10742.5 0
10743.5 1
10744.5 0
10745.5 0
10746.5 0
10747.5 0
10748.5 0
10749.5 0
10750.5 0
10751.5 0
10752.5 0
10753.5 0
10754.5 0
10755.5 0
10756.5 0
10757.5 0
10758.5 0
10759.5 1
10760.5 0
10761.5 0
10762.5 0
10763.5 0
10764.5 0
10765.5 0
10766.5 0
10767.5 0
10768.5 0
10769.5 0
10770.5 0
10771.5 0
10772.5 0
10773.5 0
10774.5 0
10775.5 0
10776.5 0
10777.5 0
10778.5 0
10779.5 0
10780.5 0
10781.5 0
10782.5 0
10783.5 0
10784.5 0
10785.5 0
10786.5 0
10787.5 0
10788.5 0
10789.5 0
10790.5 0
10791.5 0
10792.5 0
10793.5 0
10794.5 0
10795.5 0
10796.5 0
10797.5 0
10798.5 0
10799.5 0
10800.5 0
10801.5 0
10802.5 0
10803.5 0
10804.5 0
10805.5 0
10806.5 0
10807.5 0
10808.5 0
10809.5 0
10810.5 0
10811.5 0
10812.5 0
10813.5 0
10814.5 0
10815.5 0
10816.5 0
10817.5 0
10818.5 0
10819.5 0
10820.5 0
10821.5 0
10822.5 0
10823.5 0
10824.5 0
10825.5 -1.57143
10826.5 0
10827.5 0
10828.5 0
10829.5 0
10830.5 0
10831.5 0
10832.5 0
10833.5 0
10834.5 0
10835.5 0
10836.5 0
10837.5 0
10838.5 0
10839.5 0
10840.5 0
10841.5 0
10842.5 0
10843.5 0
10844.5 -1.57143
10845.5 0
10846.5 0
10847.5 0
10848.5 0
10849.5 0
10850.5 -1.57143
10851.5 0
10852.5 0
10853.5 0
10854.5 0
10855.5 0
10856.5 0
10857.5 0
10858.5 0
10859.5 0
10860.5 0
10861.5 0
10862.5 0
10863.5 0
10864.5 0
10865.5 0
10866.5 0
10867.5 0
10868.5 0
10869.5 0
10870.5 0
10871.5 0
10872.5 0
10873.5 0
10874.5 0
10875.5 0
10876.5 0
10877.5 0
10878.5 0
10879.5 0
10880.5 0
10881.5 0
10882.5 0
10883.5 0
10884.5 0
10885.5 0
10886.5 0
10887.5 0
10888.5 0
10889.5 0
10890.5 0
10891.5 0
10892.5 0
10893.5 0
10894.5 0
10895.5 -1.57143
10896.5 0
10897.5 0
10898.5 0
10899.5 0
10900.5 0
10901.5 0
10902.5 0
10903.5 1
10904.5 0
10905.5 0
10906.5 0
10907.5 0
10908.5 0
10909.5 0
10910.5 0
10911.5 0
10912.5 0
10913.5 0
10914.5 0
10915.5 0
10916.5 1
10917.5 0
10918.5 0
10919.5 0
10920.5 0
10921.5 0
10922.5 0
10923.5 0
10924.5 0
10925.5 0
10926.5 0
10927.5 0
10928.5 0
10929.5 0
10930.5 0
10931.5 0
10932.5 0
10933.5 0
10934.5 0
10935.5 0
10936.5 0
10937.5 0
10938.5 0
10939.5 0
10940.5 0
10941.5 0
10942.5 0
10943.5 0
10944.5 0
10945.5 0
10946.5 0
10947.5 0
10948.5 0
10949.5 0
10950.5 0
10951.5 -1.57143
10952.5 0
10953.5 0
10954.5 0
10955.5 0
10956.5 0
10957.5 0
10958.5 0
10959.5 0
10960.5 0
10961.5 0
10962.5 0
10963.5 0
10964.5 0
10965.5 0
10966.5 0
10967.5 0
10968.5 0
10969.5 0
10970.5 0
10971.5 0
10972.5 0
10973.5 0
10974.5 0
10975.5 0
10976.5 1
10977.5 0
10978.5 0
10979.5 0
10980.5 0
10981.5 0
10982.5 0
10983.5 0
10984.5 0
10985.5 0
10986.5 0
10987.5 0
10988.5 0
10989.5 0
10990.5 0
10991.5 0
10992.5 0
10993.5 0
10994.5 0
10995.5 0
10996.5 0
10997.5 0
10998.5 0
10999.5 0
11000.5 0
11001.5 0
11002.5 0
11003.5 0
11004.5 0
11005.5 0
11006.5 0
11007.5 0
11008.5 0
11009.5 0
11010.5 0
11011.5 0
11012.5 0
11013.5 0
11014.5 0
11015.5 0
11016.5 0
11017.5 0
11018.5 -1.57143
11019.5 1
11020.5 0
11021.5 0
11022.5 0
11023.5 0
11024.5 0
11025.5 0
11026.5 0
11027.5 0
11028.5 0
11029.5 0
11030.5 0
11031.5 0
11032.5 0
11033.5 0
11034.5 0
11035.5 0
11036.5 0
11037.5 0
11038.5 0
11039.5 0
11040.5 0
11041.5 0
11042.5 0
11043.5 0
11044.5 0
11045.5 0
11046.5 0
11047.5 0
11048.5 0
11049.5 0
11050.5 0
11051.5 0
11052.5 0
11053.5 0
11054.5 0
11055.5 0
11056.5 0
11057.5 0
11058.5 0
11059.5 0
11060.5 0
11061.5 0
11062.5 0
11063.5 0
11064.5 0
11065.5 0
11066.5 0
11067.5 0
11068.5 0
11069.5 0
11070.5 0
11071.5 0
11072.5 0
11073.5 0
11074.5 0
11075.5 0
11076.5 0
11077.5 0
11078.5 1
11079.5 0
11080.5 0
11081.5 0
11082.5 0
11083.5 0
11084.5 0
11085.5 0
11086.5 0
11087.5 0
11088.5 0
11089.5 0
11090.5 0
11091.5 0
11092.5 0
11093.5 0
11094.5 0
11095.5 0
11096.5 0
11097.5 0
11098.5 0
11099.5 0
11100.5 0
11101.5 0
11102.5 0
11103.5 0
11104.5 1
11105.5 0
11106.5 0
11107.5 0
11108.5 0
11109.5 0
11110.5 0
11111.5 0
11112.5 0
11113.5 0
11114.5 0
11115.5 0
11116.5 0
11117.5 0
11118.5 0
11119.5 0
11120.5 0
11121.5 0
11122.5 0
11123.5 0
11124.5 0
11125.5 0
11126.5 0
11127.5 0
11128.5 1
11129.5 0
11130.5 0
11131.5 0
11132.5 0
11133.5 0
11134.5 0
11135.5 0
11136.5 0
11137.5 0
11138.5 0
11139.5 0
11140.5 0
11141.5 0
11142.5 0
11143.5 0
11144.5 0
11145.5 0
11146.5 0
11147.5 0
11148.5 0
11149.5 0
11150.5 0
11151.5 0
11152.5 0
11153.5 0
11154.5 0
11155.5 0
11156.5 0
11157.5 0
11158.5 0
11159.5 0
11160.5 0
11161.5 0
11162.5 0
11163.5 0
11164.5 0
11165.5 0
11166.5 0
11167.5 0
11168.5 0
11169.5 0
11170.5 0
11171.5 0
11172.5 0
11173.5 0
11174.5 0
11175.5 0
11176.5 0
11177.5 0
11178.5 0
11179.5 0
11180.5 0
11181.5 0
11182.5 0
11183.5 0
11184.5 0
11185.5 0
11186.5 0
11187.5 0
11188.5 0
11189.5 0
11190.5 0
11191.5 0
11192.5 0
11193.5 0
11194.5 0
11195.5 0
11196.5 0
11197.5 0
11198.5 0
11199.5 0
11200.5 0
11201.5 0
11202.5 0
11203.5 0
11204.5 0
11205.5 0
11206.5 0
11207.5 0
11208.5 0
11209.5 0
11210.5 0
11211.5 0
11212.5 0
11213.5 0
11214.5 0
11215.5 0
11216.5 0
11217.5 0
11218.5 0
11219.5 0
11220.5 0
11221.5 0
11222.5 0
11223.5 0
11224.5 0
11225.5 0
11226.5 1
11227.5 0
11228.5 0
11229.5 0
11230.5 0
11231.5 0
11232.5 0
11233.5 0
11234.5 0
11235.5 0
11236.5 0
11237.5 0
11238.5 0
11239.5 0
11240.5 0
11241.5 0
11242.5 0
11243.5 0
11244.5 0
11245.5 0
11246.5 0
11247.5 1
11248.5 0
11249.5 0
11250.5 0
11251.5 0
11252.5 0
11253.5 0
11254.5 0
11255.5 0
11256.5 0
11257.5 0
11258.5 0
11259.5 0
11260.5 0
11261.5 0
11262.5 0
11263.5 0
11264.5 0
11265.5 0
11266.5 0
11267.5 0
11268.5 0
11269.5 0
11270.5 0
11271.5 0
11272.5 0
11273.5 0
11274.5 0
11275.5 0
11276.5 0
11277.5 0
11278.5 0
11279.5 0
11280.5 0
11281.5 0
11282.5 0
11283.5 0
11284.5 0
11285.5 0
11286.5 0
11287.5 0
11288.5 0
11289.5 0
11290.5 0
11291.5 0
11292.5 0
11293.5 0
11294.5 0
11295.5 0
11296.5 0
11297.5 0
11298.5 0
11299.5 0
11300.5 0
11301.5 0
11302.5 0
11303.5 0
11304.5 0
11305.5 0
11306.5 0
11307.5 0
11308.5 0
11309.5 0
11310.5 0
11311.5 0
11312.5 0
11313.5 0
11314.5 0
11315.5 0
11316.5 0
11317.5 0
11318.5 0
11319.5 0
11320.5 0
11321.5 0
11322.5 0
11323.5 0
11324.5 0
11325.5 0
11326.5 0
11327.5 0
11328.5 0
11329.5 0
11330.5 0
11331.5 0
11332.5 0
11333.5 0
11334.5 0
11335.5 0
11336.5 0
11337.5 0
11338.5 0
11339.5 0
11340.5 0
11341.5 0
11342.5 0
11343.5 0
11344.5 0
11345.5 0
11346.5 0
11347.5 0
11348.5 0
11349.5 0
11350.5 0
11351.5 1
11352.5 0
11353.5 0
11354.5 0
11355.5 0
11356.5 0
11357.5 0
11358.5 0
11359.5 0
11360.5 0
11361.5 0
11362.5 0
11363.5 0
11364.5 0
11365.5 0
11366.5 0
11367.5 0
11368.5 0
11369.5 0
11370.5 0
11371.5 1
11372.5 0
11373.5 0
11374.5 0
11375.5 0
11376.5 0
11377.5 -1.57143
11378.5 0
11379.5 0
11380.5 0
11381.5 0
11382.5 0
11383.5 0
11384.5 0
11385.5 0
11386.5 0
11387.5 0
11388.5 0
11389.5 0
11390.5 0
11391.5 0
11392.5 0
11393.5 0
11394.5 0
11395.5 0
11396.5 0
11397.5 0
11398.5 0
11399.5 0
11400.5 0
11401.5 0
11402.5 0
11403.5 0
11404.5 0
11405.5 0
11406.5 0
11407.5 0
11408.5 0
11409.5 0
11410.5 0
11411.5 0
11412.5 0
11413.5 0
11414.5 0
11415.5 0
11416.5 0
11417.5 0
11418.5 0
11419.5 0
11420.5 0
11421.5 0
11422.5 0
11423.5 0
11424.5 0
11425.5 0
11426.5 0
11427.5 0
11428.5 0
11429.5 0
11430.5 0
11431.5 0
11432.5 0
11433.5 0
11434.5 0
11435.5 1
11436.5 0
11437.5 0
11438.5 0
11439.5 0
11440.5 0
11441.5 0
11442.5 0
11443.5 0
11444.5 0
11445.5 0
11446.5 0
11447.5 0
11448.5 0
11449.5 0
11450.5 0
11451.5 0
11452.5 0
11453.5 0
11454.5 0
11455.5 0
11456.5 0
11457.5 0
11458.5 0
11459.5 0
11460.5 0
11461.5 0
11462.5 0
11463.5 0
11464.5 0
11465.5 0
11466.5 0
11467.5 0
11468.5 0
11469.5 0
11470.5 0
11471.5 0
11472.5 0
11473.5 0
11474.5 0
11475.5 0
11476.5 0
11477.5 0
11478.5 0
11479.5 0
11480.5 0
11481.5 0
11482.5 0
11483.5 0
11484.5 0
11485.5 0
11486.5 0
11487.5 0
11488.5 0
11489.5 0
11490.5 0
11491.5 0
11492.5 0
11493.5 0
11494.5 0
11495.5 0
11496.5 0
11497.5 0
11498.5 0
11499.5 0
11500.5 0
11501.5 0
11502.5 0
11503.5 0
11504.5 0
11505.5 0
11506.5 0
11507.5 0
11508.5 0
11509.5 0
11510.5 0
11511.5 0
11512.5 0
11513.5 0
11514.5 0
11515.5 0
11516.5 0
11517.5 0
11518.5 0
11519.5 0
11520.5 0
11521.5 0
11522.5 0
11523.5 0
11524.5 0
11525.5 0
11526.5 0
11527.5 0
11528.5 0
11529.5 0
11530.5 0
11531.5 0
11532.5 0
11533.5 0
11534.5 0
11535.5 0
11536.5 0
11537.5 0
11538.5 0
11539.5 0
11540.5 0
11541.5 0
11542.5 0
11543.5 0
11544.5 0
11545.5 0
11546.5 0
11547.5 0
11548.5 0
11549.5 0
11550.5 0
11551.5 0
11552.5 0
11553.5 0
11554.5 -1.57143
11555.5 0
11556.5 0
11557.5 0
11558.5 0
11559.5 1
11560.5 0
11561.5 0
11562.5 0
11563.5 0
11564.5 0
11565.5 0
11566.5 0
11567.5 0
11568.5 0
11569.5 0
11570.5 0
11571.5 0
11572.5 0
11573.5 0
11574.5 0
11575.5 0
11576.5 0
11577.5 0
11578.5 1
11579.5 0
11580.5 0
11581.5 0
11582.5 0
11583.5 0
11584.5 0
11585.5 0
11586.5 0
11587.5 0
11588.5 0
11589.5 0
11590.5 0
11591.5 0
11592.5 0
11593.5 0
11594.5 0
11595.5 0
11596.5 0
11597.5 0
11598.5 0
11599.5 0
11600.5 0
11601.5 0
11602.5 0
11603.5 0
11604.5 0
11605.5 0
11606.5 0
11607.5 0
11608.5 0
11609.5 0
11610.5 0
11611.5 0
11612.5 0
11613.5 0
11614.5 1
11615.5 0
11616.5 0
11617.5 0
11618.5 0
11619.5 0
11620.5 0
11621.5 0
11622.5 0
11623.5 0
11624.5 0
11625.5 0
11626.5 0
11627.5 1
11628.5 0
11629.5 0
11630.5 0
11631.5 0
11632.5 0
11633.5 0
11634.5 0
11635.5 0
11636.5 0
11637.5 0
11638.5 0
11639.5 0
11640.5 0
11641.5 0
11642.5 0
11643.5 0
11644.5 0
11645.5 0
11646.5 0
11647.5 0
11648.5 0
11649.5 0
11650.5 0
11651.5 0
11652.5 0
11653.5 0
11654.5 0
11655.5 0
11656.5 0
11657.5 0
11658.5 0
11659.5 0
11660.5 0
11661.5 0
11662.5 0
11663.5 0
11664.5 0
11665.5 0
11666.5 0
11667.5 0
11668.5 0
11669.5 0
11670.5 0
11671.5 0
11672.5 0
11673.5 0
11674.5 0
11675.5 0
11676.5 0
11677.5 0
11678.5 0
11679.5 0
11680.5 0
11681.5 0
11682.5 0
11683.5 0
11684.5 0
11685.5 0
11686.5 0
11687.5 0
11688.5 0
11689.5 0
11690.5 0
11691.5 0
11692.5 0
11693.5 0
11694.5 0
11695.5 0
11696.5 0
11697.5 0
11698.5 0
11699.5 0
11700.5 0
11701.5 0
11702.5 0
11703.5 0
11704.5 0
11705.5 0
11706.5 0
11707.5 0
11708.5 0
11709.5 0
11710.5 0
11711.5 -1.57143
11712.5 0
11713.5 0
11714.5 0
11715.5 0
11716.5 0
11717.5 0
11718.5 0
11719.5 0
11720.5 0
11721.5 0
11722.5 0
11723.5 0
11724.5 0
11725.5 0
11726.5 0
11727.5 0
11728.5 0
11729.5 0
11730.5 0
11731.5 0
11732.5 0
11733.5 0
11734.5 0
11735.5 0
11736.5 0
11737.5 0
11738.5 0
11739.5 0
11740.5 0
11741.5 0
11742.5 0
11743.5 0
11744.5 0
11745.5 0
11746.5 0
11747.5 0
11748.5 0
11749.5 0
11750.5 0
11751.5 0
11752.5 0
11753.5 0
11754.5 0
11755.5 0
11756.5 1
11757.5 0
11758.5 0
11759.5 0
11760.5 0
11761.5 0
11762.5 0
11763.5 0
11764.5 0
11765.5 0
11766.5 0
11767.5 0
11768.5 0
11769.5 0
11770.5 0
11771.5 0
11772.5 0
11773.5 0
11774.5 0
11775.5 0
11776.5 0
11777.5 0
11778.5 0
11779.5 0
11780.5 0
11781.5 0
11782.5 0
11783.5 0
11784.5 0
11785.5 0
11786.5 0
11787.5 0
11788.5 0
11789.5 0
11790.5 0
11791.5 1
11792.5 0
11793.5 0
11794.5 0
11795.5 0
11796.5 0
11797.5 0
11798.5 0
11799.5 0
11800.5 0
11801.5 0
11802.5 0
11803.5 0
11804.5 0
11805.5 0
11806.5 0
11807.5 0
11808.5 0
11809.5 0
11810.5 0
11811.5 0
11812.5 0
11813.5 0
11814.5 0
11815.5 0
11816.5 0
11817.5 0
11818.5 0
11819.5 0
11820.5 0
11821.5 0
11822.5 0
11823.5 0
11824.5 0
11825.5 0
11826.5 0
11827.5 0
11828.5 0
11829.5 0
11830.5 0
11831.5 0
11832.5 0
11833.5 0
11834.5 0
11835.5 0
11836.5 0
11837.5 0
11838.5 0
11839.5 0
11840.5 0
11841.5 0
11842.5 0
11843.5 0
11844.5 0
11845.5 0
11846.5 0
11847.5 0
11848.5 0
11849.5 0
11850.5 0
11851.5 0
11852.5 0
11853.5 0
11854.5 0
11855.5 0
11856.5 0
11857.5 0
11858.5 0
11859.5 0
11860.5 0
11861.5 0
11862.5 0
11863.5 1
11864.5 0
11865.5 1
11866.5 0
11867.5 0
11868.5 0
11869.5 0
11870.5 0
11871.5 0
11872.5 0
11873.5 0
11874.5 0
11875.5 0
11876.5 0
11877.5 0
11878.5 0
11879.5 0
11880.5 0
11881.5 0
11882.5 0
11883.5 0
11884.5 0
11885.5 0
11886.5 0
11887.5 0
11888.5 0
11889.5 0
11890.5 0
11891.5 0
11892.5 0
11893.5 0
11894.5 0
11895.5 0
11896.5 0
11897.5 0
11898.5 0
11899.5 0
11900.5 0
11901.5 0
11902.5 0
11903.5 0
11904.5 0
11905.5 0
11906.5 0
11907.5 0
11908.5 0
11909.5 0
11910.5 0
11911.5 0
11912.5 0
11913.5 0
11914.5 0
11915.5 0
11916.5 0
11917.5 0
11918.5 0
11919.5 0
11920.5 0
11921.5 0
11922.5 0
11923.5 0
11924.5 0
11925.5 0
11926.5 0
11927.5 0
11928.5 0
11929.5 0
11930.5 0
11931.5 0
11932.5 0
11933.5 0
11934.5 0
11935.5 0
11936.5 0
11937.5 0
11938.5 0
11939.5 0
11940.5 0
11941.5 0
11942.5 0
11943.5 0
11944.5 0
11945.5 0
11946.5 0
11947.5 0
11948.5 0
11949.5 1
11950.5 0
11951.5 0
11952.5 0
11953.5 0
11954.5 0
11955.5 0
11956.5 0
11957.5 0
11958.5 0
11959.5 0
11960.5 0
11961.5 0
11962.5 0
11963.5 0
11964.5 0
11965.5 0
11966.5 0
11967.5 0
11968.5 0
11969.5 0
11970.5 0
11971.5 0
11972.5 0
11973.5 0
11974.5 0
11975.5 0
11976.5 0
11977.5 0
11978.5 0
11979.5 0
11980.5 0
11981.5 0
11982.5 0
11983.5 0
11984.5 0
11985.5 1
11986.5 0
11987.5 0
11988.5 0
11989.5 0
11990.5 0
11991.5 0
11992.5 0
11993.5 0
11994.5 0
11995.5 0
11996.5 0
11997.5 0
11998.5 0
11999.5 0
