# EGG_ProjY_E6479.0(8.0)_B6498.0(3.0)_B6458.5(2.5)
# X axis : Energy (keV) [Y axis]
# Y axis : Counts/1 keV
# N Bins : 12000
# X Min : 0
# X Max : 12000
# X value at the center of the bins
0.5 0
1.5 0
2.5 0
3.5 0
4.5 0
5.5 -2.81819
6.5 8.18181
7.5 -10.6364
8.5 40.0909
9.5 0.363632
10.5 5.45454
11.5 36.6364
12.5 34.4545
13.5 87.1818
14.5 89.4545
15.5 44.1818
16.5 21.6364
17.5 30.6364
18.5 57.7273
19.5 67.8182
20.5 98.9091
21.5 125
22.5 93.1818
23.5 136.182
24.5 159.182
25.5 227.182
26.5 213.545
27.5 271.273
28.5 274.455
29.5 230.636
30.5 316.091
31.5 326.364
32.5 324.273
33.5 357.545
34.5 300.636
35.5 355.727
36.5 308.364
37.5 406
38.5 407.182
39.5 408
40.5 445.182
41.5 396.455
42.5 511.091
43.5 424.545
44.5 427.727
45.5 460.273
46.5 372.909
47.5 433.727
48.5 482.273
49.5 511.455
50.5 381.909
51.5 526
52.5 484.818
53.5 486.364
54.5 493.364
55.5 452.545
56.5 513.091
57.5 590.909
58.5 676
59.5 766.091
60.5 573.364
61.5 568.091
62.5 521.545
63.5 514.818
64.5 531.455
65.5 504.636
66.5 571.455
67.5 591.909
68.5 570.455
69.5 557.727
70.5 472.364
71.5 449.273
72.5 465.727
73.5 647.091
74.5 827.273
75.5 873.727
76.5 1019.64
77.5 1078.45
78.5 715.364
79.5 455.545
80.5 457.727
81.5 443.091
82.5 510.455
83.5 476.818
84.5 428.091
85.5 449.455
86.5 637.818
87.5 701.909
88.5 628.182
89.5 547.091
90.5 556.364
91.5 550.909
92.5 506.545
93.5 446.182
94.5 480.909
95.5 430.182
96.5 466.818
97.5 523.091
98.5 451.909
99.5 504.091
100.5 445.727
101.5 360.273
102.5 477
103.5 474.364
104.5 474.091
105.5 587.545
106.5 560.455
107.5 517.182
108.5 499.455
109.5 512.091
110.5 544
111.5 526.364
112.5 542
113.5 578.818
114.5 566.818
115.5 501.545
116.5 528.636
117.5 512.818
118.5 663.636
119.5 586.727
120.5 598.636
121.5 624.182
122.5 584
123.5 629
124.5 651.182
125.5 515.364
126.5 627.091
127.5 654.182
128.5 675.545
129.5 653.636
130.5 617.273
131.5 597.727
132.5 530.909
133.5 559.636
134.5 620.727
135.5 679.091
136.5 587.455
137.5 673.364
138.5 555.909
139.5 665.636
140.5 717.091
141.5 607.727
142.5 709.091
143.5 761.091
144.5 715
145.5 665.727
146.5 711.455
147.5 644.364
148.5 563.909
149.5 447
150.5 550.545
151.5 572.182
152.5 539.091
153.5 616
154.5 723.091
155.5 427.909
156.5 625.364
157.5 664.091
158.5 654.636
159.5 600.455
160.5 673.636
161.5 536.727
162.5 610.818
163.5 655.273
164.5 661.727
165.5 603.273
166.5 743.545
167.5 705
168.5 643.455
169.5 732.545
170.5 912.091
171.5 1054.73
172.5 856.636
173.5 697.909
174.5 832.636
175.5 702.091
176.5 739.273
177.5 635.909
178.5 632.545
179.5 599.727
180.5 567.909
181.5 635.727
182.5 682.818
183.5 635.455
184.5 646.818
185.5 496.364
186.5 584.455
187.5 585
188.5 686.727
189.5 513.727
190.5 480.455
191.5 405.636
192.5 526.545
193.5 498.909
194.5 446.545
195.5 452.727
196.5 398
197.5 500.364
198.5 532.909
199.5 509.364
200.5 641.818
201.5 550.545
202.5 560.182
203.5 655.455
204.5 792.636
205.5 708.091
206.5 682.364
207.5 762.364
208.5 878.182
209.5 807
210.5 973.091
211.5 955.909
212.5 982.182
213.5 912.273
214.5 849.091
215.5 889.455
216.5 920.273
217.5 935.182
218.5 1028.36
219.5 916.727
220.5 934.455
221.5 952.364
222.5 910.182
223.5 933.545
224.5 898.727
225.5 789.909
226.5 764.182
227.5 743.455
228.5 747.818
229.5 735
230.5 625.455
231.5 610.273
232.5 574.273
233.5 523.273
234.5 504.364
235.5 491.909
236.5 536.545
237.5 508.364
238.5 599.909
239.5 506.818
240.5 560.091
241.5 685.545
242.5 635.273
243.5 660.364
244.5 717.091
245.5 641.818
246.5 666.818
247.5 712.182
248.5 649.727
249.5 666.364
250.5 735.364
251.5 715.091
252.5 696.455
253.5 688.364
254.5 635.273
255.5 716.273
256.5 689.909
257.5 615.455
258.5 652.545
259.5 689.182
260.5 693.273
261.5 686.818
262.5 717.091
263.5 704.182
264.5 719.636
265.5 657.091
266.5 631.455
267.5 602.182
268.5 543
269.5 572.364
270.5 424.091
271.5 536.727
272.5 378.091
273.5 553.818
274.5 431.727
275.5 441.909
276.5 632.727
277.5 564.364
278.5 593.636
279.5 607.727
280.5 572.818
281.5 678.091
282.5 690.636
283.5 655.545
284.5 646.636
285.5 665.818
286.5 641.364
287.5 645.727
288.5 740.455
289.5 629.909
290.5 685.545
291.5 626
292.5 626.273
293.5 631.818
294.5 649.727
295.5 610.636
296.5 652.273
297.5 607.727
298.5 641.727
299.5 587.545
300.5 593
301.5 595.455
302.5 555.818
303.5 493.091
304.5 508
305.5 502.091
306.5 431
307.5 507.909
308.5 388.455
309.5 514.455
310.5 449
311.5 453.545
312.5 381.545
313.5 365.364
314.5 423.818
315.5 512.455
316.5 480.636
317.5 502.364
318.5 547.818
319.5 539.909
320.5 498.455
321.5 512.273
322.5 490
323.5 549.091
324.5 434.727
325.5 566.364
326.5 512
327.5 521.455
328.5 572.909
329.5 483.818
330.5 545.727
331.5 491.636
332.5 476.273
333.5 574.909
334.5 459.727
335.5 604.545
336.5 433.273
337.5 510.909
338.5 432.818
339.5 389.636
340.5 452.182
341.5 464.727
342.5 447.909
343.5 450.364
344.5 457.818
345.5 463.636
346.5 473.727
347.5 427.727
348.5 493.091
349.5 441.818
350.5 475.818
351.5 432.545
352.5 496.636
353.5 578.364
354.5 449.455
355.5 568.273
356.5 465.727
357.5 446.909
358.5 511.818
359.5 412.727
360.5 515.182
361.5 450.182
362.5 519.364
363.5 483.818
364.5 525.364
365.5 531.727
366.5 470.818
367.5 825.455
368.5 810.091
369.5 594.545
370.5 486.455
371.5 435.182
372.5 390.727
373.5 480.909
374.5 474.818
375.5 473.909
376.5 363.727
377.5 402.636
378.5 423.182
379.5 324.727
380.5 378.636
381.5 356.091
382.5 386.455
383.5 330.818
384.5 433.818
385.5 311.636
386.5 378.636
387.5 466.455
388.5 417.182
389.5 465.636
390.5 407.909
391.5 370.273
392.5 386.545
393.5 368.364
394.5 382.091
395.5 386.818
396.5 335.364
397.5 384.273
398.5 412.364
399.5 371
400.5 325.909
401.5 339.545
402.5 389.455
403.5 322.636
404.5 360.364
405.5 315.091
406.5 280.727
407.5 295.455
408.5 333.455
409.5 364.636
410.5 346.455
411.5 383.909
412.5 345.364
413.5 376
414.5 359.636
415.5 450.273
416.5 458.727
417.5 465.909
418.5 506.636
419.5 518.818
420.5 465.909
421.5 553.364
422.5 504.727
423.5 441.545
424.5 465.818
425.5 452.182
426.5 477.818
427.5 399.727
428.5 488.545
429.5 452.364
430.5 427.273
431.5 368.636
432.5 381.364
433.5 354.364
434.5 369.545
435.5 313.818
436.5 370.091
437.5 343.636
438.5 393.091
439.5 318.182
440.5 344.727
441.5 321.909
442.5 333.455
443.5 338.273
444.5 355.727
445.5 376.818
446.5 392.182
447.5 412.455
448.5 376.364
449.5 451.636
450.5 435.636
451.5 387.909
452.5 362.364
453.5 421.091
454.5 478.364
455.5 542.455
456.5 448.545
457.5 383.091
458.5 417.909
459.5 455.545
460.5 462.273
461.5 384.636
462.5 410.727
463.5 353.273
464.5 384.727
465.5 368.818
466.5 389.909
467.5 308.455
468.5 353
469.5 324.636
470.5 359.636
471.5 349.455
472.5 380.455
473.5 428.091
474.5 388.545
475.5 401.909
476.5 410.636
477.5 353
478.5 361.455
479.5 395.364
480.5 344.091
481.5 456
482.5 412.636
483.5 391.545
484.5 407.091
485.5 375.909
486.5 342.182
487.5 347.273
488.5 346.364
489.5 350
490.5 385.091
491.5 332.455
492.5 294.818
493.5 384.636
494.5 402.909
495.5 319.636
496.5 395.455
497.5 352
498.5 392.364
499.5 381.818
500.5 388.727
501.5 393.091
502.5 361.091
503.5 383.182
504.5 381.727
505.5 409.091
506.5 443.727
507.5 745.454
508.5 1161.45
509.5 2014.09
510.5 2880
511.5 2832.82
512.5 1834.73
513.5 913.909
514.5 534.273
515.5 396.545
516.5 308.273
517.5 326.818
518.5 286.182
519.5 337.091
520.5 245.545
521.5 307.091
522.5 335.091
523.5 326.091
524.5 308.455
525.5 303
526.5 260.091
527.5 280
528.5 386.182
529.5 346.273
530.5 310.273
531.5 346.636
532.5 331.636
533.5 274
534.5 339.455
535.5 296.364
536.5 269.727
537.5 265.182
538.5 290.091
539.5 341.636
540.5 317.636
541.5 333.182
542.5 277.545
543.5 283.182
544.5 307.182
545.5 327.364
546.5 332.455
547.5 255.636
548.5 312.455
549.5 373.818
550.5 282
551.5 345.727
552.5 259.727
553.5 283
554.5 292.273
555.5 301.091
556.5 274.182
557.5 228.545
558.5 338.273
559.5 282.636
560.5 312.909
561.5 285.636
562.5 277.636
563.5 184.909
564.5 292.364
565.5 319.545
566.5 257.818
567.5 293.182
568.5 273.273
569.5 243.727
570.5 283.636
571.5 308.818
572.5 289.818
573.5 279.636
574.5 320.909
575.5 285.091
576.5 326.273
577.5 249.636
578.5 264.091
579.5 347.273
580.5 286.455
581.5 292.818
582.5 322.818
583.5 332.182
584.5 286.636
585.5 267.455
586.5 336.273
587.5 298.727
588.5 275.909
589.5 345
590.5 273.091
591.5 298.364
592.5 300.273
593.5 299.545
594.5 286.273
595.5 321.364
596.5 312.818
597.5 265.091
598.5 288.545
599.5 295.364
600.5 280.455
601.5 302.636
602.5 247.091
603.5 283.455
604.5 286.818
605.5 279
606.5 334.273
607.5 312.273
608.5 268.727
609.5 317.909
610.5 229.545
611.5 296.727
612.5 231.636
613.5 233.364
614.5 272.455
615.5 266.545
616.5 263.364
617.5 267.909
618.5 258.636
619.5 279
620.5 285.818
621.5 248.727
622.5 218.364
623.5 294.909
624.5 250.636
625.5 252.273
626.5 243.455
627.5 253.455
628.5 282.727
629.5 229
630.5 285.091
631.5 254.364
632.5 259.455
633.5 253.364
634.5 277.091
635.5 207.455
636.5 244.818
637.5 318.091
638.5 326.818
639.5 230.727
640.5 293.273
641.5 274.818
642.5 308.636
643.5 307
644.5 311.364
645.5 262.455
646.5 377.818
647.5 291.636
648.5 226.909
649.5 293.545
650.5 359.545
651.5 342.818
652.5 290.182
653.5 309.727
654.5 255.818
655.5 238
656.5 299.818
657.5 254.909
658.5 314
659.5 286.636
660.5 271.818
661.5 248.727
662.5 229.727
663.5 264.909
664.5 320.818
665.5 270.273
666.5 272.636
667.5 244.545
668.5 293.818
669.5 300
670.5 249.727
671.5 247.273
672.5 261.182
673.5 230
674.5 313.727
675.5 334.364
676.5 285.091
677.5 281.818
678.5 287
679.5 279.818
680.5 247.455
681.5 268.909
682.5 224.545
683.5 302.909
684.5 270.364
685.5 264.818
686.5 265
687.5 268.364
688.5 261
689.5 249.727
690.5 281.273
691.5 233.909
692.5 238.727
693.5 277.636
694.5 263.182
695.5 233.091
696.5 288.091
697.5 283.818
698.5 283.818
699.5 321.818
700.5 270.273
701.5 192.091
702.5 219.818
703.5 221.455
704.5 231.273
705.5 223.364
706.5 202.545
707.5 186.727
708.5 256.273
709.5 204.455
710.5 217.364
711.5 232.909
712.5 240.636
713.5 205.364
714.5 325.182
715.5 293.455
716.5 297.545
717.5 328.182
718.5 286.545
719.5 293.545
720.5 304.182
721.5 297.091
722.5 353.636
723.5 345.818
724.5 723.545
725.5 1731.55
726.5 2326.64
727.5 1349.09
728.5 555.909
729.5 315
730.5 309.636
731.5 274
732.5 309.273
733.5 312.091
734.5 269.727
735.5 282.455
736.5 259.909
737.5 264.455
738.5 254.727
739.5 274.545
740.5 268
741.5 191.091
742.5 243
743.5 230.455
744.5 239.364
745.5 231.182
746.5 244.364
747.5 210.455
748.5 198.909
749.5 242.727
750.5 259.909
751.5 250.273
752.5 289.091
753.5 210.273
754.5 279.182
755.5 217.364
756.5 237.727
757.5 275.364
758.5 304.636
759.5 268.727
760.5 397.636
761.5 424.909
762.5 379.818
763.5 332.636
764.5 264.818
765.5 297.727
766.5 220.545
767.5 258.909
768.5 264.727
769.5 289.091
770.5 281.818
771.5 261.636
772.5 307.545
773.5 318.545
774.5 313
775.5 236.182
776.5 261.364
777.5 301.455
778.5 312.273
779.5 288.182
780.5 303
781.5 317
782.5 260.545
783.5 230.545
784.5 216.636
785.5 272.364
786.5 272.545
787.5 255.273
788.5 257
789.5 280.909
790.5 304.364
791.5 244.364
792.5 273.364
793.5 239.091
794.5 214.455
795.5 273.727
796.5 237.182
797.5 258.818
798.5 214.909
799.5 256.727
800.5 242.091
801.5 249.091
802.5 211.364
803.5 223.182
804.5 285.818
805.5 269.727
806.5 260.273
807.5 311.727
808.5 304.455
809.5 287
810.5 294.364
811.5 224
812.5 248.545
813.5 268.091
814.5 277.455
815.5 243.636
816.5 255.455
817.5 317.909
818.5 279.636
819.5 279.182
820.5 251.545
821.5 252.727
822.5 224.364
823.5 262.636
824.5 323.545
825.5 224
826.5 279.545
827.5 282.273
828.5 287.727
829.5 289.273
830.5 259.727
831.5 299.364
832.5 239.727
833.5 248.636
834.5 295.364
835.5 310.091
836.5 243
837.5 251.182
838.5 272
839.5 264.091
840.5 237.818
841.5 278.818
842.5 294.091
843.5 263.727
844.5 209.545
845.5 261.364
846.5 301
847.5 308.273
848.5 290.727
849.5 277.455
850.5 269.818
851.5 267.727
852.5 309.818
853.5 219
854.5 283
855.5 218.182
856.5 260.455
857.5 239.909
858.5 265.636
859.5 286.455
860.5 317
861.5 275.727
862.5 244
863.5 232.091
864.5 237
865.5 272.364
866.5 281
867.5 301.636
868.5 271.182
869.5 359
870.5 275.091
871.5 318.545
872.5 501.727
873.5 792.636
874.5 942.545
875.5 609.818
876.5 379.545
877.5 323.182
878.5 367.727
879.5 297.455
880.5 273.091
881.5 258.091
882.5 303.182
883.5 264
884.5 208.182
885.5 333.455
886.5 288.273
887.5 326.818
888.5 318.455
889.5 275.455
890.5 306.636
891.5 281.727
892.5 268
893.5 279.182
894.5 275.273
895.5 292.455
896.5 320.818
897.5 287.455
898.5 296.455
899.5 268.091
900.5 316.364
901.5 285.455
902.5 317.727
903.5 257.727
904.5 309
905.5 302.818
906.5 313.091
907.5 272.455
908.5 271.091
909.5 275.727
910.5 303.727
911.5 306.727
912.5 251.636
913.5 288.818
914.5 283.091
915.5 304.636
916.5 327.727
917.5 319.091
918.5 329.818
919.5 288.636
920.5 267.636
921.5 349.818
922.5 306.455
923.5 368.909
924.5 323.455
925.5 322.091
926.5 396.636
927.5 378.818
928.5 351.727
929.5 399.182
930.5 399.364
931.5 397.273
932.5 400.545
933.5 412.545
934.5 414.636
935.5 425.091
936.5 347
937.5 410.182
938.5 393.909
939.5 351.455
940.5 374.727
941.5 381.273
942.5 384.273
943.5 385.273
944.5 358.909
945.5 361.727
946.5 362.545
947.5 348
948.5 307.455
949.5 307.091
950.5 297.636
951.5 327.636
952.5 269.091
953.5 283.818
954.5 265.364
955.5 257.818
956.5 284.364
957.5 270.636
958.5 237.727
959.5 294.364
960.5 261.727
961.5 257.182
962.5 217.909
963.5 221
964.5 250.727
965.5 189.091
966.5 269.636
967.5 273
968.5 261
969.5 236.364
970.5 348.091
971.5 326.455
972.5 534.636
973.5 1141.18
974.5 1483.09
975.5 1047.45
976.5 490.727
977.5 328.455
978.5 283.909
979.5 304.091
980.5 235.545
981.5 255.455
982.5 328.273
983.5 309.273
984.5 276.818
985.5 281.273
986.5 270.091
987.5 330.091
988.5 432
989.5 394.909
990.5 315.727
991.5 255.727
992.5 218.182
993.5 262.545
994.5 216.909
995.5 242.091
996.5 193.727
997.5 220.364
998.5 213.636
999.5 201
1000.5 273
1001.5 248.545
1002.5 220.364
1003.5 214.364
1004.5 229.455
1005.5 225.636
1006.5 202.182
1007.5 223.364
1008.5 237.818
1009.5 249.818
1010.5 258.818
1011.5 256.636
1012.5 212.727
1013.5 228
1014.5 229.364
1015.5 210.818
1016.5 218.727
1017.5 198.909
1018.5 246.091
1019.5 302.273
1020.5 277.727
1021.5 280.364
1022.5 259
1023.5 315.909
1024.5 341.455
1025.5 343.273
1026.5 224.455
1027.5 228.909
1028.5 176.182
1029.5 221.818
1030.5 214.182
1031.5 215.091
1032.5 207.455
1033.5 171.364
1034.5 190
1035.5 194.909
1036.5 224.182
1037.5 171.545
1038.5 167.364
1039.5 188
1040.5 188.182
1041.5 191.364
1042.5 210.727
1043.5 195.818
1044.5 211.182
1045.5 201
1046.5 175.909
1047.5 178.455
1048.5 186.273
1049.5 206.091
1050.5 243.545
1051.5 197.182
1052.5 185.545
1053.5 205.636
1054.5 185.727
1055.5 203.364
1056.5 216.727
1057.5 187.091
1058.5 158.364
1059.5 172.091
1060.5 162.909
1061.5 200.091
1062.5 217
1063.5 176.818
1064.5 231.091
1065.5 240.909
1066.5 242.545
1067.5 173
1068.5 180
1069.5 150
1070.5 176.818
1071.5 167.909
1072.5 246.273
1073.5 271
1074.5 339.455
1075.5 211.091
1076.5 187.364
1077.5 168.909
1078.5 184.273
1079.5 131.909
1080.5 175.273
1081.5 174.091
1082.5 171.273
1083.5 157
1084.5 190.364
1085.5 172.273
1086.5 195.545
1087.5 165.727
1088.5 157.727
1089.5 204.909
1090.5 175
1091.5 188.455
1092.5 164.909
1093.5 180
1094.5 138.091
1095.5 210
1096.5 173.364
1097.5 182.909
1098.5 195.455
1099.5 192
1100.5 181
1101.5 209.091
1102.5 166.636
1103.5 181.455
1104.5 209.545
1105.5 155.727
1106.5 229.727
1107.5 161.727
1108.5 166.364
1109.5 182.818
1110.5 164.091
1111.5 187.182
1112.5 195.455
1113.5 176.273
1114.5 187.545
1115.5 186.727
1116.5 136.727
1117.5 161.455
1118.5 223.545
1119.5 249.636
1120.5 248.364
1121.5 224.273
1122.5 212.545
1123.5 274.091
1124.5 525.182
1125.5 1235.45
1126.5 1070.73
1127.5 532.454
1128.5 275.909
1129.5 198
1130.5 165.091
1131.5 172.636
1132.5 147.909
1133.5 166.182
1134.5 166.909
1135.5 129
1136.5 187.455
1137.5 176.727
1138.5 179.545
1139.5 119.636
1140.5 194.091
1141.5 183.364
1142.5 165.636
1143.5 210
1144.5 205.273
1145.5 156.545
1146.5 200.818
1147.5 160.727
1148.5 180.727
1149.5 201.727
1150.5 193.091
1151.5 207.455
1152.5 354.182
1153.5 746
1154.5 2456.27
1155.5 7708.18
1156.5 17363.2
1157.5 17316.7
1158.5 7338.09
1159.5 1703.64
1160.5 409
1161.5 217.909
1162.5 172.727
1163.5 146.545
1164.5 151.818
1165.5 161.818
1166.5 134
1167.5 178.091
1168.5 144.545
1169.5 120.636
1170.5 129.636
1171.5 157
1172.5 115.273
1173.5 156.455
1174.5 97.6364
1175.5 120.182
1176.5 131.818
1177.5 120.364
1178.5 138.091
1179.5 107.182
1180.5 135.182
1181.5 124
1182.5 101.636
1183.5 160.727
1184.5 104.727
1185.5 120.364
1186.5 152
1187.5 164.636
1188.5 179
1189.5 123.727
1190.5 138.818
1191.5 166.727
1192.5 124.636
1193.5 123.273
1194.5 152.364
1195.5 136.091
1196.5 144.636
1197.5 131.909
1198.5 131.818
1199.5 144.909
1200.5 128.455
1201.5 131.091
1202.5 154.091
1203.5 135.909
1204.5 129
1205.5 131.364
1206.5 115.273
1207.5 130.182
1208.5 153.545
1209.5 135.818
1210.5 164.727
1211.5 114.182
1212.5 127.545
1213.5 139.182
1214.5 120.545
1215.5 146.727
1216.5 137.636
1217.5 126.364
1218.5 126.545
1219.5 123.818
1220.5 156.727
1221.5 150.273
1222.5 113.818
1223.5 145.273
1224.5 118
1225.5 131.818
1226.5 141.273
1227.5 103.545
1228.5 161.091
1229.5 134.273
1230.5 115.545
1231.5 133.273
1232.5 113.091
1233.5 138.091
1234.5 110.909
1235.5 186
1236.5 157.364
1237.5 142.727
1238.5 149.818
1239.5 142.455
1240.5 134.273
1241.5 157.909
1242.5 153.091
1243.5 172.909
1244.5 144.636
1245.5 163.091
1246.5 191.818
1247.5 164.545
1248.5 150.273
1249.5 154.545
1250.5 152.909
1251.5 164.818
1252.5 162.818
1253.5 139.091
1254.5 113.636
1255.5 162.364
1256.5 169.182
1257.5 130.727
1258.5 165.545
1259.5 160.091
1260.5 143.909
1261.5 183.818
1262.5 186.909
1263.5 183.545
1264.5 140.364
1265.5 160.455
1266.5 134.364
1267.5 180.273
1268.5 149.545
1269.5 134.455
1270.5 120.545
1271.5 130.545
1272.5 126.909
1273.5 161.727
1274.5 138.909
1275.5 152.818
1276.5 129.364
1277.5 145
1278.5 141.273
1279.5 157.636
1280.5 168.727
1281.5 120.455
1282.5 172.091
1283.5 127
1284.5 144.273
1285.5 131.727
1286.5 140.636
1287.5 152.364
1288.5 134.182
1289.5 151.455
1290.5 146.909
1291.5 149.455
1292.5 143.545
1293.5 140.182
1294.5 153.909
1295.5 136
1296.5 135.545
1297.5 132.727
1298.5 162
1299.5 121.455
1300.5 131.455
1301.5 112
1302.5 128.273
1303.5 102.091
1304.5 87.6364
1305.5 140.727
1306.5 132.091
1307.5 107.091
1308.5 107.455
1309.5 122.818
1310.5 140.727
1311.5 121.273
1312.5 140.545
1313.5 147.182
1314.5 122.545
1315.5 100.091
1316.5 114.727
1317.5 132.364
1318.5 116.909
1319.5 117.636
1320.5 110.727
1321.5 113.364
1322.5 114.364
1323.5 120.909
1324.5 107.909
1325.5 82.6364
1326.5 100.364
1327.5 106.364
1328.5 120.364
1329.5 123.909
1330.5 73.2727
1331.5 112.273
1332.5 127.455
1333.5 107.455
1334.5 120.636
1335.5 136.545
1336.5 137.091
1337.5 122
1338.5 115.545
1339.5 146
1340.5 175.364
1341.5 271.909
1342.5 382.182
1343.5 323.455
1344.5 221.364
1345.5 166
1346.5 236.545
1347.5 695.455
1348.5 1592.64
1349.5 1973.18
1350.5 1278.18
1351.5 401.455
1352.5 206.091
1353.5 121.273
1354.5 112.909
1355.5 107.364
1356.5 138.091
1357.5 114.636
1358.5 81.5455
1359.5 90.9091
1360.5 117.182
1361.5 103.727
1362.5 94.6364
1363.5 106
1364.5 99.2727
1365.5 115.545
1366.5 106.909
1367.5 117.818
1368.5 86.0909
1369.5 105
1370.5 78
1371.5 127.545
1372.5 119.909
1373.5 109.364
1374.5 89.8182
1375.5 110.909
1376.5 91.2727
1377.5 111.636
1378.5 100.727
1379.5 94.2727
1380.5 104.182
1381.5 90.8182
1382.5 81.8182
1383.5 115.273
1384.5 98.5455
1385.5 113.182
1386.5 110.818
1387.5 115.909
1388.5 82.5455
1389.5 123.091
1390.5 86.3636
1391.5 100.091
1392.5 94
1393.5 93.9091
1394.5 94.8182
1395.5 103.455
1396.5 98.5455
1397.5 83
1398.5 80.4545
1399.5 100.636
1400.5 65.2727
1401.5 75.6364
1402.5 110.727
1403.5 86.0909
1404.5 89.7273
1405.5 83.1818
1406.5 64.2727
1407.5 95.9091
1408.5 101
1409.5 96.4545
1410.5 101.091
1411.5 85.7273
1412.5 81.7273
1413.5 73.8182
1414.5 76.3636
1415.5 84.6364
1416.5 102.545
1417.5 93.2727
1418.5 114.182
1419.5 98
1420.5 83.5455
1421.5 88.9091
1422.5 88.9091
1423.5 95.0909
1424.5 93.4545
1425.5 93
1426.5 77.2727
1427.5 115.545
1428.5 107.455
1429.5 123.364
1430.5 111.545
1431.5 102.818
1432.5 93
1433.5 86.0909
1434.5 106
1435.5 106.455
1436.5 88.8182
1437.5 87.9091
1438.5 101.455
1439.5 77
1440.5 83.6364
1441.5 119.636
1442.5 97.2727
1443.5 91.3636
1444.5 84.5455
1445.5 79.9091
1446.5 63.4545
1447.5 100.091
1448.5 73.4545
1449.5 98
1450.5 100.273
1451.5 69.1818
1452.5 71.4545
1453.5 78.1818
1454.5 100.273
1455.5 100.182
1456.5 91.8182
1457.5 98
1458.5 69.3636
1459.5 93.8182
1460.5 102.364
1461.5 85.1818
1462.5 96.6364
1463.5 85.1818
1464.5 100.545
1465.5 78.6364
1466.5 90
1467.5 62.1818
1468.5 87
1469.5 97.3636
1470.5 105.364
1471.5 117.182
1472.5 82.5455
1473.5 137.455
1474.5 139.455
1475.5 114.818
1476.5 135.636
1477.5 144.364
1478.5 164.364
1479.5 165.727
1480.5 190.909
1481.5 251.364
1482.5 249.636
1483.5 215.545
1484.5 143.273
1485.5 56.5454
1486.5 -27.8182
1487.5 -19.4546
1488.5 6.72727
1489.5 -8.27273
1490.5 18.7273
1491.5 20.4545
1492.5 50.6364
1493.5 27.1818
1494.5 71.8182
1495.5 241.909
1496.5 659.182
1497.5 2107.55
1498.5 5359.27
1499.5 7318.18
1500.5 4941.09
1501.5 1514.45
1502.5 412.636
1503.5 139.818
1504.5 101.182
1505.5 83.0909
1506.5 82.6364
1507.5 65.6364
1508.5 69.7273
1509.5 90.6364
1510.5 75.0909
1511.5 80.9091
1512.5 58.8182
1513.5 68.6364
1514.5 80.1818
1515.5 68.2727
1516.5 68.5455
1517.5 69.6364
1518.5 62.7273
1519.5 89.1818
1520.5 73.5455
1521.5 85.4545
1522.5 77.6364
1523.5 80.8182
1524.5 66.5455
1525.5 70.7273
1526.5 96.4545
1527.5 86.0909
1528.5 56.4545
1529.5 87.8182
1530.5 75.2727
1531.5 74.3636
1532.5 84.9091
1533.5 69.4545
1534.5 85.0909
1535.5 76.0909
1536.5 63.9091
1537.5 50.4545
1538.5 82.5455
1539.5 89.5455
1540.5 70.3636
1541.5 102.545
1542.5 79.8182
1543.5 96.6364
1544.5 69.3636
1545.5 72.9091
1546.5 74.8182
1547.5 40.1818
1548.5 82.4545
1549.5 77.2727
1550.5 66.2727
1551.5 54.1818
1552.5 66.5455
1553.5 75.5455
1554.5 69.3636
1555.5 82.5455
1556.5 72.2727
1557.5 77.2727
1558.5 50.5455
1559.5 45.2727
1560.5 79.2727
1561.5 64.1818
1562.5 60.3636
1563.5 63.6364
1564.5 82.3636
1565.5 64.5455
1566.5 75.1818
1567.5 72.1818
1568.5 78.8182
1569.5 56.3636
1570.5 84.0909
1571.5 36.1818
1572.5 66
1573.5 100.091
1574.5 80.5455
1575.5 69.4545
1576.5 62.1818
1577.5 80.9091
1578.5 58.8182
1579.5 77.8182
1580.5 67.8182
1581.5 55.1818
1582.5 60.5455
1583.5 93.0909
1584.5 66.5455
1585.5 78.0909
1586.5 60.1818
1587.5 97.7273
1588.5 78.4545
1589.5 76.9091
1590.5 79.4545
1591.5 78
1592.5 67.3636
1593.5 91.2727
1594.5 78.4545
1595.5 91.9091
1596.5 93.7273
1597.5 88.0909
1598.5 97.2727
1599.5 104.364
1600.5 116.909
1601.5 111.091
1602.5 98.1818
1603.5 102
1604.5 124.091
1605.5 159.455
1606.5 171.091
1607.5 110.182
1608.5 89.8182
1609.5 72.0909
1610.5 60.9091
1611.5 88.1818
1612.5 65.8182
1613.5 86.6364
1614.5 91
1615.5 79.0909
1616.5 87.4545
1617.5 104.364
1618.5 69.0909
1619.5 73.4545
1620.5 90.4545
1621.5 55
1622.5 65.6364
1623.5 89.3636
1624.5 82.1818
1625.5 63.4545
1626.5 51.1818
1627.5 59.7273
1628.5 45.5455
1629.5 53.9091
1630.5 82.3636
1631.5 104.364
1632.5 135.364
1633.5 173
1634.5 150
1635.5 104.545
1636.5 63.7273
1637.5 97.8182
1638.5 77.0909
1639.5 99.8182
1640.5 52.7273
1641.5 98.0909
1642.5 79.1818
1643.5 108.182
1644.5 87.0909
1645.5 82.2727
1646.5 95.1818
1647.5 74
1648.5 85.7273
1649.5 96.5455
1650.5 109.091
1651.5 96.3636
1652.5 84.8182
1653.5 75.5455
1654.5 81
1655.5 67.1818
1656.5 95.0909
1657.5 93.5455
1658.5 77.6364
1659.5 93.8182
1660.5 63.6364
1661.5 94.2727
1662.5 91.8182
1663.5 70.4545
1664.5 75.1818
1665.5 104.909
1666.5 91.2727
1667.5 113.182
1668.5 81.3636
1669.5 91.6364
1670.5 109.727
1671.5 63.5455
1672.5 84.7273
1673.5 88.1818
1674.5 101.636
1675.5 79.5455
1676.5 75.1818
1677.5 79.5455
1678.5 88.8182
1679.5 41
1680.5 74.6364
1681.5 102.273
1682.5 92.2727
1683.5 75.3636
1684.5 83.9091
1685.5 78.2727
1686.5 77.5455
1687.5 80.5455
1688.5 76.7273
1689.5 89.4545
1690.5 102.364
1691.5 96.1818
1692.5 84.4545
1693.5 95.8182
1694.5 85.3636
1695.5 91.1818
1696.5 110.182
1697.5 98.1818
1698.5 96.0909
1699.5 82.1818
1700.5 92.4545
1701.5 76.4545
1702.5 70.8182
1703.5 95.2727
1704.5 83
1705.5 84.9091
1706.5 111.364
1707.5 69.6364
1708.5 94
1709.5 95.4545
1710.5 109.455
1711.5 112.091
1712.5 122.273
1713.5 111
1714.5 95.7273
1715.5 103.818
1716.5 104.727
1717.5 92.5455
1718.5 119.182
1719.5 86.6364
1720.5 94.8182
1721.5 112
1722.5 112.091
1723.5 118.455
1724.5 121.909
1725.5 109.818
1726.5 108.273
1727.5 116.545
1728.5 103.909
1729.5 63.2727
1730.5 104.273
1731.5 112.091
1732.5 108.091
1733.5 110.364
1734.5 107.364
1735.5 106.818
1736.5 105.364
1737.5 81.9091
1738.5 93.2727
1739.5 136.818
1740.5 105
1741.5 121.455
1742.5 105.818
1743.5 125.909
1744.5 146.455
1745.5 107.909
1746.5 129.273
1747.5 133.364
1748.5 108.727
1749.5 116.455
1750.5 95.2727
1751.5 134.364
1752.5 129.182
1753.5 116.364
1754.5 137
1755.5 144.364
1756.5 132.273
1757.5 126.727
1758.5 128.182
1759.5 136.182
1760.5 126.273
1761.5 112.636
1762.5 138.636
1763.5 131.727
1764.5 83.7273
1765.5 105.636
1766.5 130.727
1767.5 89.6364
1768.5 85.1818
1769.5 89.7273
1770.5 89.8182
1771.5 109.818
1772.5 102.545
1773.5 87.8182
1774.5 109.636
1775.5 83
1776.5 92
1777.5 119.364
1778.5 130.182
1779.5 109
1780.5 99.7273
1781.5 114.455
1782.5 97.7273
1783.5 105.636
1784.5 81.3636
1785.5 72.5455
1786.5 96.7273
1787.5 87.3636
1788.5 84.0909
1789.5 74.4545
1790.5 88.0909
1791.5 87.2727
1792.5 101.091
1793.5 99.3636
1794.5 86.3636
1795.5 89.2727
1796.5 109.182
1797.5 101.545
1798.5 91.7273
1799.5 82.7273
1800.5 66.5455
1801.5 96.8182
1802.5 81.6364
1803.5 105.727
1804.5 74.8182
1805.5 95.9091
1806.5 86.6364
1807.5 70.2727
1808.5 95.3636
1809.5 77.3636
1810.5 74.4545
1811.5 79.2727
1812.5 81.3636
1813.5 77.8182
1814.5 80.5455
1815.5 80.9091
1816.5 106.727
1817.5 84.1818
1818.5 76.4545
1819.5 106.091
1820.5 92.7273
1821.5 87
1822.5 95.8182
1823.5 117.091
1824.5 83.0909
1825.5 72.9091
1826.5 71.5455
1827.5 76.3636
1828.5 82.9091
1829.5 80.8182
1830.5 95.5455
1831.5 73.0909
1832.5 74.1818
1833.5 59.5455
1834.5 79.1818
1835.5 56.2727
1836.5 66
1837.5 81.7273
1838.5 49.3636
1839.5 86.7273
1840.5 86.9091
1841.5 74
1842.5 98.9091
1843.5 91.4545
1844.5 70.9091
1845.5 68.3636
1846.5 76.8182
1847.5 59.4545
1848.5 73.6364
1849.5 86.1818
1850.5 89.2727
1851.5 95
1852.5 52.8182
1853.5 73.8182
1854.5 110.727
1855.5 81.1818
1856.5 106.727
1857.5 92.9091
1858.5 72.4545
1859.5 70.5455
1860.5 74.1818
1861.5 79.7273
1862.5 79.8182
1863.5 87.6364
1864.5 73.8182
1865.5 74.7273
1866.5 79.6364
1867.5 70.3636
1868.5 65.3636
1869.5 72.3636
1870.5 78.6364
1871.5 78
1872.5 103.818
1873.5 56.9091
1874.5 72.4545
1875.5 58.8182
1876.5 85.9091
1877.5 52.8182
1878.5 64
1879.5 88.4545
1880.5 84.3636
1881.5 73.5455
1882.5 98.7273
1883.5 101.273
1884.5 84.7273
1885.5 69.5454
1886.5 80.8182
1887.5 72
1888.5 104.727
1889.5 67.6364
1890.5 85.2727
1891.5 79.2727
1892.5 64.4545
1893.5 80.8182
1894.5 83.2727
1895.5 66.0909
1896.5 73.7273
1897.5 74.1818
1898.5 72.1818
1899.5 77.2727
1900.5 70.3636
1901.5 58.7273
1902.5 68.3636
1903.5 77.6364
1904.5 58.3636
1905.5 68.7273
1906.5 87
1907.5 59.5455
1908.5 63
1909.5 71
1910.5 47.8182
1911.5 92.5455
1912.5 59.0909
1913.5 53.0909
1914.5 50.5455
1915.5 55.4545
1916.5 52.9091
1917.5 77.6364
1918.5 59.5455
1919.5 76.6364
1920.5 68.7273
1921.5 91
1922.5 65.1818
1923.5 70.8182
1924.5 59.1818
1925.5 58.1818
1926.5 51.7273
1927.5 58.7273
1928.5 87.0909
1929.5 51.3636
1930.5 63.9091
1931.5 67.2727
1932.5 62.1818
1933.5 77.1818
1934.5 52.6364
1935.5 67.3636
1936.5 45.4545
1937.5 52.3636
1938.5 67
1939.5 73.0909
1940.5 67.2727
1941.5 69.8182
1942.5 66.5455
1943.5 35.0909
1944.5 60.7273
1945.5 73.1818
1946.5 58.8182
1947.5 57.7273
1948.5 64.6364
1949.5 50.6364
1950.5 71.4545
1951.5 56.0909
1952.5 39.0909
1953.5 82.5455
1954.5 65.6364
1955.5 53.5455
1956.5 56.2727
1957.5 30.6364
1958.5 113.545
1959.5 42.0909
1960.5 81.3636
1961.5 65.5455
1962.5 71.8182
1963.5 77.3636
1964.5 100.909
1965.5 84.4545
1966.5 59.0909
1967.5 55.5455
1968.5 57.2727
1969.5 70.0909
1970.5 60
1971.5 68
1972.5 44.3636
1973.5 58.8182
1974.5 58.9091
1975.5 63.6364
1976.5 61.0909
1977.5 66.5455
1978.5 79.8182
1979.5 62.7273
1980.5 54.1818
1981.5 74.6364
1982.5 64.5455
1983.5 74
1984.5 86.7273
1985.5 80.1818
1986.5 48.0909
1987.5 77.7273
1988.5 108.545
1989.5 169.818
1990.5 514.455
1991.5 1495.73
1992.5 3790
1993.5 6222.18
1994.5 5326.18
1995.5 2422.36
1996.5 671.545
1997.5 230
1998.5 105.182
1999.5 60.5455
2000.5 39.6364
2001.5 53.6364
2002.5 58.0909
2003.5 44.7273
2004.5 45
2005.5 66.5455
2006.5 70.9091
2007.5 51.7273
2008.5 63
2009.5 48.7273
2010.5 52.6364
2011.5 49.5455
2012.5 35.3636
2013.5 47.4545
2014.5 50.2727
2015.5 37.8182
2016.5 26.7273
2017.5 40.8182
2018.5 30.1818
2019.5 47.2727
2020.5 50.0909
2021.5 32.1818
2022.5 32
2023.5 31.3636
2024.5 37
2025.5 31.0909
2026.5 46.4545
2027.5 36.2727
2028.5 32.0909
2029.5 28.7273
2030.5 49.3636
2031.5 23.8182
2032.5 47.4545
2033.5 45.8182
2034.5 30.8182
2035.5 33.2727
2036.5 41.1818
2037.5 32.1818
2038.5 28
2039.5 18.9091
2040.5 59
2041.5 52.3636
2042.5 44.8182
2043.5 49.1818
2044.5 62.1818
2045.5 44.4545
2046.5 32.7273
2047.5 35.9091
2048.5 31
2049.5 61
2050.5 32.1818
2051.5 45
2052.5 48.5455
2053.5 48.1818
2054.5 41.7273
2055.5 33.5455
2056.5 46.6364
2057.5 39.6364
2058.5 15.1818
2059.5 30.0909
2060.5 49.2727
2061.5 28.2727
2062.5 50
2063.5 35.7273
2064.5 37.6364
2065.5 32.6364
2066.5 31.9091
2067.5 41.9091
2068.5 45.7273
2069.5 44.0909
2070.5 42.6364
2071.5 30.0909
2072.5 27.2727
2073.5 45.3636
2074.5 31.1818
2075.5 37
2076.5 20.7273
2077.5 40.5455
2078.5 38.0909
2079.5 45.3636
2080.5 29.5455
2081.5 49.3636
2082.5 26.1818
2083.5 44.3636
2084.5 26.2727
2085.5 30.6364
2086.5 42.6364
2087.5 28.1818
2088.5 52.4545
2089.5 50.0909
2090.5 59.3636
2091.5 62.2727
2092.5 41
2093.5 50.3636
2094.5 14.7273
2095.5 36.3636
2096.5 37.8182
2097.5 48.8182
2098.5 64.8182
2099.5 47.6364
2100.5 39.4545
2101.5 36.4545
2102.5 47.0909
2103.5 41.5455
2104.5 39.7273
2105.5 39.8182
2106.5 56.0909
2107.5 47.2727
2108.5 37.4545
2109.5 38.8182
2110.5 30.8182
2111.5 29.4545
2112.5 34.0909
2113.5 38.2727
2114.5 32.9091
2115.5 47.8182
2116.5 59.1818
2117.5 42.8182
2118.5 33.3636
2119.5 45.9091
2120.5 45.9091
2121.5 35.4545
2122.5 29.0909
2123.5 51.3636
2124.5 32.3636
2125.5 38
2126.5 45.5455
2127.5 41.5455
2128.5 38.5455
2129.5 44.5455
2130.5 40.8182
2131.5 55
2132.5 31.5455
2133.5 36
2134.5 38.0909
2135.5 46.6364
2136.5 26.6364
2137.5 38.0909
2138.5 55.7273
2139.5 86.8182
2140.5 98.6364
2141.5 237.364
2142.5 518
2143.5 871.636
2144.5 865.455
2145.5 455.636
2146.5 205.455
2147.5 92.6364
2148.5 86.1818
2149.5 202.545
2150.5 269.364
2151.5 222.909
2152.5 109.545
2153.5 46.4545
2154.5 38.5455
2155.5 55.8182
2156.5 42.4545
2157.5 43.9091
2158.5 44.3636
2159.5 29.7273
2160.5 41.1818
2161.5 31.5455
2162.5 48.5455
2163.5 33.0909
2164.5 45.8182
2165.5 45.8182
2166.5 28.7273
2167.5 37.9091
2168.5 40.9091
2169.5 44.8182
2170.5 38.4545
2171.5 18.2727
2172.5 23.8182
2173.5 17.0909
2174.5 32.3636
2175.5 45.2727
2176.5 38.3636
2177.5 35.0909
2178.5 42.3636
2179.5 30
2180.5 40.9091
2181.5 41.4545
2182.5 45
2183.5 32.1818
2184.5 16.2727
2185.5 31.1818
2186.5 44.7273
2187.5 42.9091
2188.5 39.5455
2189.5 26.0909
2190.5 60.2727
2191.5 31.4545
2192.5 34.1818
2193.5 30.3636
2194.5 33.0909
2195.5 55.3636
2196.5 59.5455
2197.5 47.4545
2198.5 51.3636
2199.5 51.5455
2200.5 48.9091
2201.5 57.1818
2202.5 23.2727
2203.5 35
2204.5 27.3636
2205.5 40.8182
2206.5 41
2207.5 34.4545
2208.5 42.3636
2209.5 40.5455
2210.5 39.7273
2211.5 32.9091
2212.5 45.8182
2213.5 39.9091
2214.5 38.4545
2215.5 55.7273
2216.5 41.7273
2217.5 29.5455
2218.5 46.3636
2219.5 30.9091
2220.5 60.0909
2221.5 71.8182
2222.5 111.818
2223.5 117.455
2224.5 97.8182
2225.5 53.6364
2226.5 35.0909
2227.5 46.3636
2228.5 31.7273
2229.5 36.6364
2230.5 33.6364
2231.5 46.8182
2232.5 30.8182
2233.5 37.6364
2234.5 50
2235.5 43
2236.5 37.5455
2237.5 31
2238.5 61.8182
2239.5 30.3636
2240.5 35.7273
2241.5 40
2242.5 40
2243.5 39
2244.5 24.4545
2245.5 47.0909
2246.5 21.5455
2247.5 36.3636
2248.5 38.7273
2249.5 28.7273
2250.5 27.4545
2251.5 46.5455
2252.5 34.5455
2253.5 52.8182
2254.5 69.9091
2255.5 60.0909
2256.5 75
2257.5 71.2727
2258.5 67.8182
2259.5 36
2260.5 27.4545
2261.5 45.3636
2262.5 44.5455
2263.5 41.3636
2264.5 30.1818
2265.5 41.4545
2266.5 33
2267.5 38.3636
2268.5 20.5455
2269.5 46.3636
2270.5 52.9091
2271.5 33
2272.5 38.0909
2273.5 41.4545
2274.5 40.4545
2275.5 45.3636
2276.5 30.0909
2277.5 37.0909
2278.5 32.7273
2279.5 23
2280.5 53.7273
2281.5 26.3636
2282.5 29.0909
2283.5 45.7273
2284.5 39.1818
2285.5 43.4545
2286.5 40.8182
2287.5 46.8182
2288.5 29.3636
2289.5 44.3636
2290.5 41.9091
2291.5 35.3636
2292.5 36.3636
2293.5 39.2727
2294.5 37.9091
2295.5 18.5455
2296.5 31.1818
2297.5 38.0909
2298.5 29
2299.5 38.3636
2300.5 19
2301.5 31.1818
2302.5 54.9091
2303.5 27.6364
2304.5 42
2305.5 44.4545
2306.5 56.2727
2307.5 45.2727
2308.5 41.3636
2309.5 33.5455
2310.5 42.5455
2311.5 31.5455
2312.5 30.6364
2313.5 41.4545
2314.5 42.0909
2315.5 40.3636
2316.5 35.0909
2317.5 40.0909
2318.5 38
2319.5 28.3636
2320.5 40.9091
2321.5 25.9091
2322.5 38.3636
2323.5 44.9091
2324.5 36
2325.5 49.3636
2326.5 53.7273
2327.5 43.8182
2328.5 43.3636
2329.5 45.7273
2330.5 34.8182
2331.5 26
2332.5 32.0909
2333.5 45.9091
2334.5 20.1818
2335.5 21.7273
2336.5 43
2337.5 35.5455
2338.5 40.3636
2339.5 32.7273
2340.5 27.4545
2341.5 50
2342.5 58.9091
2343.5 25.4545
2344.5 33.9091
2345.5 19.1818
2346.5 47.5455
2347.5 35
2348.5 32.0909
2349.5 39.4545
2350.5 42.3636
2351.5 32
2352.5 45.4545
2353.5 31.9091
2354.5 36.6364
2355.5 49.6364
2356.5 33.0909
2357.5 35.5455
2358.5 37.7273
2359.5 44.3636
2360.5 27.6364
2361.5 48.2727
2362.5 48.4545
2363.5 58.7273
2364.5 83.0909
2365.5 113.727
2366.5 214.636
2367.5 261.909
2368.5 218.364
2369.5 150.182
2370.5 85.6364
2371.5 85.3636
2372.5 37.2727
2373.5 55.8182
2374.5 47.8182
2375.5 46.5455
2376.5 43.9091
2377.5 34.0909
2378.5 23.4545
2379.5 29.4545
2380.5 39.7273
2381.5 31.5455
2382.5 38.3636
2383.5 37.0909
2384.5 48.4545
2385.5 39.4545
2386.5 22
2387.5 -3.63637
2388.5 -0.0909104
2389.5 -13.5455
2390.5 30.7273
2391.5 29.8182
2392.5 31.1818
2393.5 42.2727
2394.5 49.9091
2395.5 35.4545
2396.5 44.4545
2397.5 37.4545
2398.5 44.3636
2399.5 38.9091
2400.5 44.2727
2401.5 43.9091
2402.5 39.0909
2403.5 37.3636
2404.5 17.3636
2405.5 22.5455
2406.5 49.7273
2407.5 30.8182
2408.5 32.8182
2409.5 50.7273
2410.5 40.7273
2411.5 38.2727
2412.5 33.0909
2413.5 29.0909
2414.5 43.1818
2415.5 46.9091
2416.5 55.4545
2417.5 46.7273
2418.5 44.4545
2419.5 50.2727
2420.5 40.8182
2421.5 33.4545
2422.5 51.3636
2423.5 49.2727
2424.5 50.8182
2425.5 47.3636
2426.5 46.8182
2427.5 46.3636
2428.5 57.0909
2429.5 45.3636
2430.5 35.3636
2431.5 39.7273
2432.5 44.3636
2433.5 40.2727
2434.5 23.9091
2435.5 26.2727
2436.5 42.7273
2437.5 30.5455
2438.5 40.9091
2439.5 37.3636
2440.5 50.7273
2441.5 39.4545
2442.5 38.9091
2443.5 52.7273
2444.5 36.9091
2445.5 45.8182
2446.5 37.3636
2447.5 40.2727
2448.5 40.0909
2449.5 19.6364
2450.5 39.6364
2451.5 25.4545
2452.5 25.6364
2453.5 32.3636
2454.5 31
2455.5 34.2727
2456.5 34.0909
2457.5 39.3636
2458.5 39.8182
2459.5 34
2460.5 21.5455
2461.5 37.3636
2462.5 31.8182
2463.5 35.8182
2464.5 22.4545
2465.5 33.8182
2466.5 40.3636
2467.5 36.4545
2468.5 49.8182
2469.5 61.7273
2470.5 85
2471.5 79.9091
2472.5 53.0909
2473.5 51
2474.5 28
2475.5 22.6364
2476.5 33.9091
2477.5 33.9091
2478.5 23.6364
2479.5 29.0909
2480.5 23.6364
2481.5 54.1818
2482.5 42.4545
2483.5 48.4545
2484.5 42.9091
2485.5 33.4545
2486.5 42.2727
2487.5 35.2727
2488.5 28.2727
2489.5 30.4545
2490.5 37.1818
2491.5 36.4545
2492.5 23.6364
2493.5 47.3636
2494.5 50.3636
2495.5 43.3636
2496.5 40.4545
2497.5 41.7273
2498.5 27.6364
2499.5 28.0909
2500.5 37.4545
2501.5 51.2727
2502.5 59.8182
2503.5 56.1818
2504.5 39.3636
2505.5 52.2727
2506.5 34
2507.5 42.8182
2508.5 25.4545
2509.5 33
2510.5 28.5455
2511.5 41.3636
2512.5 41.8182
2513.5 42.8182
2514.5 26.1818
2515.5 61.6364
2516.5 172.636
2517.5 275.727
2518.5 321.182
2519.5 360
2520.5 299.182
2521.5 138
2522.5 77.7273
2523.5 37.0909
2524.5 29.7273
2525.5 30.9091
2526.5 27.4545
2527.5 50.8182
2528.5 58.1818
2529.5 45
2530.5 39.9091
2531.5 34.7273
2532.5 30.3636
2533.5 36.7273
2534.5 39.8182
2535.5 38.9091
2536.5 45.3636
2537.5 38.9091
2538.5 38.8182
2539.5 34
2540.5 25.5455
2541.5 17
2542.5 33.1818
2543.5 20
2544.5 17.0909
2545.5 22
2546.5 32.3636
2547.5 24.9091
2548.5 38.4545
2549.5 25.3636
2550.5 49.8182
2551.5 37.8182
2552.5 26.9091
2553.5 39.8182
2554.5 42.1818
2555.5 24.9091
2556.5 39.6364
2557.5 39.4545
2558.5 33.2727
2559.5 26.3636
2560.5 43.7273
2561.5 48.8182
2562.5 30.8182
2563.5 32.4545
2564.5 27.8182
2565.5 33.3636
2566.5 30.8182
2567.5 27.4545
2568.5 32.3636
2569.5 39
2570.5 53.1818
2571.5 33.8182
2572.5 39.1818
2573.5 28.1818
2574.5 31.7273
2575.5 33.8182
2576.5 30
2577.5 36.4545
2578.5 34.4545
2579.5 25.3636
2580.5 30.9091
2581.5 23
2582.5 32.9091
2583.5 32.4545
2584.5 12.6364
2585.5 42.7273
2586.5 45.7273
2587.5 36.4545
2588.5 23.5455
2589.5 32.3636
2590.5 20.6364
2591.5 41.6364
2592.5 36.1818
2593.5 38.4545
2594.5 23
2595.5 35
2596.5 29.4545
2597.5 26.3636
2598.5 27.9091
2599.5 36.2727
2600.5 18.6364
2601.5 35.3636
2602.5 37.2727
2603.5 42.7273
2604.5 51.7273
2605.5 38.2727
2606.5 42.7273
2607.5 29.0909
2608.5 30.2727
2609.5 21.9091
2610.5 25
2611.5 42.7273
2612.5 40.8182
2613.5 36.6364
2614.5 44.5455
2615.5 36.5455
2616.5 58.9091
2617.5 131.273
2618.5 191.455
2619.5 291.091
2620.5 212.636
2621.5 82.0909
2622.5 56.0909
2623.5 35.4545
2624.5 16.0909
2625.5 25.4545
2626.5 36.3636
2627.5 18
2628.5 25.8182
2629.5 34.8182
2630.5 25.5455
2631.5 35.2727
2632.5 33.7273
2633.5 49.1818
2634.5 35.8182
2635.5 39.3636
2636.5 40.4545
2637.5 23.4545
2638.5 24.6364
2639.5 31
2640.5 36.8182
2641.5 32.9091
2642.5 25.1818
2643.5 25.3636
2644.5 29.8182
2645.5 38.8182
2646.5 30.4545
2647.5 23.9091
2648.5 33.6364
2649.5 32.2727
2650.5 41.1818
2651.5 39
2652.5 58.4545
2653.5 132.091
2654.5 266
2655.5 419.364
2656.5 564.273
2657.5 465.727
2658.5 249.818
2659.5 102.909
2660.5 43.7273
2661.5 29.9091
2662.5 31.9091
2663.5 20.2727
2664.5 16.6364
2665.5 16.4545
2666.5 36.9091
2667.5 16.1818
2668.5 33.2727
2669.5 39.1818
2670.5 29.3636
2671.5 25.3636
2672.5 32.7273
2673.5 27.1818
2674.5 20.4545
2675.5 28.4545
2676.5 20.5455
2677.5 16.0909
2678.5 29.2727
2679.5 31.6364
2680.5 36.3636
2681.5 16.4545
2682.5 32.8182
2683.5 25.3636
2684.5 29.8182
2685.5 21.3636
2686.5 25.2727
2687.5 38.4545
2688.5 14.4545
2689.5 34
2690.5 24.9091
2691.5 10.0909
2692.5 38.5455
2693.5 28.8182
2694.5 1.54545
2695.5 29.6364
2696.5 19.9091
2697.5 30.7273
2698.5 22.3636
2699.5 21.9091
2700.5 48
2701.5 24.3636
2702.5 22.2727
2703.5 15.9091
2704.5 22.9091
2705.5 27.7273
2706.5 29.2727
2707.5 16.5455
2708.5 30.2727
2709.5 31.9091
2710.5 32.9091
2711.5 32.7273
2712.5 28.5455
2713.5 22.3636
2714.5 18.4545
2715.5 27.9091
2716.5 31.8182
2717.5 35.2727
2718.5 29.3636
2719.5 42.2727
2720.5 35.9091
2721.5 36.7273
2722.5 44.6364
2723.5 48
2724.5 32.6364
2725.5 22.4545
2726.5 36.1818
2727.5 49.7273
2728.5 44.3636
2729.5 28.3636
2730.5 41.5455
2731.5 46.3636
2732.5 30.1818
2733.5 17.3636
2734.5 29.3636
2735.5 16.5455
2736.5 18.5455
2737.5 34.3636
2738.5 34.8182
2739.5 31.7273
2740.5 16.5455
2741.5 9.63636
2742.5 17.1818
2743.5 36.7273
2744.5 23.4545
2745.5 27.4545
2746.5 26.5455
2747.5 31.5455
2748.5 34.7273
2749.5 32.3636
2750.5 20
2751.5 24.8182
2752.5 31.3636
2753.5 22.6364
2754.5 17.8182
2755.5 24.3636
2756.5 32.8182
2757.5 40.3636
2758.5 27.5455
2759.5 12.4545
2760.5 29.8182
2761.5 37.3636
2762.5 46.9091
2763.5 80.8182
2764.5 116.273
2765.5 298.182
2766.5 488.545
2767.5 544.545
2768.5 402.727
2769.5 194.818
2770.5 77
2771.5 44.8182
2772.5 22.3636
2773.5 21.5455
2774.5 27.5455
2775.5 5.81818
2776.5 30.8182
2777.5 32.4545
2778.5 21.8182
2779.5 39.3636
2780.5 21.2727
2781.5 28.9091
2782.5 26.2727
2783.5 48.2727
2784.5 29.0909
2785.5 30.6364
2786.5 36.4545
2787.5 30.9091
2788.5 48.9091
2789.5 55.9091
2790.5 50.1818
2791.5 36
2792.5 40.0909
2793.5 32.9091
2794.5 36.8182
2795.5 21.8182
2796.5 32.3636
2797.5 31.1818
2798.5 20.5455
2799.5 32.4545
2800.5 37.7273
2801.5 23.3636
2802.5 29.9091
2803.5 38.1818
2804.5 17.5455
2805.5 28.3636
2806.5 38.5455
2807.5 32.6364
2808.5 30.6364
2809.5 21.9091
2810.5 41
2811.5 25.7273
2812.5 34.6364
2813.5 12.1818
2814.5 38.8182
2815.5 32.4545
2816.5 25.9091
2817.5 34.7273
2818.5 22.3636
2819.5 22.9091
2820.5 30.2727
2821.5 25
2822.5 31.3636
2823.5 20.2727
2824.5 23.8182
2825.5 24.0909
2826.5 18
2827.5 20.6364
2828.5 22.3636
2829.5 23.9091
2830.5 24.9091
2831.5 24
2832.5 6.18182
2833.5 31.2727
2834.5 34.9091
2835.5 27.2727
2836.5 38.1818
2837.5 28.8182
2838.5 29.3636
2839.5 30.8182
2840.5 23.0909
2841.5 21.5455
2842.5 23.5455
2843.5 33.7273
2844.5 37.7273
2845.5 36.4545
2846.5 26
2847.5 32.5455
2848.5 41.8182
2849.5 25.3636
2850.5 24.9091
2851.5 31.4545
2852.5 29.8182
2853.5 47.8182
2854.5 19.2727
2855.5 35.2727
2856.5 28.4545
2857.5 25.9091
2858.5 21.1818
2859.5 22.9091
2860.5 20.5455
2861.5 49.7273
2862.5 37.2727
2863.5 22.3636
2864.5 23.9091
2865.5 9.36364
2866.5 31.7273
2867.5 31.7273
2868.5 24.6364
2869.5 29.7273
2870.5 12.6364
2871.5 25.4545
2872.5 30.1818
2873.5 30.4545
2874.5 35.8182
2875.5 24.1818
2876.5 27.7273
2877.5 35.7273
2878.5 46.6364
2879.5 23
2880.5 21.4545
2881.5 29.4545
2882.5 27.2727
2883.5 25.9091
2884.5 17.9091
2885.5 20.4545
2886.5 18
2887.5 20.4545
2888.5 26
2889.5 15.9091
2890.5 32.9091
2891.5 23
2892.5 25.0909
2893.5 15.0909
2894.5 7.45454
2895.5 24.9091
2896.5 25.3636
2897.5 27.9091
2898.5 27.1818
2899.5 33.6364
2900.5 23.2727
2901.5 44.7273
2902.5 30.7273
2903.5 27.4545
2904.5 29.2727
2905.5 31.6364
2906.5 22.0909
2907.5 31.4545
2908.5 18.8182
2909.5 27.4545
2910.5 22.3636
2911.5 40.4545
2912.5 49.9091
2913.5 24.2727
2914.5 19.9091
2915.5 26.1818
2916.5 32.7273
2917.5 36.6364
2918.5 21.5455
2919.5 23.3636
2920.5 19.9091
2921.5 20.8182
2922.5 31.3636
2923.5 24.8182
2924.5 28.2727
2925.5 28.3636
2926.5 16.3636
2927.5 20.2727
2928.5 38.5455
2929.5 24.8182
2930.5 30.8182
2931.5 24.1818
2932.5 33.3636
2933.5 32.6364
2934.5 36.6364
2935.5 25.9091
2936.5 28.7273
2937.5 21.9091
2938.5 29.3636
2939.5 39.2727
2940.5 33.2727
2941.5 21.2727
2942.5 22.3636
2943.5 33.4545
2944.5 28.5455
2945.5 41
2946.5 46.5455
2947.5 47.5455
2948.5 50.8182
2949.5 44.3636
2950.5 19
2951.5 31.1818
2952.5 45.3636
2953.5 28.3636
2954.5 25.9091
2955.5 25.1818
2956.5 24.2727
2957.5 25.8182
2958.5 41.6364
2959.5 21
2960.5 17.7273
2961.5 31.3636
2962.5 23.9091
2963.5 23.3636
2964.5 21.3636
2965.5 7.27273
2966.5 42.8182
2967.5 18.7273
2968.5 25.9091
2969.5 18.9091
2970.5 32.2727
2971.5 36.6364
2972.5 40.3636
2973.5 27.2727
2974.5 30.9091
2975.5 43
2976.5 30.8182
2977.5 51.0909
2978.5 64.1818
2979.5 112.636
2980.5 114.364
2981.5 162.545
2982.5 202.636
2983.5 182.636
2984.5 109.091
2985.5 66.9091
2986.5 44.7273
2987.5 36.2727
2988.5 28.3636
2989.5 35.2727
2990.5 47.3636
2991.5 51.1818
2992.5 57.8182
2993.5 42.7273
2994.5 48.0909
2995.5 32.6364
2996.5 35.3636
2997.5 26.2727
2998.5 28.4545
2999.5 40.2727
3000.5 27.9091
3001.5 20.1818
3002.5 25.2727
3003.5 29.6364
3004.5 38
3005.5 25.7273
3006.5 28.3636
3007.5 18.1818
3008.5 21.1818
3009.5 35.9091
3010.5 24
3011.5 32.2727
3012.5 41.1818
3013.5 17.5455
3014.5 36.1818
3015.5 20.2727
3016.5 19.2727
3017.5 26.2727
3018.5 35.6364
3019.5 27.2727
3020.5 24.3636
3021.5 33.2727
3022.5 20.4545
3023.5 31.5455
3024.5 28.8182
3025.5 37.7273
3026.5 36.0909
3027.5 26.8182
3028.5 29.8182
3029.5 23.9091
3030.5 32.7273
3031.5 35.9091
3032.5 29
3033.5 25.0909
3034.5 35.8182
3035.5 32.0909
3036.5 51.8182
3037.5 45.4545
3038.5 32.2727
3039.5 51.0909
3040.5 11.5455
3041.5 24.9091
3042.5 37.3636
3043.5 24.2727
3044.5 39.6364
3045.5 33.7273
3046.5 26
3047.5 32.9091
3048.5 34.2727
3049.5 29.2727
3050.5 31.2727
3051.5 33.5455
3052.5 23.4545
3053.5 26.9091
3054.5 32.0909
3055.5 25.7273
3056.5 34.6364
3057.5 42.0909
3058.5 28.6364
3059.5 20.4545
3060.5 25.6364
3061.5 47.6364
3062.5 22.3636
3063.5 46.1818
3064.5 34.1818
3065.5 29.8182
3066.5 34.3636
3067.5 22.7273
3068.5 23.7273
3069.5 33.3636
3070.5 28.2727
3071.5 22.9091
3072.5 36.7273
3073.5 21.9091
3074.5 33.8182
3075.5 27.3636
3076.5 22.0909
3077.5 35.6364
3078.5 40.0909
3079.5 32.1818
3080.5 35.7273
3081.5 41.6364
3082.5 36.1818
3083.5 16.1818
3084.5 31.1818
3085.5 18.3636
3086.5 23.9091
3087.5 32.6364
3088.5 46.6364
3089.5 42.1818
3090.5 27.9091
3091.5 39.6364
3092.5 26.2727
3093.5 38.7273
3094.5 28.1818
3095.5 16
3096.5 33.7273
3097.5 26.3636
3098.5 17
3099.5 19.6364
3100.5 43.8182
3101.5 36.6364
3102.5 45.1818
3103.5 24.4545
3104.5 32.4545
3105.5 29.2727
3106.5 28.3636
3107.5 22.9091
3108.5 38.0909
3109.5 20.5455
3110.5 16.3636
3111.5 24.2727
3112.5 33.1818
3113.5 41.5455
3114.5 25.3636
3115.5 38.8182
3116.5 24.3636
3117.5 31.2727
3118.5 34.7273
3119.5 27.3636
3120.5 32.1818
3121.5 29.6364
3122.5 40.0909
3123.5 33.2727
3124.5 31.6364
3125.5 19.2727
3126.5 40.1818
3127.5 31.1818
3128.5 32.7273
3129.5 29.9091
3130.5 25.7273
3131.5 26.6364
3132.5 35.0909
3133.5 31.7273
3134.5 30.1818
3135.5 40.8182
3136.5 33.2727
3137.5 35.2727
3138.5 31.7273
3139.5 27.9091
3140.5 28.6364
3141.5 25.8182
3142.5 32.6364
3143.5 36.0909
3144.5 41.1818
3145.5 27.2727
3146.5 38.6364
3147.5 36.6364
3148.5 41.7273
3149.5 40.2727
3150.5 41.2727
3151.5 36.9091
3152.5 40.0909
3153.5 20.9091
3154.5 37.7273
3155.5 40.0909
3156.5 55.2727
3157.5 39.2727
3158.5 39
3159.5 35.3636
3160.5 19.5455
3161.5 29.2727
3162.5 18.7273
3163.5 26.7273
3164.5 34.9091
3165.5 31.0909
3166.5 26.1818
3167.5 33.8182
3168.5 31.0909
3169.5 44.5455
3170.5 33.1818
3171.5 28.8182
3172.5 44.6364
3173.5 26.3636
3174.5 28.7273
3175.5 28.3636
3176.5 28.8182
3177.5 22.3636
3178.5 26.9091
3179.5 38.2727
3180.5 29.8182
3181.5 23.1818
3182.5 38.7273
3183.5 36.8182
3184.5 43.2727
3185.5 23.4545
3186.5 23.4545
3187.5 34.7273
3188.5 25.8182
3189.5 33.7273
3190.5 28.6364
3191.5 22.6364
3192.5 39.5455
3193.5 22.8182
3194.5 36.0909
3195.5 38.3636
3196.5 22.9091
3197.5 25.3636
3198.5 43.8182
3199.5 40.8182
3200.5 27
3201.5 52.5455
3202.5 24.8182
3203.5 45.8182
3204.5 36.7273
3205.5 31.4545
3206.5 18.9091
3207.5 34.8182
3208.5 33.6364
3209.5 31.7273
3210.5 43.1818
3211.5 44.2727
3212.5 30.2727
3213.5 36.3636
3214.5 28.7273
3215.5 27.7273
3216.5 36.0909
3217.5 37.8182
3218.5 22.7273
3219.5 44
3220.5 19.3636
3221.5 41.3636
3222.5 38.3636
3223.5 37.9091
3224.5 25.0909
3225.5 36.8182
3226.5 41.1818
3227.5 39.5455
3228.5 37.6364
3229.5 40.6364
3230.5 40.5455
3231.5 39.6364
3232.5 19.0909
3233.5 35.2727
3234.5 45.0909
3235.5 36.7273
3236.5 23.9091
3237.5 39.2727
3238.5 43.2727
3239.5 20.2727
3240.5 50.0909
3241.5 43.0909
3242.5 40.5455
3243.5 68.3636
3244.5 35.9091
3245.5 36.2727
3246.5 42.0909
3247.5 44.2727
3248.5 35.2727
3249.5 55.0909
3250.5 34.5455
3251.5 35.1818
3252.5 31.2727
3253.5 48.1818
3254.5 30.9091
3255.5 40.3636
3256.5 26.8182
3257.5 36.6364
3258.5 32.6364
3259.5 43.1818
3260.5 43.3636
3261.5 39.7273
3262.5 47.1818
3263.5 29.7273
3264.5 30.7273
3265.5 28.3636
3266.5 37.0909
3267.5 24.2727
3268.5 28.7273
3269.5 25.6364
3270.5 38.2727
3271.5 31
3272.5 39
3273.5 32.1818
3274.5 23.6364
3275.5 38.0909
3276.5 22.1818
3277.5 37.5455
3278.5 37.1818
3279.5 24.0909
3280.5 25.2727
3281.5 31.0909
3282.5 29.2727
3283.5 32.8182
3284.5 22.1818
3285.5 41.5455
3286.5 23.1818
3287.5 43.1818
3288.5 33.1818
3289.5 40.6364
3290.5 31.1818
3291.5 23.0909
3292.5 34
3293.5 31.6364
3294.5 27.6364
3295.5 33.2727
3296.5 50.6364
3297.5 63.8182
3298.5 100.273
3299.5 149.273
3300.5 241.545
3301.5 260.545
3302.5 190.455
3303.5 123.455
3304.5 41.7273
3305.5 45.6364
3306.5 36.0909
3307.5 24.7273
3308.5 21.2727
3309.5 33.6364
3310.5 36.0909
3311.5 30.5455
3312.5 32.5455
3313.5 31.0909
3314.5 37.1818
3315.5 24.6364
3316.5 38.1818
3317.5 30.2727
3318.5 24.5455
3319.5 37.6364
3320.5 36.3636
3321.5 54.7273
3322.5 88.7273
3323.5 64.6364
3324.5 42.4545
3325.5 19.2727
3326.5 34.0909
3327.5 33.1818
3328.5 34.1818
3329.5 17.1818
3330.5 28.7273
3331.5 34.6364
3332.5 32.0909
3333.5 41.5455
3334.5 31.6364
3335.5 36
3336.5 23.0909
3337.5 36.1818
3338.5 24.6364
3339.5 28
3340.5 34.5455
3341.5 29
3342.5 31.5455
3343.5 35.0909
3344.5 40.5455
3345.5 22.0909
3346.5 27.1818
3347.5 30.1818
3348.5 25.0909
3349.5 30.1818
3350.5 28
3351.5 30.6364
3352.5 33.0909
3353.5 41.0909
3354.5 20.3636
3355.5 27.8182
3356.5 33.1818
3357.5 25.7273
3358.5 26.9091
3359.5 18.8182
3360.5 33.5455
3361.5 29.1818
3362.5 26.7273
3363.5 29
3364.5 21.0909
3365.5 22.1818
3366.5 35.6364
3367.5 28.7273
3368.5 27.2727
3369.5 34.1818
3370.5 26.1818
3371.5 45.5455
3372.5 30.0909
3373.5 34.0909
3374.5 25.5455
3375.5 25.6364
3376.5 20.5455
3377.5 33
3378.5 25.8182
3379.5 31.7273
3380.5 28.7273
3381.5 16.0909
3382.5 27.5455
3383.5 12.6364
3384.5 25.6364
3385.5 16.2727
3386.5 12.1818
3387.5 23.1818
3388.5 19.1818
3389.5 29.5455
3390.5 25.0909
3391.5 26.0909
3392.5 30.5455
3393.5 20.0909
3394.5 15.6364
3395.5 30.5455
3396.5 14.2727
3397.5 24.5455
3398.5 24.5455
3399.5 21.5455
3400.5 36
3401.5 20.0909
3402.5 20.1818
3403.5 24.6364
3404.5 27.2727
3405.5 14.6364
3406.5 31.5455
3407.5 23.0909
3408.5 32
3409.5 28.7273
3410.5 29.6364
3411.5 18.0909
3412.5 22.5455
3413.5 21.5455
3414.5 27
3415.5 16.0909
3416.5 26.5455
3417.5 31.5455
3418.5 27
3419.5 32
3420.5 22.2727
3421.5 35.5455
3422.5 19.8182
3423.5 21.0909
3424.5 27
3425.5 8.90909
3426.5 62.3636
3427.5 29
3428.5 10.5455
3429.5 24
3430.5 27.9091
3431.5 20.1818
3432.5 31.5455
3433.5 24
3434.5 29.5455
3435.5 24
3436.5 22.5455
3437.5 26
3438.5 21.7273
3439.5 22.5455
3440.5 25.0909
3441.5 29
3442.5 34.5455
3443.5 29.5455
3444.5 24
3445.5 19.5455
3446.5 19.6364
3447.5 29.7273
3448.5 15.0909
3449.5 12.9091
3450.5 26.7273
3451.5 20.6364
3452.5 30.5455
3453.5 27.0909
3454.5 30.0909
3455.5 25.6364
3456.5 24.5455
3457.5 30.6364
3458.5 24.0909
3459.5 21.6364
3460.5 21.5455
3461.5 22.0909
3462.5 29.7273
3463.5 23.6364
3464.5 32.6364
3465.5 22.0909
3466.5 31.6364
3467.5 22.0909
3468.5 24.5455
3469.5 19.0909
3470.5 27.1818
3471.5 29.1818
3472.5 19.7273
3473.5 22.0909
3474.5 14.7273
3475.5 19.7273
3476.5 1.63636
3477.5 -5.18182
3478.5 4.27273
3479.5 17.2727
3480.5 25.0909
3481.5 22.2727
3482.5 36.0909
3483.5 31.0909
3484.5 48.5455
3485.5 34.6364
3486.5 33.0909
3487.5 55
3488.5 86.5455
3489.5 144.091
3490.5 315.091
3491.5 580.636
3492.5 939.909
3493.5 1133.55
3494.5 961.636
3495.5 541.091
3496.5 256.182
3497.5 98.6364
3498.5 48
3499.5 37
3500.5 24.0909
3501.5 28
3502.5 18.6364
3503.5 30.0909
3504.5 22.0909
3505.5 26.7273
3506.5 14.1818
3507.5 7.90909
3508.5 10.8182
3509.5 6.45455
3510.5 10.2727
3511.5 20.2727
3512.5 9.81818
3513.5 8.27273
3514.5 15.0909
3515.5 10.8182
3516.5 13.7273
3517.5 3.09091
3518.5 23.7273
3519.5 21.1818
3520.5 18.5455
3521.5 17.2727
3522.5 24.6364
3523.5 19.5455
3524.5 9.18182
3525.5 21.6364
3526.5 15.6364
3527.5 22.0909
3528.5 12.7273
3529.5 16.6364
3530.5 16.1818
3531.5 21.7273
3532.5 14.8182
3533.5 20.7273
3534.5 24.5455
3535.5 17.6364
3536.5 18.5455
3537.5 17.5455
3538.5 17.0909
3539.5 30.6364
3540.5 24
3541.5 23
3542.5 24
3543.5 23.5455
3544.5 21.5455
3545.5 23.5455
3546.5 20.5455
3547.5 23.5455
3548.5 14.0909
3549.5 19.0909
3550.5 25.5455
3551.5 14.5455
3552.5 22.6364
3553.5 22
3554.5 19.5455
3555.5 16.0909
3556.5 5.63636
3557.5 31
3558.5 13.5455
3559.5 36
3560.5 21.0909
3561.5 23
3562.5 20
3563.5 22.0909
3564.5 23.0909
3565.5 29.5455
3566.5 19.0909
3567.5 13.0909
3568.5 19.0909
3569.5 11.5455
3570.5 18.5455
3571.5 23.5455
3572.5 24.0909
3573.5 16
3574.5 18.5455
3575.5 12.6364
3576.5 21.0909
3577.5 26.5455
3578.5 23
3579.5 22.5455
3580.5 12.1818
3581.5 28.5455
3582.5 30
3583.5 15.6364
3584.5 17.6364
3585.5 25.5455
3586.5 23
3587.5 19.5455
3588.5 11.6364
3589.5 12.6364
3590.5 31.5455
3591.5 24
3592.5 12.7273
3593.5 21.5455
3594.5 32
3595.5 22.5455
3596.5 26.0909
3597.5 20.5455
3598.5 20
3599.5 23.0909
3600.5 17.5455
3601.5 28
3602.5 23.5455
3603.5 11
3604.5 10.5455
3605.5 32
3606.5 19.5455
3607.5 8.09091
3608.5 12.8182
3609.5 28
3610.5 19.0909
3611.5 18.6364
3612.5 18.0909
3613.5 20
3614.5 28.5455
3615.5 15.5455
3616.5 20
3617.5 18.6364
3618.5 25.0909
3619.5 27.1818
3620.5 31.5455
3621.5 35.0909
3622.5 40
3623.5 55
3624.5 69.0909
3625.5 97.7273
3626.5 179.636
3627.5 320.636
3628.5 375.273
3629.5 315.182
3630.5 145.364
3631.5 70.5455
3632.5 41.0909
3633.5 43
3634.5 33
3635.5 27
3636.5 20.6364
3637.5 29.5455
3638.5 35.5455
3639.5 34.5455
3640.5 30.5455
3641.5 36
3642.5 35
3643.5 30.0909
3644.5 37.1818
3645.5 23.6364
3646.5 34
3647.5 27.5455
3648.5 30.1818
3649.5 18.6364
3650.5 32
3651.5 28.6364
3652.5 26
3653.5 36.6364
3654.5 23
3655.5 26.1818
3656.5 30.0909
3657.5 24.0909
3658.5 32.0909
3659.5 52.6364
3660.5 68.5455
3661.5 73.7273
3662.5 51.6364
3663.5 42.0909
3664.5 40
3665.5 31.0909
3666.5 21
3667.5 20.5455
3668.5 33.0909
3669.5 32.5455
3670.5 41.0909
3671.5 35.5455
3672.5 32.6364
3673.5 30.5455
3674.5 34.6364
3675.5 26.5455
3676.5 30.0909
3677.5 38
3678.5 31.5455
3679.5 35.0909
3680.5 33.5455
3681.5 32.6364
3682.5 29.0909
3683.5 26.6364
3684.5 33
3685.5 27.0909
3686.5 27.0909
3687.5 31
3688.5 39
3689.5 26
3690.5 34
3691.5 31.0909
3692.5 23.0909
3693.5 31.6364
3694.5 26
3695.5 33.0909
3696.5 26.0909
3697.5 32.6364
3698.5 19.0909
3699.5 38.0909
3700.5 32.5455
3701.5 33
3702.5 26
3703.5 37.5455
3704.5 34
3705.5 36.0909
3706.5 30.5455
3707.5 29.5455
3708.5 21.5455
3709.5 27.0909
3710.5 37
3711.5 36.5455
3712.5 34
3713.5 40.5455
3714.5 26.0909
3715.5 27.5455
3716.5 22
3717.5 27.5455
3718.5 32.0909
3719.5 36
3720.5 30.5455
3721.5 40.5455
3722.5 34
3723.5 25.5455
3724.5 32.5455
3725.5 26.1818
3726.5 27
3727.5 27
3728.5 29
3729.5 34
3730.5 22.5455
3731.5 35.6364
3732.5 16.2727
3733.5 26.5455
3734.5 33.5455
3735.5 34.5455
3736.5 28.6364
3737.5 33
3738.5 33.6364
3739.5 32
3740.5 20.5455
3741.5 20.6364
3742.5 19.6364
3743.5 42.0909
3744.5 24.5455
3745.5 21.2727
3746.5 33.0909
3747.5 51.5455
3748.5 29.1818
3749.5 26.0909
3750.5 27.6364
3751.5 30.0909
3752.5 32.5455
3753.5 32.5455
3754.5 42
3755.5 26.5455
3756.5 22
3757.5 26
3758.5 44
3759.5 28.5455
3760.5 37.5455
3761.5 29.6364
3762.5 31.5455
3763.5 36.5455
3764.5 34.0909
3765.5 24.5455
3766.5 37.0909
3767.5 43.5455
3768.5 32.0909
3769.5 35
3770.5 35.6364
3771.5 33.0909
3772.5 34
3773.5 39
3774.5 24
3775.5 31.5455
3776.5 31.6364
3777.5 41.5455
3778.5 33.5455
3779.5 30
3780.5 35.6364
3781.5 32.1818
3782.5 29.5455
3783.5 31.0909
3784.5 30.5455
3785.5 33
3786.5 20.0909
3787.5 33
3788.5 42.0909
3789.5 40.0909
3790.5 32
3791.5 43
3792.5 33
3793.5 35
3794.5 47.5455
3795.5 38.5455
3796.5 40
3797.5 36
3798.5 42.6364
3799.5 36
3800.5 23.0909
3801.5 33.5455
3802.5 32.5455
3803.5 37.6364
3804.5 37.5455
3805.5 27.6364
3806.5 45.5455
3807.5 36.0909
3808.5 31.6364
3809.5 38.0909
3810.5 38
3811.5 36
3812.5 33.5455
3813.5 41.0909
3814.5 34.6364
3815.5 42
3816.5 34.5455
3817.5 32
3818.5 31.5455
3819.5 49.5455
3820.5 36
3821.5 22.5455
3822.5 45
3823.5 43.0909
3824.5 34.5455
3825.5 40
3826.5 29.6364
3827.5 29.0909
3828.5 30.5455
3829.5 39.6364
3830.5 42.6364
3831.5 38.5455
3832.5 48.5455
3833.5 31.5455
3834.5 41
3835.5 34.5455
3836.5 33.0909
3837.5 36
3838.5 35.5455
3839.5 30.1818
3840.5 41
3841.5 44.0909
3842.5 37.5455
3843.5 47.5455
3844.5 29.5455
3845.5 33.1818
3846.5 45.5455
3847.5 42.0909
3848.5 24.1818
3849.5 46
3850.5 32.0909
3851.5 43.5455
3852.5 22.0909
3853.5 29.5455
3854.5 30.6364
3855.5 38.0909
3856.5 30.5455
3857.5 42.5455
3858.5 42.5455
3859.5 28.0909
3860.5 32
3861.5 36.6364
3862.5 32.6364
3863.5 35.6364
3864.5 42
3865.5 37.5455
3866.5 39
3867.5 38
3868.5 54.5455
3869.5 41
3870.5 25.0909
3871.5 33
3872.5 37.0909
3873.5 42
3874.5 43
3875.5 43.5455
3876.5 43
3877.5 29.1818
3878.5 41.5455
3879.5 38.5455
3880.5 35
3881.5 32.5455
3882.5 29
3883.5 43.0909
3884.5 42
3885.5 27.5455
3886.5 39.5455
3887.5 33
3888.5 41.6364
3889.5 41.5455
3890.5 55.0909
3891.5 43
3892.5 23.0909
3893.5 48.5455
3894.5 42
3895.5 32.0909
3896.5 40
3897.5 27.5455
3898.5 42.0909
3899.5 51
3900.5 49.0909
3901.5 42.5455
3902.5 48
3903.5 38.0909
3904.5 40.0909
3905.5 52.5455
3906.5 36.5455
3907.5 47.0909
3908.5 42
3909.5 35.0909
3910.5 47.5455
3911.5 52.5455
3912.5 39.5455
3913.5 43.5455
3914.5 48.5455
3915.5 45.5455
3916.5 36
3917.5 38
3918.5 45.5455
3919.5 40.5455
3920.5 44
3921.5 36.5455
3922.5 42.0909
3923.5 51
3924.5 48.5455
3925.5 56.5455
3926.5 36.5455
3927.5 43.5455
3928.5 39
3929.5 52.5455
3930.5 37
3931.5 47.0909
3932.5 38.1818
3933.5 38.1818
3934.5 52.0909
3935.5 34.0909
3936.5 43.5455
3937.5 51
3938.5 37.5455
3939.5 41
3940.5 30.6364
3941.5 39.6364
3942.5 54.5455
3943.5 49.0909
3944.5 44
3945.5 41.5455
3946.5 57.0909
3947.5 43.0909
3948.5 57
3949.5 49.0909
3950.5 46
3951.5 40.0909
3952.5 30.5455
3953.5 48
3954.5 40
3955.5 52
3956.5 49.0909
3957.5 34.5455
3958.5 61.5455
3959.5 47.0909
3960.5 37.0909
3961.5 41
3962.5 45.6364
3963.5 41.6364
3964.5 43
3965.5 52.0909
3966.5 55.0909
3967.5 40.5455
3968.5 34.0909
3969.5 39.0909
3970.5 44.0909
3971.5 37.6364
3972.5 41.3636
3973.5 36.2727
3974.5 39.7273
3975.5 34.6364
3976.5 51.0909
3977.5 43
3978.5 37.0909
3979.5 37.5455
3980.5 29
3981.5 48.0909
3982.5 35.0909
3983.5 43.0909
3984.5 37.0909
3985.5 44.5455
3986.5 37.0909
3987.5 34.5455
3988.5 36.5455
3989.5 46.0909
3990.5 26.1818
3991.5 42
3992.5 45.0909
3993.5 37.1818
3994.5 49
3995.5 35.6364
3996.5 36
3997.5 42.5455
3998.5 34.0909
3999.5 35.5455
4000.5 47
4001.5 41
4002.5 45.0909
4003.5 44.5455
4004.5 34
4005.5 43.0909
4006.5 47
4007.5 34
4008.5 35.5455
4009.5 31
4010.5 33.0909
4011.5 44
4012.5 36
4013.5 35
4014.5 33.1818
4015.5 27
4016.5 31.5455
4017.5 35.5455
4018.5 44.5455
4019.5 32.0909
4020.5 49.5455
4021.5 37
4022.5 37
4023.5 45
4024.5 40.5455
4025.5 44
4026.5 42.0909
4027.5 32
4028.5 46
4029.5 29
4030.5 27.1818
4031.5 28.5455
4032.5 29.5455
4033.5 50.5455
4034.5 35.5455
4035.5 34.0909
4036.5 40
4037.5 35
4038.5 37.6364
4039.5 23.5455
4040.5 40.0909
4041.5 24.5455
4042.5 31.0909
4043.5 34.5455
4044.5 47.5455
4045.5 40
4046.5 29.0909
4047.5 27.5455
4048.5 31.5455
4049.5 34
4050.5 36.5455
4051.5 36
4052.5 41
4053.5 46
4054.5 32
4055.5 39
4056.5 33.5455
4057.5 50
4058.5 50.5455
4059.5 31.0909
4060.5 43.5455
4061.5 41
4062.5 31.0909
4063.5 31.5455
4064.5 37.5455
4065.5 48
4066.5 39.5455
4067.5 27.0909
4068.5 40.1818
4069.5 29.5455
4070.5 38.0909
4071.5 36.6364
4072.5 48
4073.5 50.0909
4074.5 41.5455
4075.5 37
4076.5 35.0909
4077.5 46.0909
4078.5 42.5455
4079.5 32.6364
4080.5 37.5455
4081.5 40.5455
4082.5 34.5455
4083.5 39
4084.5 32
4085.5 42
4086.5 25.5455
4087.5 34
4088.5 34.5455
4089.5 31.5455
4090.5 33
4091.5 48
4092.5 39.5455
4093.5 32.5455
4094.5 32.5455
4095.5 31
4096.5 37.5455
4097.5 37.5455
4098.5 37.5455
4099.5 46
4100.5 29
4101.5 38.0909
4102.5 36.5455
4103.5 43
4104.5 43.0909
4105.5 37.1818
4106.5 42
4107.5 31.5455
4108.5 47.6364
4109.5 22.0909
4110.5 42.0909
4111.5 27.1818
4112.5 38
4113.5 35
4114.5 44.5455
4115.5 39.5455
4116.5 35.5455
4117.5 45.6364
4118.5 31.5455
4119.5 31.1818
4120.5 38.1818
4121.5 36.5455
4122.5 41.0909
4123.5 29
4124.5 36.5455
4125.5 49.0909
4126.5 31.0909
4127.5 42
4128.5 50
4129.5 48
4130.5 41.5455
4131.5 61
4132.5 73.5455
4133.5 119.545
4134.5 158.636
4135.5 306.091
4136.5 425.727
4137.5 665.727
4138.5 781.091
4139.5 949.091
4140.5 800.818
4141.5 531.727
4142.5 351.182
4143.5 188
4144.5 93
4145.5 59.6364
4146.5 67.0909
4147.5 49
4148.5 57.0909
4149.5 39.5455
4150.5 36.6364
4151.5 46
4152.5 39.6364
4153.5 34
4154.5 38
4155.5 58
4156.5 43.0909
4157.5 50.5455
4158.5 41.6364
4159.5 38.0909
4160.5 39.5455
4161.5 43.1818
4162.5 44.5455
4163.5 30
4164.5 39
4165.5 58.5455
4166.5 49.5455
4167.5 53.6364
4168.5 47.5455
4169.5 56.5455
4170.5 56
4171.5 41.5455
4172.5 44.7273
4173.5 47.0909
4174.5 31.0909
4175.5 46.0909
4176.5 40
4177.5 33.1818
4178.5 61.0909
4179.5 52.5455
4180.5 34.0909
4181.5 44
4182.5 40.5455
4183.5 44.5455
4184.5 42.6364
4185.5 45
4186.5 60.5455
4187.5 45.5455
4188.5 39
4189.5 43.5455
4190.5 42
4191.5 42.6364
4192.5 45.5455
4193.5 51.5455
4194.5 35
4195.5 34.6364
4196.5 37.0909
4197.5 40
4198.5 32.5455
4199.5 50.5455
4200.5 50
4201.5 46
4202.5 40.1818
4203.5 47.5455
4204.5 44
4205.5 56.6364
4206.5 53
4207.5 35.5455
4208.5 51.5455
4209.5 61.0909
4210.5 43.5455
4211.5 48.5455
4212.5 51
4213.5 50
4214.5 55.5455
4215.5 58.0909
4216.5 46.1818
4217.5 62
4218.5 45.7273
4219.5 42.5455
4220.5 50.1818
4221.5 49.5455
4222.5 45
4223.5 36.6364
4224.5 61
4225.5 63
4226.5 52
4227.5 46.5455
4228.5 46.5455
4229.5 47.6364
4230.5 52.5455
4231.5 50
4232.5 45
4233.5 49.5455
4234.5 39.5455
4235.5 57.5455
4236.5 43.5455
4237.5 49.1818
4238.5 47
4239.5 51
4240.5 54.5455
4241.5 52.5455
4242.5 42
4243.5 44
4244.5 36.0909
4245.5 46
4246.5 53.5455
4247.5 62
4248.5 48.0909
4249.5 41.5455
4250.5 38.6364
4251.5 44
4252.5 42
4253.5 37.5455
4254.5 62.5455
4255.5 46
4256.5 43.5455
4257.5 44
4258.5 57.5455
4259.5 35.5455
4260.5 46.6364
4261.5 54.5455
4262.5 43
4263.5 36.0909
4264.5 44
4265.5 57.5455
4266.5 58
4267.5 51.5455
4268.5 56.0909
4269.5 51.5455
4270.5 53.5455
4271.5 51
4272.5 49
4273.5 45
4274.5 48.5455
4275.5 45
4276.5 57.0909
4277.5 42.5455
4278.5 49.5455
4279.5 53.0909
4280.5 50
4281.5 60
4282.5 44.5455
4283.5 45.0909
4284.5 40.6364
4285.5 33.6364
4286.5 57.0909
4287.5 58.5455
4288.5 59.5455
4289.5 42.0909
4290.5 59
4291.5 40.5455
4292.5 37.5455
4293.5 48
4294.5 52.5455
4295.5 38.0909
4296.5 49
4297.5 49.0909
4298.5 52.0909
4299.5 53
4300.5 40.6364
4301.5 58.5455
4302.5 51.5455
4303.5 63
4304.5 62.5455
4305.5 40.1818
4306.5 55.5455
4307.5 59.5455
4308.5 65.5455
4309.5 53.5455
4310.5 55.5455
4311.5 52
4312.5 55.5455
4313.5 58.0909
4314.5 57
4315.5 52
4316.5 49
4317.5 54.0909
4318.5 54.5455
4319.5 57.6364
4320.5 58.5455
4321.5 61
4322.5 65
4323.5 60.5455
4324.5 63.0909
4325.5 52.6364
4326.5 69.5455
4327.5 55.0909
4328.5 39
4329.5 43.5455
4330.5 67
4331.5 69
4332.5 47.1818
4333.5 56.5455
4334.5 58.6364
4335.5 45.0909
4336.5 54
4337.5 53.1818
4338.5 53.5455
4339.5 50.5455
4340.5 68
4341.5 55.0909
4342.5 52.5455
4343.5 61.5455
4344.5 65
4345.5 63
4346.5 73
4347.5 51.5455
4348.5 46
4349.5 54.0909
4350.5 70.0909
4351.5 49.5455
4352.5 48.5455
4353.5 59
4354.5 52
4355.5 68
4356.5 49.5455
4357.5 52.0909
4358.5 51.5455
4359.5 73.5455
4360.5 63.5455
4361.5 71.5455
4362.5 60
4363.5 71.5455
4364.5 71
4365.5 56
4366.5 54.0909
4367.5 53.5455
4368.5 58
4369.5 71.5455
4370.5 53.0909
4371.5 74
4372.5 56
4373.5 66
4374.5 57.0909
4375.5 57.0909
4376.5 52.5455
4377.5 59
4378.5 53.5455
4379.5 49
4380.5 69.6364
4381.5 69.5455
4382.5 77
4383.5 75.5455
4384.5 52.5455
4385.5 80.5455
4386.5 70.0909
4387.5 82.6364
4388.5 72.5455
4389.5 77.5455
4390.5 67.5455
4391.5 81.6364
4392.5 88
4393.5 78
4394.5 77.5455
4395.5 88
4396.5 63.6364
4397.5 82
4398.5 75.5455
4399.5 78.5455
4400.5 68.0909
4401.5 76.5455
4402.5 65.5455
4403.5 83.0909
4404.5 67.5455
4405.5 55.5455
4406.5 77
4407.5 68.5455
4408.5 58.5455
4409.5 65.5455
4410.5 52
4411.5 58
4412.5 64.1818
4413.5 53
4414.5 68
4415.5 63
4416.5 43.5455
4417.5 49.5455
4418.5 53
4419.5 44.5455
4420.5 46.5455
4421.5 54.0909
4422.5 48.5455
4423.5 45.5455
4424.5 54
4425.5 61.6364
4426.5 55
4427.5 48.5455
4428.5 51.5455
4429.5 54.5455
4430.5 58.5455
4431.5 55.0909
4432.5 58
4433.5 52.5455
4434.5 46.1818
4435.5 55.5455
4436.5 50.7273
4437.5 54.5455
4438.5 44.0909
4439.5 46
4440.5 58
4441.5 53.6364
4442.5 57.5455
4443.5 47.5455
4444.5 44
4445.5 48.5455
4446.5 54.5455
4447.5 50.5455
4448.5 54.5455
4449.5 49
4450.5 48.5455
4451.5 50.5455
4452.5 58.5455
4453.5 37.5455
4454.5 46.5455
4455.5 42
4456.5 65.6364
4457.5 44.0909
4458.5 44
4459.5 42.6364
4460.5 41.5455
4461.5 52
4462.5 52
4463.5 50.5455
4464.5 52
4465.5 51.0909
4466.5 41.1818
4467.5 54
4468.5 52
4469.5 42.5455
4470.5 51.5455
4471.5 52.5455
4472.5 61.5455
4473.5 48
4474.5 54
4475.5 65.5455
4476.5 45.5455
4477.5 51.5455
4478.5 35.0909
4479.5 45.5455
4480.5 28
4481.5 40.1818
4482.5 43
4483.5 52.5455
4484.5 54
4485.5 44
4486.5 50.0909
4487.5 44.5455
4488.5 41
4489.5 45.5455
4490.5 49
4491.5 44.5455
4492.5 42
4493.5 35
4494.5 44
4495.5 42
4496.5 47
4497.5 48
4498.5 50
4499.5 50
4500.5 37
4501.5 38.6364
4502.5 37.5455
4503.5 40.5455
4504.5 50.0909
4505.5 29.5455
4506.5 48.5455
4507.5 31.5455
4508.5 46
4509.5 39
4510.5 34.6364
4511.5 47.5455
4512.5 48
4513.5 41.5455
4514.5 36.5455
4515.5 48.5455
4516.5 47
4517.5 34.6364
4518.5 34.0909
4519.5 35.0909
4520.5 47.5455
4521.5 37
4522.5 38.5455
4523.5 36.5455
4524.5 34
4525.5 32
4526.5 39
4527.5 45.5455
4528.5 32
4529.5 26.0909
4530.5 31
4531.5 33
4532.5 26
4533.5 40
4534.5 27
4535.5 30.0909
4536.5 28.5455
4537.5 31
4538.5 30.5455
4539.5 30
4540.5 33.5455
4541.5 25.5455
4542.5 23
4543.5 45
4544.5 30
4545.5 35
4546.5 35
4547.5 35
4548.5 25
4549.5 23
4550.5 21.5455
4551.5 30
4552.5 30
4553.5 29
4554.5 25.5455
4555.5 22.5455
4556.5 22.0909
4557.5 27
4558.5 24.5455
4559.5 18
4560.5 23
4561.5 26.5455
4562.5 25
4563.5 17.6364
4564.5 20.0909
4565.5 22
4566.5 17
4567.5 32
4568.5 21
4569.5 10
4570.5 30
4571.5 13.6364
4572.5 23.5455
4573.5 19.5455
4574.5 24
4575.5 20.5455
4576.5 20.0909
4577.5 25
4578.5 19
4579.5 23.5455
4580.5 19.5455
4581.5 15
4582.5 21
4583.5 22.5455
4584.5 24
4585.5 12.5455
4586.5 22
4587.5 22.0909
4588.5 22
4589.5 18
4590.5 22
4591.5 20
4592.5 26
4593.5 14.5455
4594.5 16
4595.5 12
4596.5 12.5455
4597.5 21.5455
4598.5 21
4599.5 20.5455
4600.5 13.5455
4601.5 13.5455
4602.5 11.0909
4603.5 12
4604.5 17
4605.5 17
4606.5 24.5455
4607.5 17
4608.5 18
4609.5 21
4610.5 18.5455
4611.5 20
4612.5 14
4613.5 14
4614.5 13.5455
4615.5 12.0909
4616.5 18.5455
4617.5 18
4618.5 18.5455
4619.5 23.5455
4620.5 9.63636
4621.5 21
4622.5 14.5455
4623.5 25.0909
4624.5 18.5455
4625.5 14.0909
4626.5 19.1818
4627.5 14.0909
4628.5 13.6364
4629.5 21.0909
4630.5 16
4631.5 9
4632.5 18.0909
4633.5 11.0909
4634.5 13.0909
4635.5 22.5455
4636.5 21
4637.5 20.5455
4638.5 20
4639.5 28
4640.5 38
4641.5 35
4642.5 53
4643.5 106
4644.5 201.636
4645.5 426.182
4646.5 807.273
4647.5 1427
4648.5 2278.45
4649.5 3129
4650.5 3552.27
4651.5 3089
4652.5 1999.18
4653.5 951.727
4654.5 356.364
4655.5 167.636
4656.5 70
4657.5 43
4658.5 27.5455
4659.5 27.5455
4660.5 12
4661.5 15.5455
4662.5 9
4663.5 8
4664.5 3.54545
4665.5 0.545455
4666.5 1
4667.5 5
4668.5 1
4669.5 0
4670.5 0
4671.5 3
4672.5 -0.454545
4673.5 2
4674.5 1
4675.5 -0.909091
4676.5 2
4677.5 4
4678.5 2
4679.5 3
4680.5 1
4681.5 3.54545
4682.5 -0.909091
4683.5 1
4684.5 0.545455
4685.5 -0.454545
4686.5 1
4687.5 3
4688.5 1
4689.5 -1.45455
4690.5 1.54545
4691.5 2
4692.5 4
4693.5 1
4694.5 3
4695.5 0.090909
4696.5 1
4697.5 0
4698.5 3
4699.5 2.54545
4700.5 -2.90909
4701.5 3
4702.5 3
4703.5 2.54545
4704.5 0.545455
4705.5 1
4706.5 -0.454545
4707.5 0.545455
4708.5 0
4709.5 1
4710.5 1.54545
4711.5 -0.454545
4712.5 2
4713.5 0
4714.5 3
4715.5 1
4716.5 4
4717.5 2
4718.5 4
4719.5 3.54545
4720.5 3
4721.5 3
4722.5 0
4723.5 -1.45455
4724.5 2
4725.5 2
4726.5 0.545455
4727.5 1
4728.5 0.090909
4729.5 1
4730.5 2
4731.5 -1.45455
4732.5 -0.454545
4733.5 5
4734.5 -0.454545
4735.5 -2.90909
4736.5 1
4737.5 2
4738.5 -1.45455
4739.5 1
4740.5 3
4741.5 2.09091
4742.5 3
4743.5 1
4744.5 -0.909091
4745.5 3
4746.5 -0.454545
4747.5 1
4748.5 3
4749.5 5
4750.5 2
4751.5 -0.454545
4752.5 2
4753.5 -0.454545
4754.5 0.545455
4755.5 -1.36364
4756.5 3
4757.5 2.54545
4758.5 -1.45455
4759.5 -0.909091
4760.5 5
4761.5 0.545455
4762.5 1.54545
4763.5 2
4764.5 1
4765.5 1
4766.5 1.54545
4767.5 2
4768.5 -1.90909
4769.5 -1.45455
4770.5 4
4771.5 3
4772.5 -0.454545
4773.5 -0.454545
4774.5 2
4775.5 0.545455
4776.5 -2.90909
4777.5 1
4778.5 4
4779.5 1
4780.5 -0.454545
4781.5 2
4782.5 1.54545
4783.5 1
4784.5 0.545455
4785.5 3
4786.5 0.545455
4787.5 0.545455
4788.5 -0.909091
4789.5 1
4790.5 -0.454545
4791.5 3
4792.5 1
4793.5 1
4794.5 0.545455
4795.5 1
4796.5 0.090909
4797.5 -0.454545
4798.5 1
4799.5 0
4800.5 3
4801.5 -0.909091
4802.5 2
4803.5 3
4804.5 1
4805.5 0.545455
4806.5 -0.454545
4807.5 3
4808.5 -2.36364
4809.5 2
4810.5 4
4811.5 2
4812.5 1.54545
4813.5 2
4814.5 1
4815.5 3.54545
4816.5 -1.36364
4817.5 1
4818.5 1
4819.5 1.54545
4820.5 -2.36364
4821.5 0
4822.5 1.54545
4823.5 0
4824.5 1
4825.5 2.63636
4826.5 -4.36364
4827.5 0
4828.5 -0.454545
4829.5 1
4830.5 1
4831.5 1
4832.5 1
4833.5 1
4834.5 2.54545
4835.5 1.54545
4836.5 1.54545
4837.5 -0.454545
4838.5 3
4839.5 -0.454545
4840.5 3
4841.5 1
4842.5 0.545455
4843.5 -3.36364
4844.5 3
4845.5 3
4846.5 -0.909091
4847.5 -2.90909
4848.5 0
4849.5 1
4850.5 1.54545
4851.5 -0.454545
4852.5 1
4853.5 -0.454545
4854.5 -1.45455
4855.5 1
4856.5 2
4857.5 3
4858.5 2.54545
4859.5 0
4860.5 3
4861.5 4
4862.5 4
4863.5 0
4864.5 -0.454545
4865.5 0
4866.5 2
4867.5 2
4868.5 0
4869.5 4
4870.5 3
4871.5 5
4872.5 2
4873.5 2
4874.5 1.09091
4875.5 5
4876.5 3
4877.5 6
4878.5 1.54545
4879.5 2.54545
4880.5 2
4881.5 1
4882.5 2
4883.5 4
4884.5 1
4885.5 4
4886.5 1.09091
4887.5 2
4888.5 4
4889.5 0.090909
4890.5 4.54545
4891.5 3
4892.5 2
4893.5 2
4894.5 -0.454545
4895.5 2
4896.5 1
4897.5 3.54545
4898.5 1.54545
4899.5 -1.45455
4900.5 0.545455
4901.5 3
4902.5 1
4903.5 2
4904.5 3
4905.5 3
4906.5 -1.45455
4907.5 -1.45455
4908.5 3
4909.5 2
4910.5 2
4911.5 1
4912.5 0
4913.5 0
4914.5 1
4915.5 2
4916.5 1
4917.5 1
4918.5 5
4919.5 0
4920.5 2
4921.5 -1.45455
4922.5 1.09091
4923.5 1
4924.5 2.54545
4925.5 3
4926.5 4
4927.5 1
4928.5 2
4929.5 2
4930.5 -0.454545
4931.5 -4.81818
4932.5 1
4933.5 1
4934.5 2
4935.5 3
4936.5 2
4937.5 4
4938.5 3
4939.5 3
4940.5 -4.36364
4941.5 3
4942.5 4
4943.5 4
4944.5 2.54545
4945.5 3.54545
4946.5 4.54545
4947.5 2.54545
4948.5 2
4949.5 2
4950.5 1.54545
4951.5 2.54545
4952.5 -0.454545
4953.5 2
4954.5 2
4955.5 0.545455
4956.5 0.545455
4957.5 1.54545
4958.5 3
4959.5 1
4960.5 4
4961.5 2.54545
4962.5 3
4963.5 3
4964.5 0.545455
4965.5 0.545455
4966.5 4
4967.5 2
4968.5 2
4969.5 2
4970.5 -0.909091
4971.5 3
4972.5 -4.36364
4973.5 5
4974.5 2.54545
4975.5 1
4976.5 5
4977.5 1
4978.5 1.54545
4979.5 1
4980.5 4
4981.5 2
4982.5 1
4983.5 -0.909091
4984.5 1.09091
4985.5 1.54545
4986.5 0
4987.5 2
4988.5 4
4989.5 2
4990.5 2
4991.5 2.54545
4992.5 2
4993.5 -0.909091
4994.5 0
4995.5 -0.454545
4996.5 5
4997.5 1
4998.5 2
4999.5 2
5000.5 6
5001.5 0.090909
5002.5 3
5003.5 4
5004.5 1.54545
5005.5 1
5006.5 -1.36364
5007.5 1.54545
5008.5 0.545455
5009.5 3
5010.5 -1.90909
5011.5 0.545455
5012.5 0
5013.5 1
5014.5 2
5015.5 4
5016.5 -1.45455
5017.5 1
5018.5 1.54545
5019.5 -0.454545
5020.5 1
5021.5 -1.90909
5022.5 -0.454545
5023.5 4.54545
5024.5 3
5025.5 3
5026.5 3
5027.5 0
5028.5 1.54545
5029.5 -0.909091
5030.5 0.545455
5031.5 -1.45455
5032.5 0.545455
5033.5 -0.454545
5034.5 2
5035.5 0.545455
5036.5 6
5037.5 0.545455
5038.5 2
5039.5 5
5040.5 1
5041.5 0.545455
5042.5 5
5043.5 3
5044.5 1.54545
5045.5 2
5046.5 2.54545
5047.5 2
5048.5 1
5049.5 1
5050.5 2
5051.5 1
5052.5 0
5053.5 1
5054.5 0
5055.5 0.545455
5056.5 0.545455
5057.5 1
5058.5 0
5059.5 3
5060.5 2.54545
5061.5 4
5062.5 1
5063.5 -3.36364
5064.5 0.545455
5065.5 3
5066.5 3
5067.5 -1.45455
5068.5 6
5069.5 2
5070.5 0
5071.5 5
5072.5 1
5073.5 -0.454545
5074.5 1
5075.5 3
5076.5 -0.454545
5077.5 2
5078.5 0
5079.5 3.54545
5080.5 2
5081.5 -0.909091
5082.5 3
5083.5 2
5084.5 1.54545
5085.5 3
5086.5 1.54545
5087.5 2
5088.5 2
5089.5 3
5090.5 2.54545
5091.5 1
5092.5 4
5093.5 2
5094.5 -0.454545
5095.5 2
5096.5 3
5097.5 3
5098.5 2
5099.5 4
5100.5 4
5101.5 -1.90909
5102.5 -0.363636
5103.5 6
5104.5 4
5105.5 -1.90909
5106.5 -1.45455
5107.5 0
5108.5 0
5109.5 0.090909
5110.5 1
5111.5 2.54545
5112.5 2
5113.5 0
5114.5 1.54545
5115.5 2
5116.5 3
5117.5 1.54545
5118.5 -0.454545
5119.5 2
5120.5 2
5121.5 1
5122.5 2
5123.5 0
5124.5 -0.454545
5125.5 4
5126.5 1
5127.5 2
5128.5 0.545455
5129.5 2
5130.5 2
5131.5 1
5132.5 -0.909091
5133.5 -0.454545
5134.5 3
5135.5 -0.454545
5136.5 2.54545
5137.5 2
5138.5 1
5139.5 3
5140.5 1
5141.5 2
5142.5 0.545455
5143.5 2
5144.5 2
5145.5 -0.454545
5146.5 0.545455
5147.5 -1.45455
5148.5 4
5149.5 2.54545
5150.5 -0.454545
5151.5 4
5152.5 -2.90909
5153.5 2
5154.5 2
5155.5 1.54545
5156.5 -2.90909
5157.5 1.54545
5158.5 1.54545
5159.5 4
5160.5 3.54545
5161.5 -1.90909
5162.5 -0.454545
5163.5 2
5164.5 -0.454545
5165.5 3
5166.5 0.545455
5167.5 2
5168.5 2
5169.5 -1.45455
5170.5 1.54545
5171.5 1
5172.5 0
5173.5 4
5174.5 -1.45455
5175.5 1.54545
5176.5 -1.45455
5177.5 5
5178.5 -2.90909
5179.5 1
5180.5 3
5181.5 1
5182.5 1.54545
5183.5 -2.90909
5184.5 -0.454545
5185.5 2
5186.5 -0.454545
5187.5 -0.909091
5188.5 1
5189.5 3
5190.5 4.54545
5191.5 1
5192.5 3
5193.5 2
5194.5 4
5195.5 3.54545
5196.5 -0.909091
5197.5 1
5198.5 -1.45455
5199.5 2
5200.5 -0.454545
5201.5 2
5202.5 0
5203.5 1.54545
5204.5 3
5205.5 4
5206.5 0.090909
5207.5 4
5208.5 4
5209.5 2
5210.5 4
5211.5 -2.90909
5212.5 1
5213.5 0
5214.5 3
5215.5 -0.454545
5216.5 2
5217.5 1
5218.5 4
5219.5 -0.454545
5220.5 2
5221.5 1
5222.5 -1.45455
5223.5 5
5224.5 4
5225.5 -1.45455
5226.5 2.54545
5227.5 1
5228.5 2
5229.5 2
5230.5 2
5231.5 -1.45455
5232.5 1
5233.5 1.54545
5234.5 -0.909091
5235.5 1
5236.5 3
5237.5 -0.454545
5238.5 0.545455
5239.5 -0.909091
5240.5 3
5241.5 0
5242.5 2
5243.5 5
5244.5 5
5245.5 0.545455
5246.5 -1.45455
5247.5 1
5248.5 -2.36364
5249.5 1.54545
5250.5 0.545455
5251.5 3
5252.5 0
5253.5 0
5254.5 1
5255.5 3
5256.5 0.545455
5257.5 2
5258.5 0.545455
5259.5 0.545455
5260.5 0.545455
5261.5 -0.454545
5262.5 0
5263.5 3
5264.5 0.545455
5265.5 -1.90909
5266.5 2
5267.5 0.545455
5268.5 2
5269.5 0.545455
5270.5 1
5271.5 1
5272.5 1
5273.5 -0.454545
5274.5 0.545455
5275.5 0
5276.5 2
5277.5 1.54545
5278.5 2
5279.5 4
5280.5 1
5281.5 -0.454545
5282.5 2.54545
5283.5 -0.909091
5284.5 6
5285.5 2
5286.5 -1.90909
5287.5 2
5288.5 2
5289.5 -0.454545
5290.5 -1.90909
5291.5 0
5292.5 1.54545
5293.5 0
5294.5 0
5295.5 3
5296.5 1.54545
5297.5 -1.45455
5298.5 0
5299.5 -1.45455
5300.5 2
5301.5 3
5302.5 1.54545
5303.5 6
5304.5 1
5305.5 0.545455
5306.5 6
5307.5 -0.454545
5308.5 0.545455
5309.5 0
5310.5 -0.454545
5311.5 4
5312.5 1
5313.5 -0.454545
5314.5 1
5315.5 0.545455
5316.5 -0.454545
5317.5 3
5318.5 0.545455
5319.5 2
5320.5 -0.454545
5321.5 1
5322.5 -1.45455
5323.5 2
5324.5 3
5325.5 1
5326.5 -1.45455
5327.5 0.545455
5328.5 -2.81818
5329.5 1
5330.5 -0.454545
5331.5 1.54545
5332.5 -0.454545
5333.5 0.545455
5334.5 3
5335.5 0
5336.5 3.54545
5337.5 1.54545
5338.5 -0.454545
5339.5 -0.454545
5340.5 3
5341.5 0
5342.5 3
5343.5 1
5344.5 2
5345.5 1
5346.5 1
5347.5 0.545455
5348.5 0.545455
5349.5 3
5350.5 0.090909
5351.5 0.545455
5352.5 1.09091
5353.5 1.54545
5354.5 3.09091
5355.5 1.54545
5356.5 1.54545
5357.5 7
5358.5 -0.454545
5359.5 2
5360.5 1
5361.5 -2.90909
5362.5 -1.45455
5363.5 2
5364.5 4
5365.5 -1.45455
5366.5 0
5367.5 1
5368.5 1
5369.5 1
5370.5 1
5371.5 0
5372.5 2
5373.5 2
5374.5 0.545455
5375.5 1
5376.5 5
5377.5 1
5378.5 2
5379.5 0
5380.5 2.54545
5381.5 4
5382.5 1
5383.5 -0.909091
5384.5 1.54545
5385.5 -0.909091
5386.5 3
5387.5 2
5388.5 0.545455
5389.5 3.54545
5390.5 5.54545
5391.5 3
5392.5 -2.36364
5393.5 3
5394.5 3.54545
5395.5 1.09091
5396.5 4.54545
5397.5 2.54545
5398.5 3.63636
5399.5 4.54545
5400.5 -0.909091
5401.5 3
5402.5 1
5403.5 0.545455
5404.5 -1.45455
5405.5 -2.90909
5406.5 1
5407.5 2
5408.5 0.545455
5409.5 0.545455
5410.5 4
5411.5 2
5412.5 0
5413.5 4
5414.5 -0.454545
5415.5 1
5416.5 1.09091
5417.5 2
5418.5 1
5419.5 1
5420.5 4
5421.5 1
5422.5 1
5423.5 -1.90909
5424.5 -1.45455
5425.5 2
5426.5 5
5427.5 2
5428.5 0
5429.5 -0.454545
5430.5 1
5431.5 -0.454545
5432.5 -1.45455
5433.5 1.54545
5434.5 0
5435.5 2
5436.5 0.545455
5437.5 1
5438.5 0
5439.5 1
5440.5 2
5441.5 0
5442.5 -1.45455
5443.5 4
5444.5 1.54545
5445.5 -0.454545
5446.5 0
5447.5 1
5448.5 1
5449.5 2
5450.5 -1.45455
5451.5 2
5452.5 -3.36364
5453.5 -0.454545
5454.5 1
5455.5 1
5456.5 -1.45455
5457.5 1.54545
5458.5 0.545455
5459.5 3
5460.5 3
5461.5 2
5462.5 2
5463.5 -0.454545
5464.5 2
5465.5 1
5466.5 6
5467.5 0
5468.5 3
5469.5 -1.45455
5470.5 -1.45455
5471.5 -3.36364
5472.5 1
5473.5 4
5474.5 -1.45455
5475.5 3
5476.5 1
5477.5 1
5478.5 0
5479.5 1
5480.5 1.09091
5481.5 -1.45455
5482.5 0
5483.5 -1.45455
5484.5 -0.454545
5485.5 -2.36364
5486.5 0.545455
5487.5 -0.454545
5488.5 4
5489.5 3.09091
5490.5 0.545455
5491.5 3
5492.5 2
5493.5 1
5494.5 -2.90909
5495.5 1
5496.5 0
5497.5 -0.454545
5498.5 4
5499.5 0.545455
5500.5 -1.45455
5501.5 1
5502.5 0
5503.5 -0.454545
5504.5 2
5505.5 -0.909091
5506.5 3
5507.5 -0.454545
5508.5 -0.454545
5509.5 2.54545
5510.5 2
5511.5 3
5512.5 1.54545
5513.5 -3.36364
5514.5 2
5515.5 3
5516.5 -2.90909
5517.5 1.54545
5518.5 2
5519.5 4
5520.5 -1.90909
5521.5 0.545455
5522.5 2
5523.5 2
5524.5 3
5525.5 0
5526.5 -0.909091
5527.5 -1.45455
5528.5 1
5529.5 2
5530.5 0
5531.5 2
5532.5 2
5533.5 -1.90909
5534.5 0.545455
5535.5 0
5536.5 0
5537.5 3.54545
5538.5 0.545455
5539.5 1.54545
5540.5 0.545455
5541.5 -1.45455
5542.5 1.54545
5543.5 4
5544.5 2
5545.5 -0.454545
5546.5 5
5547.5 2
5548.5 2
5549.5 -1.36364
5550.5 1
5551.5 -1.45455
5552.5 1.54545
5553.5 2
5554.5 1
5555.5 -0.454545
5556.5 -0.454545
5557.5 1
5558.5 0
5559.5 2
5560.5 0
5561.5 0
5562.5 0
5563.5 3
5564.5 -1.45455
5565.5 5
5566.5 -1.45455
5567.5 1
5568.5 -0.454545
5569.5 3
5570.5 0.545455
5571.5 0
5572.5 -0.454545
5573.5 1
5574.5 -0.909091
5575.5 0
5576.5 0
5577.5 1
5578.5 -1.45455
5579.5 4
5580.5 0.545455
5581.5 -0.454545
5582.5 0.545455
5583.5 3
5584.5 4
5585.5 4
5586.5 2
5587.5 0
5588.5 0
5589.5 3
5590.5 1.54545
5591.5 2
5592.5 -1.90909
5593.5 2
5594.5 -2.90909
5595.5 -0.454545
5596.5 -2.90909
5597.5 0
5598.5 1
5599.5 -2.90909
5600.5 -0.909091
5601.5 -0.454545
5602.5 0.545455
5603.5 1
5604.5 1
5605.5 3
5606.5 2.54545
5607.5 -1.45455
5608.5 1.54545
5609.5 -1.45455
5610.5 -1.45455
5611.5 2
5612.5 1.54545
5613.5 2.54545
5614.5 5
5615.5 0
5616.5 0.545455
5617.5 -0.454545
5618.5 4
5619.5 2
5620.5 1
5621.5 -1.45455
5622.5 1
5623.5 1
5624.5 1.54545
5625.5 2.54545
5626.5 2
5627.5 2
5628.5 3
5629.5 0
5630.5 -1.45455
5631.5 1
5632.5 1
5633.5 3
5634.5 2
5635.5 -4.36364
5636.5 -2.90909
5637.5 0
5638.5 -0.454545
5639.5 -2.36364
5640.5 0
5641.5 0
5642.5 3
5643.5 1
5644.5 1
5645.5 1
5646.5 -0.454545
5647.5 -1.90909
5648.5 -1.45455
5649.5 3
5650.5 0
5651.5 1
5652.5 3
5653.5 1
5654.5 2
5655.5 0.545455
5656.5 -2.90909
5657.5 0
5658.5 0
5659.5 1
5660.5 -1.45455
5661.5 0
5662.5 0
5663.5 1
5664.5 -1.45455
5665.5 -0.909091
5666.5 2
5667.5 4
5668.5 2
5669.5 0
5670.5 3
5671.5 4
5672.5 0.545455
5673.5 1.54545
5674.5 4
5675.5 2.09091
5676.5 -1.45455
5677.5 1
5678.5 0.545455
5679.5 1
5680.5 0
5681.5 4
5682.5 2
5683.5 1.54545
5684.5 -0.454545
5685.5 0
5686.5 3
5687.5 2
5688.5 2
5689.5 0.090909
5690.5 3
5691.5 2
5692.5 1
5693.5 4
5694.5 -0.454545
5695.5 0.545455
5696.5 1
5697.5 2
5698.5 1
5699.5 2
5700.5 -0.454545
5701.5 -1.45455
5702.5 2
5703.5 0
5704.5 -0.454545
5705.5 0.090909
5706.5 2
5707.5 -0.454545
5708.5 1
5709.5 2
5710.5 -0.454545
5711.5 1
5712.5 2
5713.5 2
5714.5 -0.454545
5715.5 1
5716.5 2
5717.5 -0.909091
5718.5 2
5719.5 1
5720.5 1.54545
5721.5 0
5722.5 4
5723.5 0
5724.5 1
5725.5 0
5726.5 0.545455
5727.5 -1.45455
5728.5 -3.36364
5729.5 0.545455
5730.5 -0.454545
5731.5 2
5732.5 5
5733.5 2
5734.5 1
5735.5 0
5736.5 1
5737.5 3
5738.5 2
5739.5 1
5740.5 -0.909091
5741.5 2
5742.5 1
5743.5 0.545455
5744.5 0
5745.5 -0.454545
5746.5 2
5747.5 1
5748.5 2
5749.5 0
5750.5 2
5751.5 1.09091
5752.5 -0.454545
5753.5 2.54545
5754.5 2
5755.5 1.54545
5756.5 0.545455
5757.5 0.545455
5758.5 -0.454545
5759.5 3
5760.5 0
5761.5 2
5762.5 3
5763.5 -1.45455
5764.5 0
5765.5 2
5766.5 1
5767.5 2
5768.5 1.54545
5769.5 2
5770.5 2
5771.5 1
5772.5 5
5773.5 0
5774.5 2
5775.5 -1.45455
5776.5 2
5777.5 -0.454545
5778.5 1
5779.5 -1.45455
5780.5 -0.454545
5781.5 0.545455
5782.5 -1.90909
5783.5 0
5784.5 0
5785.5 3
5786.5 3.54545
5787.5 1
5788.5 0.545455
5789.5 3
5790.5 2
5791.5 0
5792.5 -0.454545
5793.5 0.545455
5794.5 3
5795.5 0
5796.5 0.545455
5797.5 1
5798.5 2
5799.5 -1.45455
5800.5 1
5801.5 0
5802.5 0
5803.5 1.54545
5804.5 -1.45455
5805.5 1
5806.5 3
5807.5 2
5808.5 1.54545
5809.5 0
5810.5 2
5811.5 0
5812.5 3
5813.5 2
5814.5 0.545455
5815.5 1.54545
5816.5 0.090909
5817.5 0
5818.5 3
5819.5 1
5820.5 1
5821.5 1
5822.5 4
5823.5 -0.454545
5824.5 1
5825.5 -0.454545
5826.5 1
5827.5 1.54545
5828.5 0
5829.5 -3.36364
5830.5 2
5831.5 1
5832.5 1
5833.5 2
5834.5 4
5835.5 -3.36364
5836.5 0.545455
5837.5 3
5838.5 0
5839.5 1.54545
5840.5 0.545455
5841.5 2
5842.5 0.636364
5843.5 3
5844.5 2
5845.5 0.545455
5846.5 2
5847.5 1.54545
5848.5 1
5849.5 0
5850.5 1
5851.5 0
5852.5 2
5853.5 2
5854.5 0
5855.5 0
5856.5 -1.45455
5857.5 1
5858.5 0.545455
5859.5 0
5860.5 2
5861.5 1
5862.5 2
5863.5 1
5864.5 1
5865.5 1
5866.5 0
5867.5 0
5868.5 1
5869.5 1
5870.5 0
5871.5 2
5872.5 0
5873.5 3
5874.5 0.545455
5875.5 0
5876.5 0
5877.5 0.545455
5878.5 3
5879.5 2.54545
5880.5 2
5881.5 0
5882.5 2
5883.5 3
5884.5 2
5885.5 0
5886.5 0
5887.5 1
5888.5 0
5889.5 2
5890.5 0
5891.5 0
5892.5 1.54545
5893.5 -2.36364
5894.5 0.545455
5895.5 0
5896.5 -0.363636
5897.5 -0.909091
5898.5 2
5899.5 2.09091
5900.5 -0.727273
5901.5 8.54545
5902.5 7
5903.5 0.545455
5904.5 -0.909091
5905.5 -0.363636
5906.5 1
5907.5 1
5908.5 -1.90909
5909.5 0
5910.5 3
5911.5 -2.90909
5912.5 1.54545
5913.5 0
5914.5 0.545455
5915.5 4
5916.5 1
5917.5 1
5918.5 1
5919.5 -0.454545
5920.5 0
5921.5 1
5922.5 0
5923.5 0
5924.5 2
5925.5 1
5926.5 0
5927.5 0
5928.5 2
5929.5 0
5930.5 0
5931.5 2
5932.5 -0.454545
5933.5 0
5934.5 -1.45455
5935.5 2
5936.5 1
5937.5 0
5938.5 -1.45455
5939.5 -0.454545
5940.5 0.545455
5941.5 -0.454545
5942.5 0
5943.5 1
5944.5 0
5945.5 -0.454545
5946.5 0
5947.5 1
5948.5 0
5949.5 0.545455
5950.5 0
5951.5 0
5952.5 0
5953.5 0.545455
5954.5 1
5955.5 1
5956.5 0
5957.5 1
5958.5 1
5959.5 3
5960.5 -0.454545
5961.5 0
5962.5 0
5963.5 1
5964.5 3
5965.5 2
5966.5 2
5967.5 2
5968.5 1
5969.5 6
5970.5 1
5971.5 3
5972.5 0
5973.5 -1.45455
5974.5 3
5975.5 2
5976.5 0
5977.5 0
5978.5 0
5979.5 -1.45455
5980.5 -0.454545
5981.5 -1.45455
5982.5 3
5983.5 2
5984.5 -1.45455
5985.5 0
5986.5 0
5987.5 0
5988.5 0
5989.5 3
5990.5 0
5991.5 1
5992.5 0
5993.5 0.545455
5994.5 1
5995.5 2
5996.5 -1.90909
5997.5 3
5998.5 1.54545
5999.5 5
6000.5 6.09091
6001.5 5
6002.5 7
6003.5 1.54545
6004.5 4
6005.5 -0.454545
6006.5 -0.454545
6007.5 -0.454545
6008.5 -0.454545
6009.5 1
6010.5 -0.454545
6011.5 0
6012.5 0
6013.5 -1.45455
6014.5 0.545455
6015.5 2
6016.5 3
6017.5 1.54545
6018.5 0
6019.5 1
6020.5 2
6021.5 1
6022.5 0.545455
6023.5 0
6024.5 1
6025.5 2
6026.5 0
6027.5 1
6028.5 -0.454545
6029.5 -0.909091
6030.5 4
6031.5 1
6032.5 -0.454545
6033.5 2.54545
6034.5 2
6035.5 4
6036.5 6
6037.5 1
6038.5 0
6039.5 -1.45455
6040.5 -0.454545
6041.5 1
6042.5 2
6043.5 -1.45455
6044.5 1
6045.5 0
6046.5 0
6047.5 0
6048.5 0
6049.5 0
6050.5 -1.90909
6051.5 3
6052.5 -0.454545
6053.5 1
6054.5 1
6055.5 0.545455
6056.5 0
6057.5 1
6058.5 -1.45455
6059.5 0
6060.5 0
6061.5 -1.45455
6062.5 -0.454545
6063.5 2
6064.5 1
6065.5 0
6066.5 2
6067.5 -1.45455
6068.5 -1.90909
6069.5 1
6070.5 1
6071.5 0
6072.5 -1.45455
6073.5 0
6074.5 0
6075.5 -0.454545
6076.5 2
6077.5 1
6078.5 0
6079.5 -1.45455
6080.5 3
6081.5 1
6082.5 1
6083.5 1
6084.5 0
6085.5 -0.454545
6086.5 0
6087.5 -0.454545
6088.5 0
6089.5 0
6090.5 2
6091.5 1
6092.5 2
6093.5 0
6094.5 1
6095.5 -1.45455
6096.5 0
6097.5 0
6098.5 0
6099.5 0.545455
6100.5 -0.454545
6101.5 1
6102.5 3
6103.5 -0.454545
6104.5 3
6105.5 0
6106.5 1
6107.5 2
6108.5 0
6109.5 3
6110.5 0.545455
6111.5 -1.90909
6112.5 4
6113.5 2
6114.5 0.545455
6115.5 0
6116.5 -1.45455
6117.5 2
6118.5 -0.454545
6119.5 -1.45455
6120.5 2
6121.5 1
6122.5 2
6123.5 4
6124.5 1.54545
6125.5 0.090909
6126.5 1
6127.5 2
6128.5 1
6129.5 2
6130.5 -0.454545
6131.5 1
6132.5 2
6133.5 0
6134.5 0
6135.5 1
6136.5 1
6137.5 0
6138.5 2
6139.5 0
6140.5 2
6141.5 1
6142.5 1
6143.5 1
6144.5 2
6145.5 1
6146.5 -0.454545
6147.5 2
6148.5 0
6149.5 0
6150.5 -0.454545
6151.5 -0.454545
6152.5 -1.45455
6153.5 1
6154.5 -0.454545
6155.5 1
6156.5 0
6157.5 0
6158.5 0
6159.5 0
6160.5 1
6161.5 1
6162.5 0
6163.5 0
6164.5 1
6165.5 0
6166.5 1
6167.5 1
6168.5 -1.45455
6169.5 -1.45455
6170.5 0
6171.5 1
6172.5 2
6173.5 1
6174.5 -1.45455
6175.5 0
6176.5 0
6177.5 2
6178.5 2
6179.5 0
6180.5 2
6181.5 -1.45455
6182.5 1
6183.5 1
6184.5 1
6185.5 2
6186.5 1
6187.5 -1.45455
6188.5 0
6189.5 0
6190.5 3
6191.5 0
6192.5 0
6193.5 0
6194.5 1
6195.5 -1.45455
6196.5 1
6197.5 2
6198.5 2
6199.5 0.545455
6200.5 -0.454545
6201.5 0
6202.5 0
6203.5 1
6204.5 1
6205.5 1
6206.5 -1.45455
6207.5 -1.45455
6208.5 0
6209.5 1
6210.5 1
6211.5 -0.454545
6212.5 0
6213.5 0
6214.5 1
6215.5 0
6216.5 1
6217.5 4
6218.5 1
6219.5 1
6220.5 3
6221.5 1
6222.5 1
6223.5 2
6224.5 2
6225.5 0.545455
6226.5 2
6227.5 2
6228.5 1
6229.5 2
6230.5 0
6231.5 0
6232.5 -0.454545
6233.5 1
6234.5 0
6235.5 1
6236.5 2
6237.5 2
6238.5 2
6239.5 -0.454545
6240.5 0
6241.5 1
6242.5 1
6243.5 0
6244.5 0
6245.5 0
6246.5 1
6247.5 2
6248.5 0
6249.5 0.545455
6250.5 1
6251.5 2
6252.5 1
6253.5 0
6254.5 0
6255.5 -0.454545
6256.5 0
6257.5 -0.454545
6258.5 0
6259.5 -2.90909
6260.5 2
6261.5 -2.90909
6262.5 1
6263.5 1
6264.5 -2.90909
6265.5 0
6266.5 -1.45455
6267.5 1
6268.5 0
6269.5 -1.45455
6270.5 0
6271.5 2
6272.5 1
6273.5 0
6274.5 0
6275.5 1
6276.5 0.545455
6277.5 0
6278.5 0.545455
6279.5 0
6280.5 0.545455
6281.5 0
6282.5 0
6283.5 0
6284.5 1
6285.5 0
6286.5 0
6287.5 2
6288.5 2
6289.5 0
6290.5 1
6291.5 2
6292.5 0
6293.5 0
6294.5 1
6295.5 2
6296.5 2
6297.5 0
6298.5 2
6299.5 0.545455
6300.5 1
6301.5 -0.454545
6302.5 0
6303.5 1
6304.5 -2.90909
6305.5 0.545455
6306.5 0
6307.5 2
6308.5 1
6309.5 0
6310.5 0
6311.5 0
6312.5 2
6313.5 1
6314.5 0
6315.5 1
6316.5 0
6317.5 0
6318.5 0
6319.5 1
6320.5 0
6321.5 0
6322.5 -0.454545
6323.5 1
6324.5 1
6325.5 2
6326.5 1
6327.5 1.54545
6328.5 2
6329.5 2
6330.5 -1.45455
6331.5 0
6332.5 0
6333.5 -2.90909
6334.5 0
6335.5 1
6336.5 0
6337.5 1
6338.5 0
6339.5 -1.45455
6340.5 0
6341.5 0
6342.5 -1.45455
6343.5 -1.45455
6344.5 0
6345.5 0
6346.5 0
6347.5 1
6348.5 1
6349.5 1
6350.5 0
6351.5 1
6352.5 0
6353.5 0
6354.5 3
6355.5 0
6356.5 -1.45455
6357.5 0
6358.5 0
6359.5 0
6360.5 0
6361.5 0
6362.5 -0.454545
6363.5 1
6364.5 1
6365.5 -0.454545
6366.5 0
6367.5 1
6368.5 1
6369.5 2
6370.5 -1.45455
6371.5 0
6372.5 0
6373.5 0
6374.5 0
6375.5 1
6376.5 0
6377.5 2
6378.5 -0.909091
6379.5 0.545455
6380.5 0
6381.5 0
6382.5 1
6383.5 0
6384.5 -1.45455
6385.5 0
6386.5 0
6387.5 0
6388.5 1
6389.5 0
6390.5 0
6391.5 -0.454545
6392.5 0
6393.5 1
6394.5 0
6395.5 2
6396.5 1
6397.5 2
6398.5 1
6399.5 0
6400.5 -1.45455
6401.5 0
6402.5 0
6403.5 1
6404.5 0
6405.5 0
6406.5 1
6407.5 2
6408.5 1
6409.5 1
6410.5 0
6411.5 0
6412.5 0
6413.5 1
6414.5 2
6415.5 2
6416.5 -1.45455
6417.5 2
6418.5 0
6419.5 -2.90909
6420.5 -1.36364
6421.5 2
6422.5 -0.454545
6423.5 3
6424.5 0
6425.5 1
6426.5 -1.45455
6427.5 0
6428.5 1
6429.5 0
6430.5 0.545455
6431.5 2
6432.5 -1.45455
6433.5 -0.454545
6434.5 2
6435.5 -2.90909
6436.5 0
6437.5 0
6438.5 1
6439.5 -1.90909
6440.5 1
6441.5 0
6442.5 3
6443.5 0
6444.5 0
6445.5 0
6446.5 -1.45455
6447.5 0
6448.5 0
6449.5 0
6450.5 0
6451.5 3
6452.5 2
6453.5 0
6454.5 0
6455.5 1
6456.5 -2.90909
6457.5 0.545455
6458.5 -0.454545
6459.5 -1.45455
6460.5 1
6461.5 -2.90909
6462.5 0
6463.5 0
6464.5 2
6465.5 -1.45455
6466.5 1
6467.5 2
6468.5 1
6469.5 0
6470.5 1
6471.5 0
6472.5 2
6473.5 0
6474.5 0
6475.5 2
6476.5 -0.454545
6477.5 2
6478.5 -1.45455
6479.5 1
6480.5 -1.36364
6481.5 1.54545
6482.5 3
6483.5 1.54545
6484.5 0
6485.5 0
6486.5 2
6487.5 0
6488.5 0
6489.5 1
6490.5 0
6491.5 -1.45455
6492.5 0
6493.5 0
6494.5 0
6495.5 0
6496.5 1
6497.5 0
6498.5 -2.90909
6499.5 -0.454545
6500.5 1
6501.5 1
6502.5 1
6503.5 0
6504.5 1
6505.5 0.545455
6506.5 3
6507.5 -0.454545
6508.5 -1.45455
6509.5 1
6510.5 0
6511.5 2
6512.5 0.545455
6513.5 -0.454545
6514.5 -0.454545
6515.5 1
6516.5 -1.45455
6517.5 1
6518.5 1
6519.5 0
6520.5 1
6521.5 1
6522.5 2
6523.5 1
6524.5 0
6525.5 0
6526.5 1
6527.5 2
6528.5 -1.45455
6529.5 -1.45455
6530.5 0
6531.5 0
6532.5 0
6533.5 0
6534.5 0
6535.5 1
6536.5 0
6537.5 1
6538.5 1
6539.5 -0.454545
6540.5 2
6541.5 2
6542.5 -1.45455
6543.5 2
6544.5 -0.454545
6545.5 5
6546.5 2
6547.5 0
6548.5 2
6549.5 2
6550.5 -1.45455
6551.5 2
6552.5 0
6553.5 0
6554.5 1
6555.5 0
6556.5 0
6557.5 -1.45455
6558.5 -0.454545
6559.5 0
6560.5 2
6561.5 1
6562.5 0
6563.5 0
6564.5 0
6565.5 3
6566.5 0
6567.5 1
6568.5 3
6569.5 0
6570.5 0
6571.5 4
6572.5 0
6573.5 0
6574.5 1
6575.5 0
6576.5 0
6577.5 0
6578.5 0
6579.5 3
6580.5 -1.45455
6581.5 0
6582.5 0
6583.5 0
6584.5 1
6585.5 0
6586.5 0
6587.5 1
6588.5 1
6589.5 0
6590.5 0
6591.5 1
6592.5 -1.45455
6593.5 -0.454545
6594.5 1
6595.5 -1.45455
6596.5 0
6597.5 0
6598.5 1
6599.5 -0.454545
6600.5 -0.454545
6601.5 2
6602.5 0
6603.5 -0.454545
6604.5 0
6605.5 1
6606.5 1
6607.5 -0.454545
6608.5 0
6609.5 1
6610.5 0
6611.5 1
6612.5 0
6613.5 2
6614.5 1
6615.5 2
6616.5 2
6617.5 0
6618.5 1
6619.5 0
6620.5 2
6621.5 2
6622.5 2
6623.5 2
6624.5 1
6625.5 -1.45455
6626.5 0
6627.5 -0.454545
6628.5 -1.45455
6629.5 -1.45455
6630.5 1
6631.5 0
6632.5 1
6633.5 -0.454545
6634.5 1
6635.5 -1.45455
6636.5 0
6637.5 0
6638.5 -1.45455
6639.5 0
6640.5 0
6641.5 1
6642.5 -1.45455
6643.5 0
6644.5 0
6645.5 2
6646.5 0
6647.5 0
6648.5 0.545455
6649.5 2
6650.5 0
6651.5 0
6652.5 1
6653.5 1
6654.5 1
6655.5 0
6656.5 1
6657.5 -1.45455
6658.5 0
6659.5 0
6660.5 1
6661.5 1
6662.5 -0.454545
6663.5 0
6664.5 0
6665.5 2
6666.5 0
6667.5 2
6668.5 0
6669.5 0
6670.5 1
6671.5 -1.45455
6672.5 1
6673.5 2
6674.5 1
6675.5 1
6676.5 1
6677.5 0
6678.5 0
6679.5 0
6680.5 -1.45455
6681.5 2
6682.5 0
6683.5 0
6684.5 2
6685.5 0
6686.5 0
6687.5 0
6688.5 1
6689.5 0
6690.5 1
6691.5 0
6692.5 2
6693.5 1
6694.5 1
6695.5 1
6696.5 0
6697.5 1
6698.5 0
6699.5 0
6700.5 -0.454545
6701.5 0
6702.5 0
6703.5 0
6704.5 1
6705.5 -0.454545
6706.5 1
6707.5 1
6708.5 1
6709.5 0
6710.5 -2.90909
6711.5 1
6712.5 0
6713.5 0
6714.5 0
6715.5 0
6716.5 2
6717.5 1
6718.5 1
6719.5 2
6720.5 0.545455
6721.5 0
6722.5 1
6723.5 0
6724.5 2
6725.5 -1.45455
6726.5 0
6727.5 -1.45455
6728.5 0
6729.5 0
6730.5 0
6731.5 0.545455
6732.5 0
6733.5 -0.454545
6734.5 0
6735.5 1
6736.5 1
6737.5 0
6738.5 0
6739.5 1
6740.5 0
6741.5 0
6742.5 0
6743.5 1
6744.5 2
6745.5 1.54545
6746.5 1
6747.5 0
6748.5 2
6749.5 0
6750.5 0
6751.5 1
6752.5 2
6753.5 2
6754.5 0
6755.5 1
6756.5 1
6757.5 -0.454545
6758.5 -0.454545
6759.5 3
6760.5 1
6761.5 0
6762.5 0
6763.5 0
6764.5 1
6765.5 0
6766.5 0
6767.5 -1.45455
6768.5 -1.45455
6769.5 -1.45455
6770.5 1
6771.5 0
6772.5 4
6773.5 1
6774.5 0
6775.5 0
6776.5 -1.45455
6777.5 0
6778.5 -0.454545
6779.5 0
6780.5 -1.45455
6781.5 0
6782.5 0
6783.5 0
6784.5 0
6785.5 1
6786.5 0
6787.5 -1.45455
6788.5 1
6789.5 0
6790.5 0
6791.5 -1.45455
6792.5 0
6793.5 1
6794.5 -1.45455
6795.5 -0.454545
6796.5 1
6797.5 0
6798.5 1
6799.5 1
6800.5 1
6801.5 0
6802.5 -1.90909
6803.5 -1.45455
6804.5 2
6805.5 0
6806.5 1
6807.5 0
6808.5 0
6809.5 1
6810.5 -1.45455
6811.5 0
6812.5 2
6813.5 0
6814.5 0
6815.5 0
6816.5 0
6817.5 -0.454545
6818.5 -1.90909
6819.5 0
6820.5 -1.45455
6821.5 0
6822.5 1
6823.5 1
6824.5 0
6825.5 1
6826.5 0
6827.5 0
6828.5 2
6829.5 1
6830.5 0
6831.5 0
6832.5 0
6833.5 0
6834.5 0
6835.5 -0.454545
6836.5 0
6837.5 1
6838.5 1
6839.5 -1.45455
6840.5 -1.45455
6841.5 0
6842.5 1
6843.5 0
6844.5 1
6845.5 0
6846.5 0
6847.5 1
6848.5 -0.454545
6849.5 0
6850.5 1
6851.5 -1.45455
6852.5 0
6853.5 0
6854.5 -1.45455
6855.5 0
6856.5 0
6857.5 0
6858.5 0
6859.5 0
6860.5 1
6861.5 0
6862.5 0
6863.5 0
6864.5 1
6865.5 -0.454545
6866.5 -1.45455
6867.5 2
6868.5 0
6869.5 0
6870.5 0
6871.5 0
6872.5 1
6873.5 2
6874.5 0
6875.5 0
6876.5 0
6877.5 0
6878.5 0
6879.5 -1.45455
6880.5 0
6881.5 -1.45455
6882.5 0
6883.5 0
6884.5 0
6885.5 0
6886.5 -1.45455
6887.5 1
6888.5 0
6889.5 0
6890.5 1
6891.5 0
6892.5 0
6893.5 -1.45455
6894.5 1
6895.5 0
6896.5 0
6897.5 0
6898.5 -1.45455
6899.5 -1.45455
6900.5 2
6901.5 1
6902.5 2
6903.5 -1.45455
6904.5 0
6905.5 0.545455
6906.5 2.54545
6907.5 -0.454545
6908.5 0
6909.5 1
6910.5 0
6911.5 1
6912.5 0
6913.5 0
6914.5 0
6915.5 2
6916.5 0
6917.5 1
6918.5 -0.454545
6919.5 0
6920.5 0
6921.5 0
6922.5 1
6923.5 1
6924.5 1
6925.5 0
6926.5 0
6927.5 0
6928.5 0
6929.5 2
6930.5 2
6931.5 0.545455
6932.5 1
6933.5 1
6934.5 1
6935.5 1
6936.5 0
6937.5 2
6938.5 0
6939.5 0
6940.5 1
6941.5 1
6942.5 0
6943.5 0
6944.5 0
6945.5 -2.90909
6946.5 0
6947.5 0
6948.5 0
6949.5 1
6950.5 0
6951.5 1
6952.5 0
6953.5 1
6954.5 1
6955.5 0
6956.5 -0.454545
6957.5 -1.45455
6958.5 2
6959.5 1
6960.5 0
6961.5 -1.45455
6962.5 0
6963.5 0
6964.5 2
6965.5 0
6966.5 0
6967.5 0
6968.5 0
6969.5 0
6970.5 1
6971.5 -1.45455
6972.5 0
6973.5 1
6974.5 -1.45455
6975.5 0
6976.5 1
6977.5 0
6978.5 0
6979.5 0
6980.5 -0.454545
6981.5 0
6982.5 2
6983.5 0
6984.5 1
6985.5 1
6986.5 -1.45455
6987.5 1
6988.5 1
6989.5 0
6990.5 1
6991.5 0
6992.5 1
6993.5 0
6994.5 0
6995.5 1
6996.5 -0.454545
6997.5 0
6998.5 1
6999.5 -1.45455
7000.5 1
7001.5 0
7002.5 0
7003.5 0
7004.5 1
7005.5 0
7006.5 1
7007.5 1
7008.5 0
7009.5 1
7010.5 0
7011.5 0
7012.5 0
7013.5 0
7014.5 0
7015.5 1
7016.5 1
7017.5 2
7018.5 0
7019.5 0
7020.5 0
7021.5 -1.45455
7022.5 1
7023.5 1
7024.5 -0.454545
7025.5 2
7026.5 -2.90909
7027.5 1
7028.5 3
7029.5 0
7030.5 0
7031.5 1
7032.5 -1.45455
7033.5 -0.454545
7034.5 0
7035.5 0
7036.5 1
7037.5 0
7038.5 0
7039.5 0.545455
7040.5 -1.45455
7041.5 0
7042.5 1
7043.5 0
7044.5 1
7045.5 0
7046.5 0
7047.5 0
7048.5 -1.45455
7049.5 1
7050.5 1
7051.5 2
7052.5 1
7053.5 2
7054.5 0
7055.5 1
7056.5 1
7057.5 0
7058.5 0
7059.5 0
7060.5 0
7061.5 0
7062.5 0
7063.5 1
7064.5 0
7065.5 -1.45455
7066.5 1
7067.5 1
7068.5 -0.454545
7069.5 0.545455
7070.5 0
7071.5 1
7072.5 1
7073.5 1
7074.5 0
7075.5 0
7076.5 0
7077.5 0
7078.5 -0.454545
7079.5 0
7080.5 2
7081.5 2
7082.5 1
7083.5 0
7084.5 0
7085.5 1
7086.5 2
7087.5 0
7088.5 0
7089.5 0
7090.5 1
7091.5 0
7092.5 2
7093.5 0
7094.5 1
7095.5 0
7096.5 0
7097.5 0
7098.5 1
7099.5 0
7100.5 1
7101.5 0
7102.5 1
7103.5 0
7104.5 0
7105.5 1
7106.5 0
7107.5 1
7108.5 0
7109.5 1
7110.5 0
7111.5 0
7112.5 -0.454545
7113.5 -1.90909
7114.5 0
7115.5 -1.45455
7116.5 -0.454545
7117.5 1
7118.5 0
7119.5 1
7120.5 1
7121.5 1
7122.5 0
7123.5 0
7124.5 0
7125.5 0
7126.5 0
7127.5 0
7128.5 1
7129.5 0
7130.5 1
7131.5 1
7132.5 1
7133.5 0
7134.5 -1.45455
7135.5 -1.45455
7136.5 0
7137.5 1
7138.5 0
7139.5 -0.454545
7140.5 3
7141.5 1
7142.5 1
7143.5 1
7144.5 0
7145.5 -1.45455
7146.5 0
7147.5 -0.454545
7148.5 0
7149.5 0
7150.5 0
7151.5 0
7152.5 1
7153.5 0
7154.5 0.545455
7155.5 1
7156.5 -1.45455
7157.5 0
7158.5 -0.454545
7159.5 -0.454545
7160.5 0
7161.5 1
7162.5 0
7163.5 1
7164.5 -0.454545
7165.5 1
7166.5 1
7167.5 0
7168.5 0
7169.5 0
7170.5 1
7171.5 0
7172.5 0
7173.5 0
7174.5 0
7175.5 1
7176.5 0
7177.5 0
7178.5 1
7179.5 1
7180.5 0
7181.5 1
7182.5 1
7183.5 0
7184.5 0
7185.5 0
7186.5 0
7187.5 0
7188.5 1
7189.5 1
7190.5 0
7191.5 0
7192.5 0
7193.5 -0.454545
7194.5 0
7195.5 0
7196.5 0
7197.5 0
7198.5 0
7199.5 0
7200.5 0
7201.5 1
7202.5 -0.454545
7203.5 -0.454545
7204.5 0
7205.5 0
7206.5 1.54545
7207.5 -0.454545
7208.5 2
7209.5 4
7210.5 0
7211.5 0
7212.5 0
7213.5 0
7214.5 -0.454545
7215.5 0
7216.5 4
7217.5 1
7218.5 1
7219.5 2
7220.5 0
7221.5 0
7222.5 0
7223.5 0
7224.5 0
7225.5 0
7226.5 0
7227.5 0
7228.5 -0.454545
7229.5 1
7230.5 0
7231.5 0
7232.5 0
7233.5 0
7234.5 1
7235.5 1
7236.5 0
7237.5 0
7238.5 0
7239.5 0
7240.5 1
7241.5 0
7242.5 1
7243.5 1
7244.5 -1.45455
7245.5 0
7246.5 1
7247.5 0
7248.5 1
7249.5 0
7250.5 1
7251.5 0
7252.5 1
7253.5 0
7254.5 -1.45455
7255.5 1
7256.5 0
7257.5 0
7258.5 0
7259.5 -0.454545
7260.5 0
7261.5 3
7262.5 0
7263.5 -1.90909
7264.5 -0.454545
7265.5 3
7266.5 1
7267.5 0
7268.5 0
7269.5 0
7270.5 1
7271.5 0
7272.5 0
7273.5 0
7274.5 0
7275.5 0
7276.5 0
7277.5 2
7278.5 1
7279.5 1
7280.5 0
7281.5 0
7282.5 0
7283.5 1
7284.5 0
7285.5 0
7286.5 0
7287.5 1
7288.5 -0.454545
7289.5 -0.454545
7290.5 0
7291.5 1
7292.5 0
7293.5 0
7294.5 0
7295.5 0
7296.5 0
7297.5 0
7298.5 0
7299.5 2
7300.5 0
7301.5 1
7302.5 1
7303.5 0
7304.5 0
7305.5 1
7306.5 -0.909091
7307.5 0
7308.5 0
7309.5 0
7310.5 0
7311.5 0
7312.5 0
7313.5 1
7314.5 -1.45455
7315.5 0
7316.5 -1.45455
7317.5 1
7318.5 2
7319.5 0
7320.5 0
7321.5 0
7322.5 1
7323.5 0
7324.5 0
7325.5 0
7326.5 0
7327.5 0
7328.5 1
7329.5 0
7330.5 0
7331.5 0
7332.5 0
7333.5 0
7334.5 0
7335.5 0
7336.5 0.545455
7337.5 2
7338.5 0
7339.5 0
7340.5 0
7341.5 0
7342.5 1
7343.5 0
7344.5 0
7345.5 1
7346.5 0
7347.5 1
7348.5 0
7349.5 -1.45455
7350.5 0
7351.5 0
7352.5 0
7353.5 -1.45455
7354.5 -1.45455
7355.5 1
7356.5 2
7357.5 -1.45455
7358.5 0
7359.5 0
7360.5 -0.454545
7361.5 0
7362.5 0
7363.5 0
7364.5 0
7365.5 2
7366.5 0
7367.5 1
7368.5 0
7369.5 0
7370.5 1
7371.5 1
7372.5 0
7373.5 0
7374.5 1
7375.5 1
7376.5 -1.45455
7377.5 2
7378.5 0
7379.5 0
7380.5 1
7381.5 1
7382.5 0
7383.5 0
7384.5 0
7385.5 0
7386.5 0
7387.5 1
7388.5 0
7389.5 0
7390.5 0
7391.5 0
7392.5 -1.45455
7393.5 0
7394.5 1
7395.5 0
7396.5 0
7397.5 1
7398.5 0
7399.5 0
7400.5 0
7401.5 -0.454545
7402.5 0
7403.5 0
7404.5 0
7405.5 0
7406.5 0
7407.5 0
7408.5 0
7409.5 0
7410.5 1
7411.5 1
7412.5 1
7413.5 1
7414.5 1
7415.5 3
7416.5 -1.90909
7417.5 0.545455
7418.5 0
7419.5 0
7420.5 0
7421.5 0
7422.5 0
7423.5 1
7424.5 0
7425.5 0
7426.5 0
7427.5 0
7428.5 -0.454545
7429.5 1
7430.5 1
7431.5 0
7432.5 0
7433.5 1
7434.5 0
7435.5 0
7436.5 0
7437.5 0
7438.5 1
7439.5 0
7440.5 -1.45455
7441.5 1
7442.5 -2.90909
7443.5 0
7444.5 0
7445.5 0
7446.5 0
7447.5 0
7448.5 0
7449.5 0
7450.5 0
7451.5 -1.45455
7452.5 1
7453.5 0
7454.5 0
7455.5 2
7456.5 0
7457.5 0
7458.5 1
7459.5 1
7460.5 2
7461.5 0
7462.5 0
7463.5 0
7464.5 -1.45455
7465.5 -1.45455
7466.5 -1.45455
7467.5 0
7468.5 1
7469.5 1
7470.5 0
7471.5 1
7472.5 1
7473.5 1
7474.5 0
7475.5 -1.45455
7476.5 0
7477.5 0
7478.5 0
7479.5 1
7480.5 0
7481.5 0
7482.5 2
7483.5 0
7484.5 -1.45455
7485.5 0
7486.5 0
7487.5 0
7488.5 0
7489.5 0
7490.5 0
7491.5 0
7492.5 0
7493.5 0
7494.5 0
7495.5 -1.45455
7496.5 0
7497.5 0
7498.5 0
7499.5 0
7500.5 -1.45455
7501.5 0
7502.5 1
7503.5 -1.45455
7504.5 0
7505.5 0
7506.5 1
7507.5 0
7508.5 0
7509.5 0
7510.5 0
7511.5 0
7512.5 0
7513.5 0
7514.5 0
7515.5 0
7516.5 0
7517.5 -1.45455
7518.5 0
7519.5 0
7520.5 -1.45455
7521.5 0
7522.5 -1.45455
7523.5 0
7524.5 0
7525.5 1
7526.5 0
7527.5 -0.454545
7528.5 0
7529.5 0
7530.5 0
7531.5 0
7532.5 0
7533.5 -1.45455
7534.5 1
7535.5 -1.45455
7536.5 1
7537.5 1
7538.5 -0.454545
7539.5 0
7540.5 0
7541.5 0
7542.5 0
7543.5 0
7544.5 0
7545.5 -1.45455
7546.5 0
7547.5 1
7548.5 0
7549.5 0
7550.5 -1.45455
7551.5 0
7552.5 0
7553.5 0
7554.5 1
7555.5 0
7556.5 1
7557.5 0
7558.5 0
7559.5 0
7560.5 0
7561.5 0
7562.5 0
7563.5 0
7564.5 0
7565.5 -0.454545
7566.5 0
7567.5 0
7568.5 0
7569.5 0
7570.5 0
7571.5 1
7572.5 2
7573.5 0
7574.5 0
7575.5 0
7576.5 1
7577.5 1
7578.5 2
7579.5 -1.45455
7580.5 0
7581.5 0
7582.5 0
7583.5 0
7584.5 0
7585.5 0
7586.5 0
7587.5 1
7588.5 0
7589.5 0
7590.5 0
7591.5 0
7592.5 -1.45455
7593.5 1
7594.5 0
7595.5 0
7596.5 0
7597.5 0
7598.5 0
7599.5 0
7600.5 0
7601.5 0
7602.5 0
7603.5 0
7604.5 0
7605.5 0
7606.5 1
7607.5 0
7608.5 0
7609.5 0
7610.5 0
7611.5 0
7612.5 0
7613.5 1
7614.5 0
7615.5 0
7616.5 1
7617.5 0
7618.5 0
7619.5 0
7620.5 0
7621.5 0
7622.5 1
7623.5 -1.45455
7624.5 0
7625.5 0
7626.5 0
7627.5 -1.45455
7628.5 1
7629.5 -0.454545
7630.5 0
7631.5 0
7632.5 0
7633.5 2
7634.5 0
7635.5 0
7636.5 2
7637.5 -1.45455
7638.5 0
7639.5 1
7640.5 -0.454545
7641.5 0
7642.5 1
7643.5 -0.454545
7644.5 -1.45455
7645.5 1
7646.5 0
7647.5 1
7648.5 0
7649.5 -1.45455
7650.5 0
7651.5 1
7652.5 0
7653.5 0
7654.5 0
7655.5 0
7656.5 1
7657.5 0
7658.5 0
7659.5 0
7660.5 0
7661.5 0
7662.5 0
7663.5 1
7664.5 0
7665.5 0
7666.5 0
7667.5 0
7668.5 0
7669.5 0
7670.5 0
7671.5 0
7672.5 0
7673.5 0
7674.5 0
7675.5 0
7676.5 0
7677.5 0
7678.5 2
7679.5 0
7680.5 0
7681.5 0
7682.5 0
7683.5 0
7684.5 0
7685.5 0
7686.5 0
7687.5 1
7688.5 2
7689.5 0
7690.5 1
7691.5 0
7692.5 0
7693.5 0
7694.5 0
7695.5 -1.45455
7696.5 1
7697.5 0
7698.5 1
7699.5 0
7700.5 0
7701.5 0
7702.5 0
7703.5 0
7704.5 0
7705.5 0
7706.5 0
7707.5 0
7708.5 0
7709.5 0
7710.5 2
7711.5 1
7712.5 1
7713.5 -1.45455
7714.5 0
7715.5 1
7716.5 0
7717.5 0
7718.5 0
7719.5 0
7720.5 1
7721.5 0
7722.5 0
7723.5 1
7724.5 0
7725.5 0
7726.5 -1.45455
7727.5 0
7728.5 1
7729.5 1
7730.5 0.545455
7731.5 0
7732.5 1
7733.5 -1.45455
7734.5 0
7735.5 0
7736.5 0
7737.5 0
7738.5 0
7739.5 -1.45455
7740.5 0
7741.5 0
7742.5 0
7743.5 0
7744.5 -0.454545
7745.5 0
7746.5 0
7747.5 0
7748.5 0
7749.5 0
7750.5 0
7751.5 0
7752.5 0
7753.5 0
7754.5 0
7755.5 0
7756.5 0
7757.5 0
7758.5 0
7759.5 0
7760.5 0
7761.5 0
7762.5 0
7763.5 0
7764.5 0
7765.5 0
7766.5 0
7767.5 1
7768.5 0
7769.5 0
7770.5 2
7771.5 -2.90909
7772.5 -0.454545
7773.5 0
7774.5 1
7775.5 1.54545
7776.5 0
7777.5 0
7778.5 0
7779.5 0
7780.5 -1.45455
7781.5 1
7782.5 1
7783.5 0
7784.5 0
7785.5 0
7786.5 1
7787.5 0
7788.5 0
7789.5 0
7790.5 1
7791.5 0
7792.5 0
7793.5 0
7794.5 0
7795.5 0
7796.5 2
7797.5 0
7798.5 0
7799.5 0
7800.5 0
7801.5 0
7802.5 1
7803.5 0
7804.5 0
7805.5 0
7806.5 1
7807.5 0
7808.5 0
7809.5 0
7810.5 0
7811.5 0
7812.5 0
7813.5 0
7814.5 0
7815.5 1
7816.5 0
7817.5 0
7818.5 1
7819.5 1
7820.5 1
7821.5 1
7822.5 0
7823.5 0
7824.5 0
7825.5 0
7826.5 0
7827.5 1
7828.5 0
7829.5 1
7830.5 0
7831.5 1
7832.5 0
7833.5 0
7834.5 1
7835.5 0
7836.5 -0.454545
7837.5 0
7838.5 1
7839.5 0
7840.5 0
7841.5 0
7842.5 1
7843.5 -1.45455
7844.5 1
7845.5 0
7846.5 0
7847.5 0
7848.5 0
7849.5 0
7850.5 0
7851.5 0
7852.5 0
7853.5 0
7854.5 0
7855.5 0
7856.5 -0.454545
7857.5 0
7858.5 0
7859.5 0
7860.5 -2.90909
7861.5 0
7862.5 1
7863.5 0
7864.5 0
7865.5 0
7866.5 0
7867.5 0
7868.5 0
7869.5 0
7870.5 1
7871.5 0
7872.5 0
7873.5 1
7874.5 0
7875.5 0
7876.5 0
7877.5 0
7878.5 0
7879.5 0
7880.5 0
7881.5 1
7882.5 1
7883.5 0
7884.5 0
7885.5 0
7886.5 0
7887.5 0
7888.5 0
7889.5 0
7890.5 -0.454545
7891.5 1
7892.5 1
7893.5 0
7894.5 1
7895.5 0
7896.5 0
7897.5 0
7898.5 0
7899.5 1
7900.5 0
7901.5 0
7902.5 0
7903.5 1
7904.5 0
7905.5 1
7906.5 0
7907.5 0
7908.5 0
7909.5 0
7910.5 0
7911.5 0
7912.5 1
7913.5 0
7914.5 0
7915.5 0
7916.5 1
7917.5 0
7918.5 0
7919.5 0
7920.5 0
7921.5 0
7922.5 0
7923.5 1
7924.5 1
7925.5 0
7926.5 0
7927.5 0
7928.5 0
7929.5 0
7930.5 0
7931.5 0
7932.5 1
7933.5 0
7934.5 1
7935.5 0
7936.5 0
7937.5 0
7938.5 0
7939.5 0
7940.5 0
7941.5 0
7942.5 0
7943.5 0
7944.5 0
7945.5 -1.45455
7946.5 0
7947.5 0
7948.5 1
7949.5 0
7950.5 1
7951.5 0
7952.5 -1.45455
7953.5 0
7954.5 0
7955.5 0
7956.5 0
7957.5 0
7958.5 -1.45455
7959.5 1
7960.5 0
7961.5 -1.45455
7962.5 0
7963.5 2
7964.5 1
7965.5 0
7966.5 0
7967.5 0
7968.5 0
7969.5 0
7970.5 0
7971.5 0
7972.5 0
7973.5 -1.45455
7974.5 0
7975.5 0
7976.5 0
7977.5 0
7978.5 0
7979.5 0
7980.5 1
7981.5 1
7982.5 0
7983.5 0
7984.5 0
7985.5 1
7986.5 0
7987.5 0
7988.5 1
7989.5 2
7990.5 0
7991.5 0
7992.5 0
7993.5 0
7994.5 -1.45455
7995.5 0
7996.5 0
7997.5 1
7998.5 1
7999.5 0
8000.5 0
8001.5 1
8002.5 0
8003.5 0
8004.5 0
8005.5 0
8006.5 0
8007.5 0
8008.5 0
8009.5 1
8010.5 0
8011.5 0
8012.5 0
8013.5 0
8014.5 1
8015.5 1
8016.5 0
8017.5 0
8018.5 0
8019.5 2
8020.5 0
8021.5 0
8022.5 0
8023.5 0
8024.5 -1.45455
8025.5 0
8026.5 -1.45455
8027.5 2
8028.5 0
8029.5 0
8030.5 0
8031.5 0
8032.5 0
8033.5 0
8034.5 0
8035.5 0
8036.5 0
8037.5 0
8038.5 0
8039.5 1
8040.5 1
8041.5 0
8042.5 0
8043.5 0
8044.5 0
8045.5 0
8046.5 0
8047.5 0
8048.5 0
8049.5 0
8050.5 0
8051.5 0
8052.5 0
8053.5 0
8054.5 0
8055.5 0
8056.5 0
8057.5 0
8058.5 0
8059.5 0
8060.5 0
8061.5 0
8062.5 0
8063.5 0
8064.5 0
8065.5 -1.45455
8066.5 0
8067.5 0
8068.5 0
8069.5 0
8070.5 0
8071.5 0
8072.5 0
8073.5 0
8074.5 0
8075.5 0
8076.5 0
8077.5 1
8078.5 0
8079.5 0
8080.5 0
8081.5 1
8082.5 0
8083.5 -1.45455
8084.5 0
8085.5 0
8086.5 0
8087.5 1
8088.5 0
8089.5 0
8090.5 0
8091.5 0
8092.5 2
8093.5 0
8094.5 0
8095.5 0
8096.5 0
8097.5 0
8098.5 0
8099.5 0
8100.5 0
8101.5 0
8102.5 0
8103.5 0
8104.5 0
8105.5 0
8106.5 0
8107.5 0
8108.5 1
8109.5 0
8110.5 0
8111.5 0
8112.5 0
8113.5 0
8114.5 0
8115.5 0
8116.5 0
8117.5 0
8118.5 0
8119.5 -2.90909
8120.5 0
8121.5 1
8122.5 0
8123.5 0
8124.5 0
8125.5 0
8126.5 0
8127.5 2
8128.5 1
8129.5 -1.45455
8130.5 0
8131.5 0
8132.5 0
8133.5 0
8134.5 1
8135.5 0
8136.5 -1.45455
8137.5 0
8138.5 0
8139.5 1
8140.5 0
8141.5 0
8142.5 0
8143.5 0
8144.5 0
8145.5 0
8146.5 0
8147.5 0
8148.5 -1.45455
8149.5 0
8150.5 0
8151.5 1
8152.5 0
8153.5 0
8154.5 2
8155.5 0
8156.5 0
8157.5 0
8158.5 0
8159.5 0
8160.5 0
8161.5 1
8162.5 -1.45455
8163.5 0
8164.5 0
8165.5 0
8166.5 0
8167.5 0
8168.5 0
8169.5 0
8170.5 0
8171.5 0
8172.5 0
8173.5 0
8174.5 -1.45455
8175.5 0
8176.5 0
8177.5 0
8178.5 0
8179.5 0
8180.5 1
8181.5 0
8182.5 -1.45455
8183.5 0
8184.5 0
8185.5 0
8186.5 0
8187.5 0
8188.5 2
8189.5 0
8190.5 -1.45455
8191.5 0
8192.5 0
8193.5 0
8194.5 0
8195.5 0
8196.5 0
8197.5 0
8198.5 0
8199.5 0
8200.5 0
8201.5 0
8202.5 0
8203.5 0
8204.5 0
8205.5 0
8206.5 -1.45455
8207.5 0
8208.5 1
8209.5 0
8210.5 0
8211.5 0
8212.5 0
8213.5 0
8214.5 0
8215.5 0
8216.5 0
8217.5 1
8218.5 -1.45455
8219.5 0
8220.5 0
8221.5 0
8222.5 0
8223.5 0
8224.5 0
8225.5 0
8226.5 0
8227.5 0
8228.5 1
8229.5 0
8230.5 0
8231.5 0
8232.5 1
8233.5 0
8234.5 0
8235.5 0
8236.5 -1.45455
8237.5 1
8238.5 0
8239.5 0
8240.5 0
8241.5 0
8242.5 0
8243.5 0
8244.5 0
8245.5 0
8246.5 1
8247.5 0
8248.5 0
8249.5 1
8250.5 0
8251.5 1
8252.5 0
8253.5 0
8254.5 0
8255.5 0
8256.5 1
8257.5 0
8258.5 0
8259.5 0
8260.5 -0.454545
8261.5 0
8262.5 0
8263.5 1
8264.5 0
8265.5 1
8266.5 0
8267.5 0
8268.5 0
8269.5 0
8270.5 0
8271.5 1
8272.5 0
8273.5 0.545455
8274.5 0
8275.5 0
8276.5 0
8277.5 0
8278.5 0
8279.5 1
8280.5 0
8281.5 0
8282.5 0
8283.5 0
8284.5 0
8285.5 0
8286.5 0
8287.5 0
8288.5 0
8289.5 0
8290.5 0
8291.5 0
8292.5 -1.45455
8293.5 0
8294.5 0
8295.5 0
8296.5 0
8297.5 0
8298.5 0
8299.5 0
8300.5 1
8301.5 0
8302.5 0
8303.5 0
8304.5 1
8305.5 0
8306.5 0
8307.5 0
8308.5 0
8309.5 1
8310.5 0
8311.5 1
8312.5 0
8313.5 0
8314.5 0
8315.5 0
8316.5 0
8317.5 -0.454545
8318.5 1
8319.5 0
8320.5 1
8321.5 0
8322.5 -1.45455
8323.5 0
8324.5 0
8325.5 0
8326.5 -2.90909
8327.5 0
8328.5 0
8329.5 0
8330.5 0
8331.5 1
8332.5 0
8333.5 0
8334.5 0
8335.5 -1.90909
8336.5 0
8337.5 0
8338.5 0
8339.5 0
8340.5 0
8341.5 0
8342.5 0
8343.5 0
8344.5 0
8345.5 0
8346.5 0
8347.5 0
8348.5 1
8349.5 1
8350.5 0
8351.5 0
8352.5 0
8353.5 0
8354.5 -1.45455
8355.5 0
8356.5 0
8357.5 0
8358.5 -1.45455
8359.5 1
8360.5 0
8361.5 0
8362.5 0
8363.5 0
8364.5 0
8365.5 0
8366.5 1
8367.5 0
8368.5 0
8369.5 0
8370.5 0
8371.5 0
8372.5 0
8373.5 0
8374.5 0
8375.5 0
8376.5 0
8377.5 -1.45455
8378.5 0
8379.5 0
8380.5 0
8381.5 0
8382.5 0
8383.5 -1.45455
8384.5 0
8385.5 0
8386.5 0
8387.5 0
8388.5 0
8389.5 -1.45455
8390.5 0
8391.5 1
8392.5 1
8393.5 0
8394.5 0
8395.5 0
8396.5 0
8397.5 0
8398.5 0
8399.5 -1.45455
8400.5 0
8401.5 0
8402.5 0
8403.5 0
8404.5 0
8405.5 0
8406.5 0
8407.5 0
8408.5 0
8409.5 1
8410.5 0
8411.5 0
8412.5 0
8413.5 0
8414.5 1
8415.5 0
8416.5 0
8417.5 0
8418.5 0
8419.5 0
8420.5 0
8421.5 0
8422.5 0
8423.5 -1.45455
8424.5 0
8425.5 0
8426.5 0
8427.5 0
8428.5 1
8429.5 0
8430.5 0
8431.5 0
8432.5 0
8433.5 0
8434.5 1
8435.5 0
8436.5 2
8437.5 0
8438.5 0
8439.5 1
8440.5 0
8441.5 0
8442.5 1
8443.5 0
8444.5 0
8445.5 0
8446.5 0
8447.5 0
8448.5 0
8449.5 0
8450.5 0
8451.5 0
8452.5 0
8453.5 0
8454.5 0
8455.5 0
8456.5 0
8457.5 0
8458.5 2
8459.5 0
8460.5 0
8461.5 0
8462.5 0
8463.5 1
8464.5 0
8465.5 0
8466.5 0
8467.5 0
8468.5 0
8469.5 0
8470.5 0
8471.5 0
8472.5 -1.45455
8473.5 1
8474.5 0
8475.5 1
8476.5 1
8477.5 0
8478.5 1
8479.5 0
8480.5 0
8481.5 0
8482.5 -1.45455
8483.5 0
8484.5 0
8485.5 0
8486.5 0
8487.5 1
8488.5 0
8489.5 0
8490.5 0
8491.5 0
8492.5 0
8493.5 0
8494.5 0
8495.5 1
8496.5 0
8497.5 0
8498.5 0
8499.5 0
8500.5 0
8501.5 0
8502.5 -1.45455
8503.5 -1.45455
8504.5 0
8505.5 0
8506.5 0
8507.5 0
8508.5 0
8509.5 -1.45455
8510.5 0
8511.5 0
8512.5 0
8513.5 0
8514.5 0
8515.5 -1.45455
8516.5 0
8517.5 0
8518.5 0
8519.5 0
8520.5 1
8521.5 0
8522.5 0
8523.5 0
8524.5 0
8525.5 1
8526.5 0
8527.5 0
8528.5 0
8529.5 0
8530.5 -1.45455
8531.5 0
8532.5 0
8533.5 0
8534.5 2
8535.5 0
8536.5 0
8537.5 0
8538.5 0
8539.5 0
8540.5 0
8541.5 0
8542.5 0
8543.5 0
8544.5 0
8545.5 0
8546.5 0
8547.5 0
8548.5 0
8549.5 0
8550.5 -1.45455
8551.5 0
8552.5 0
8553.5 0
8554.5 0
8555.5 0
8556.5 0
8557.5 0
8558.5 0
8559.5 0
8560.5 0
8561.5 0
8562.5 0
8563.5 0
8564.5 0
8565.5 0
8566.5 0
8567.5 0
8568.5 0
8569.5 1
8570.5 1
8571.5 0
8572.5 0
8573.5 0
8574.5 -0.454545
8575.5 0
8576.5 -1.45455
8577.5 0
8578.5 0
8579.5 1
8580.5 -1.45455
8581.5 0
8582.5 -1.45455
8583.5 0
8584.5 0
8585.5 0
8586.5 0
8587.5 0
8588.5 0
8589.5 0
8590.5 1
8591.5 0
8592.5 0
8593.5 0
8594.5 0
8595.5 0
8596.5 0
8597.5 0
8598.5 0
8599.5 0
8600.5 0
8601.5 1
8602.5 0
8603.5 0
8604.5 0
8605.5 0
8606.5 0
8607.5 0
8608.5 0
8609.5 0
8610.5 0
8611.5 0
8612.5 0
8613.5 0
8614.5 2
8615.5 0
8616.5 0
8617.5 0
8618.5 0
8619.5 1
8620.5 0
8621.5 0
8622.5 0
8623.5 0
8624.5 0
8625.5 0
8626.5 0
8627.5 0
8628.5 0
8629.5 0
8630.5 1
8631.5 0
8632.5 0
8633.5 0
8634.5 0
8635.5 0
8636.5 0
8637.5 0
8638.5 0
8639.5 0
8640.5 0
8641.5 1
8642.5 0
8643.5 0
8644.5 0
8645.5 0
8646.5 0
8647.5 0
8648.5 0
8649.5 0
8650.5 0
8651.5 0
8652.5 0
8653.5 0
8654.5 0
8655.5 0
8656.5 0
8657.5 0
8658.5 0
8659.5 -1.45455
8660.5 0
8661.5 0
8662.5 0
8663.5 0
8664.5 0
8665.5 0
8666.5 -1.45455
8667.5 0
8668.5 0
8669.5 0
8670.5 0
8671.5 -1.45455
8672.5 0
8673.5 1
8674.5 0
8675.5 0
8676.5 0
8677.5 0
8678.5 1
8679.5 0
8680.5 0
8681.5 0
8682.5 0
8683.5 0
8684.5 0
8685.5 0
8686.5 0
8687.5 0
8688.5 0
8689.5 0
8690.5 -1.45455
8691.5 0
8692.5 0
8693.5 0
8694.5 0
8695.5 1
8696.5 0
8697.5 0
8698.5 0
8699.5 0
8700.5 -1.45455
8701.5 0
8702.5 1
8703.5 0
8704.5 0
8705.5 0
8706.5 0
8707.5 0
8708.5 0
8709.5 0
8710.5 0
8711.5 0
8712.5 -1.45455
8713.5 0
8714.5 0
8715.5 0
8716.5 0
8717.5 0
8718.5 0
8719.5 0
8720.5 0
8721.5 0
8722.5 0
8723.5 0
8724.5 0
8725.5 0
8726.5 0
8727.5 0
8728.5 0
8729.5 0
8730.5 0
8731.5 1
8732.5 0
8733.5 0
8734.5 0
8735.5 0
8736.5 0
8737.5 0
8738.5 -1.45455
8739.5 0
8740.5 0
8741.5 0
8742.5 0
8743.5 0
8744.5 0
8745.5 0
8746.5 0
8747.5 0
8748.5 0
8749.5 0
8750.5 0
8751.5 1
8752.5 0
8753.5 0
8754.5 -1.45455
8755.5 0
8756.5 0
8757.5 0
8758.5 0
8759.5 0
8760.5 0
8761.5 0
8762.5 0
8763.5 0
8764.5 0
8765.5 0
8766.5 0
8767.5 0
8768.5 0
8769.5 -1.45455
8770.5 0
8771.5 0
8772.5 0
8773.5 -1.45455
8774.5 0
8775.5 0
8776.5 -1.45455
8777.5 0
8778.5 0
8779.5 0
8780.5 0
8781.5 -1.45455
8782.5 0
8783.5 0
8784.5 0
8785.5 1
8786.5 0
8787.5 0
8788.5 0
8789.5 -1.45455
8790.5 0
8791.5 0
8792.5 0
8793.5 0
8794.5 0
8795.5 -1.45455
8796.5 0
8797.5 0
8798.5 0
8799.5 0
8800.5 0
8801.5 0
8802.5 1
8803.5 0
8804.5 0
8805.5 0
8806.5 0
8807.5 0
8808.5 0
8809.5 0
8810.5 1
8811.5 0
8812.5 0
8813.5 0
8814.5 0
8815.5 0
8816.5 0
8817.5 0
8818.5 0
8819.5 0
8820.5 0
8821.5 -1.45455
8822.5 0
8823.5 -1.45455
8824.5 0
8825.5 0
8826.5 0
8827.5 0
8828.5 0
8829.5 0
8830.5 -1.45455
8831.5 0
8832.5 0
8833.5 0
8834.5 0
8835.5 0
8836.5 1
8837.5 0
8838.5 0
8839.5 0
8840.5 0
8841.5 0
8842.5 0
8843.5 -1.45455
8844.5 0
8845.5 -1.45455
8846.5 0
8847.5 -1.45455
8848.5 1
8849.5 0
8850.5 0
8851.5 0
8852.5 0
8853.5 -1.45455
8854.5 0
8855.5 0
8856.5 0
8857.5 0
8858.5 0
8859.5 0
8860.5 0
8861.5 0
8862.5 0
8863.5 0
8864.5 0
8865.5 1
8866.5 0
8867.5 -1.45455
8868.5 0
8869.5 2
8870.5 0
8871.5 1
8872.5 0
8873.5 -1.45455
8874.5 -1.45455
8875.5 0
8876.5 0
8877.5 1
8878.5 0
8879.5 0
8880.5 0
8881.5 0
8882.5 0
8883.5 0
8884.5 0
8885.5 0
8886.5 1
8887.5 0
8888.5 0
8889.5 1
8890.5 0
8891.5 0
8892.5 0
8893.5 0
8894.5 -1.45455
8895.5 0
8896.5 0
8897.5 -1.45455
8898.5 0
8899.5 0
8900.5 0
8901.5 0
8902.5 0
8903.5 1
8904.5 0
8905.5 1
8906.5 -1.45455
8907.5 0
8908.5 0
8909.5 0
8910.5 0
8911.5 0
8912.5 0
8913.5 0
8914.5 0
8915.5 0
8916.5 -1.45455
8917.5 0
8918.5 0
8919.5 1
8920.5 0
8921.5 -2.90909
8922.5 0
8923.5 0
8924.5 1
8925.5 0
8926.5 0
8927.5 -1.45455
8928.5 0
8929.5 0
8930.5 0
8931.5 0
8932.5 0
8933.5 0
8934.5 0
8935.5 0
8936.5 -1.45455
8937.5 0
8938.5 0
8939.5 0
8940.5 0
8941.5 0
8942.5 0
8943.5 0
8944.5 0
8945.5 0
8946.5 0
8947.5 0
8948.5 0
8949.5 0
8950.5 0
8951.5 0
8952.5 0
8953.5 0
8954.5 0
8955.5 0
8956.5 0
8957.5 0
8958.5 0
8959.5 0
8960.5 0
8961.5 2
8962.5 0
8963.5 -1.45455
8964.5 0
8965.5 2
8966.5 0
8967.5 0
8968.5 0
8969.5 0
8970.5 1
8971.5 0
8972.5 0
8973.5 0
8974.5 1
8975.5 0
8976.5 0
8977.5 0
8978.5 0
8979.5 0
8980.5 0
8981.5 0
8982.5 0
8983.5 0
8984.5 0
8985.5 0
8986.5 0
8987.5 0
8988.5 0
8989.5 0
8990.5 0
8991.5 0
8992.5 0
8993.5 0
8994.5 0
8995.5 0
8996.5 0
8997.5 0
8998.5 -1.45455
8999.5 0
9000.5 2
9001.5 0
9002.5 0
9003.5 0
9004.5 0
9005.5 0
9006.5 0
9007.5 0
9008.5 0
9009.5 0
9010.5 1
9011.5 0
9012.5 0
9013.5 0
9014.5 0
9015.5 1
9016.5 0
9017.5 1
9018.5 0
9019.5 0
9020.5 1
9021.5 0
9022.5 2
9023.5 0
9024.5 0
9025.5 0
9026.5 0
9027.5 0
9028.5 0
9029.5 0
9030.5 0
9031.5 0
9032.5 0
9033.5 0
9034.5 0
9035.5 0
9036.5 1
9037.5 0
9038.5 0
9039.5 0
9040.5 0
9041.5 1
9042.5 0
9043.5 0
9044.5 0
9045.5 0
9046.5 0
9047.5 0
9048.5 1
9049.5 0
9050.5 2
9051.5 0
9052.5 0
9053.5 0
9054.5 0
9055.5 0
9056.5 0
9057.5 1
9058.5 0
9059.5 0
9060.5 0
9061.5 0
9062.5 0
9063.5 1
9064.5 0
9065.5 0
9066.5 0
9067.5 0
9068.5 0
9069.5 0
9070.5 0
9071.5 0
9072.5 0
9073.5 0
9074.5 0
9075.5 0
9076.5 0
9077.5 0
9078.5 0
9079.5 0
9080.5 1
9081.5 0
9082.5 0
9083.5 -1.45455
9084.5 0
9085.5 0
9086.5 0
9087.5 0
9088.5 -1.45455
9089.5 0
9090.5 0
9091.5 0
9092.5 -2.90909
9093.5 0
9094.5 1
9095.5 0
9096.5 0
9097.5 0
9098.5 0
9099.5 0
9100.5 0
9101.5 0
9102.5 0
9103.5 -1.45455
9104.5 0
9105.5 0
9106.5 0
9107.5 0
9108.5 1
9109.5 -2.90909
9110.5 0
9111.5 1
9112.5 0
9113.5 0
9114.5 0
9115.5 0
9116.5 0
9117.5 0
9118.5 0
9119.5 0
9120.5 1
9121.5 0
9122.5 0
9123.5 0
9124.5 0
9125.5 0
9126.5 0
9127.5 0
9128.5 0
9129.5 0
9130.5 0
9131.5 0
9132.5 0
9133.5 0
9134.5 0
9135.5 0
9136.5 0
9137.5 1
9138.5 0
9139.5 0
9140.5 0
9141.5 0
9142.5 0
9143.5 -1.45455
9144.5 0
9145.5 0
9146.5 0
9147.5 0
9148.5 0
9149.5 0
9150.5 0
9151.5 0
9152.5 0
9153.5 0
9154.5 -1.45455
9155.5 0
9156.5 0
9157.5 0
9158.5 0
9159.5 0
9160.5 0
9161.5 0
9162.5 0
9163.5 0
9164.5 0
9165.5 0
9166.5 1
9167.5 1
9168.5 0
9169.5 -1.45455
9170.5 -1.45455
9171.5 0
9172.5 0
9173.5 1
9174.5 1
9175.5 -1.45455
9176.5 1
9177.5 0
9178.5 0
9179.5 0
9180.5 0
9181.5 0
9182.5 0
9183.5 1
9184.5 0
9185.5 0
9186.5 0
9187.5 0
9188.5 0
9189.5 0
9190.5 0
9191.5 0
9192.5 0
9193.5 0
9194.5 0
9195.5 -1.45455
9196.5 0
9197.5 1
9198.5 0
9199.5 0
9200.5 0
9201.5 0
9202.5 0
9203.5 0
9204.5 0
9205.5 0
9206.5 0
9207.5 0
9208.5 1
9209.5 0
9210.5 0
9211.5 0
9212.5 0
9213.5 0
9214.5 0
9215.5 0
9216.5 0
9217.5 0
9218.5 0
9219.5 0
9220.5 0
9221.5 0
9222.5 0
9223.5 0
9224.5 0
9225.5 0
9226.5 0
9227.5 0
9228.5 0
9229.5 0
9230.5 0
9231.5 -1.45455
9232.5 0
9233.5 0
9234.5 0
9235.5 0
9236.5 1
9237.5 1
9238.5 0
9239.5 0
9240.5 0
9241.5 0
9242.5 -1.45455
9243.5 0
9244.5 1
9245.5 -1.45455
9246.5 0
9247.5 0
9248.5 0
9249.5 0
9250.5 0
9251.5 1
9252.5 0
9253.5 1
9254.5 0
9255.5 0
9256.5 0
9257.5 0
9258.5 0
9259.5 1
9260.5 0
9261.5 1
9262.5 0
9263.5 0
9264.5 0
9265.5 0
9266.5 0
9267.5 0
9268.5 -1.45455
9269.5 0
9270.5 0
9271.5 0
9272.5 0
9273.5 0
9274.5 0
9275.5 0
9276.5 0
9277.5 0
9278.5 0
9279.5 0
9280.5 0
9281.5 0
9282.5 0
9283.5 0
9284.5 0
9285.5 0
9286.5 0
9287.5 0
9288.5 0
9289.5 -1.45455
9290.5 0
9291.5 0
9292.5 0
9293.5 0
9294.5 0
9295.5 0
9296.5 0
9297.5 0
9298.5 0
9299.5 0
9300.5 1
9301.5 0
9302.5 0
9303.5 0
9304.5 0
9305.5 0
9306.5 0
9307.5 0
9308.5 0
9309.5 1
9310.5 0
9311.5 0
9312.5 0
9313.5 0
9314.5 0
9315.5 0
9316.5 0
9317.5 0
9318.5 0
9319.5 0
9320.5 1
9321.5 0
9322.5 0
9323.5 0
9324.5 0
9325.5 0
9326.5 1
9327.5 0
9328.5 0
9329.5 0
9330.5 0
9331.5 0
9332.5 0
9333.5 -1.45455
9334.5 0
9335.5 0
9336.5 0
9337.5 0
9338.5 0
9339.5 -1.45455
9340.5 0
9341.5 1
9342.5 0
9343.5 0
9344.5 0
9345.5 0
9346.5 0
9347.5 0
9348.5 0
9349.5 0
9350.5 0
9351.5 0
9352.5 0
9353.5 0
9354.5 0
9355.5 0
9356.5 1
9357.5 0
9358.5 0
9359.5 0
9360.5 0
9361.5 0
9362.5 0
9363.5 0
9364.5 0
9365.5 0
9366.5 0
9367.5 0
9368.5 0
9369.5 -1.45455
9370.5 0
9371.5 0
9372.5 1
9373.5 0
9374.5 0
9375.5 0
9376.5 -1.45455
9377.5 0
9378.5 0
9379.5 0
9380.5 0
9381.5 0
9382.5 0
9383.5 0
9384.5 0
9385.5 0
9386.5 0
9387.5 0
9388.5 0
9389.5 0
9390.5 0
9391.5 0
9392.5 0
9393.5 0
9394.5 0
9395.5 0
9396.5 0
9397.5 0
9398.5 0
9399.5 0
9400.5 0
9401.5 0
9402.5 0
9403.5 0
9404.5 0
9405.5 0
9406.5 0
9407.5 0
9408.5 0
9409.5 0
9410.5 0
9411.5 0
9412.5 0
9413.5 0
9414.5 0
9415.5 0
9416.5 0
9417.5 0
9418.5 0
9419.5 0
9420.5 0
9421.5 0
9422.5 0
9423.5 0
9424.5 0
9425.5 0
9426.5 0
9427.5 0
9428.5 0
9429.5 0
9430.5 0
9431.5 0
9432.5 0
9433.5 0
9434.5 0
9435.5 0
9436.5 0
9437.5 0
9438.5 0
9439.5 0
9440.5 1
9441.5 0
9442.5 0
9443.5 0
9444.5 0
9445.5 0
9446.5 0
9447.5 0
9448.5 1
9449.5 0
9450.5 0
9451.5 0
9452.5 0
9453.5 0
9454.5 0
9455.5 0
9456.5 0
9457.5 0
9458.5 0
9459.5 0
9460.5 0
9461.5 0
9462.5 0
9463.5 0
9464.5 0
9465.5 0
9466.5 0
9467.5 0
9468.5 0
9469.5 0
9470.5 0
9471.5 0
9472.5 0
9473.5 0
9474.5 0
9475.5 0
9476.5 -1.45455
9477.5 2
9478.5 0
9479.5 0
9480.5 0
9481.5 0
9482.5 0
9483.5 0
9484.5 0
9485.5 0
9486.5 0
9487.5 0
9488.5 0
9489.5 0
9490.5 0
9491.5 0
9492.5 0
9493.5 0
9494.5 0
9495.5 -1.45455
9496.5 0
9497.5 0
9498.5 0
9499.5 0
9500.5 0
9501.5 0
9502.5 0
9503.5 0
9504.5 0
9505.5 0
9506.5 0
9507.5 0
9508.5 0
9509.5 0
9510.5 0
9511.5 1
9512.5 0
9513.5 0
9514.5 0
9515.5 0
9516.5 0
9517.5 0
9518.5 0
9519.5 0
9520.5 0
9521.5 0
9522.5 0
9523.5 0
9524.5 -1.45455
9525.5 0
9526.5 0
9527.5 0
9528.5 0
9529.5 0
9530.5 0
9531.5 0
9532.5 0
9533.5 0
9534.5 0
9535.5 0
9536.5 0
9537.5 0
9538.5 0
9539.5 0
9540.5 0
9541.5 0
9542.5 0
9543.5 0
9544.5 0
9545.5 0
9546.5 0
9547.5 0
9548.5 0
9549.5 0
9550.5 0
9551.5 0
9552.5 0
9553.5 0
9554.5 0
9555.5 0
9556.5 0
9557.5 0
9558.5 0
9559.5 0
9560.5 0
9561.5 0
9562.5 0
9563.5 0
9564.5 0
9565.5 0
9566.5 0
9567.5 -1.45455
9568.5 0
9569.5 0
9570.5 0
9571.5 0
9572.5 -1.45455
9573.5 1
9574.5 0
9575.5 0
9576.5 0
9577.5 0
9578.5 0
9579.5 0
9580.5 0
9581.5 0
9582.5 0
9583.5 0
9584.5 0
9585.5 0
9586.5 0
9587.5 0
9588.5 1
9589.5 1
9590.5 0
9591.5 0
9592.5 0
9593.5 0
9594.5 0
9595.5 0
9596.5 0
9597.5 0
9598.5 0
9599.5 0
9600.5 0
9601.5 0
9602.5 0
9603.5 0
9604.5 0
9605.5 0
9606.5 0
9607.5 0
9608.5 0
9609.5 0
9610.5 0
9611.5 0
9612.5 0
9613.5 0
9614.5 0
9615.5 0
9616.5 -2.90909
9617.5 0
9618.5 0
9619.5 0
9620.5 -0.454545
9621.5 0
9622.5 0
9623.5 0
9624.5 0
9625.5 0
9626.5 0
9627.5 0
9628.5 0
9629.5 0
9630.5 0
9631.5 0
9632.5 0
9633.5 0
9634.5 0
9635.5 0
9636.5 0
9637.5 0
9638.5 0
9639.5 0
9640.5 0
9641.5 0
9642.5 0
9643.5 0
9644.5 0
9645.5 0
9646.5 0
9647.5 -1.45455
9648.5 0
9649.5 0
9650.5 0
9651.5 0
9652.5 1
9653.5 -1.45455
9654.5 0
9655.5 0
9656.5 0
9657.5 0
9658.5 0
9659.5 0
9660.5 0
9661.5 0
9662.5 0
9663.5 0
9664.5 0
9665.5 0
9666.5 0
9667.5 0
9668.5 0
9669.5 1
9670.5 0
9671.5 0
9672.5 1
9673.5 0
9674.5 0
9675.5 0
9676.5 0
9677.5 0
9678.5 0
9679.5 0
9680.5 0
9681.5 0
9682.5 0
9683.5 0
9684.5 -1.45455
9685.5 0
9686.5 0
9687.5 0
9688.5 0
9689.5 0
9690.5 0
9691.5 0
9692.5 0
9693.5 0
9694.5 0
9695.5 0
9696.5 1
9697.5 0
9698.5 0
9699.5 0
9700.5 0
9701.5 0
9702.5 0
9703.5 0
9704.5 0
9705.5 0
9706.5 0
9707.5 0
9708.5 0
9709.5 0
9710.5 0
9711.5 0
9712.5 0
9713.5 0
9714.5 0
9715.5 0
9716.5 -1.45455
9717.5 0
9718.5 0
9719.5 0
9720.5 0
9721.5 0
9722.5 0
9723.5 0
9724.5 0
9725.5 0
9726.5 0
9727.5 0
9728.5 0
9729.5 0
9730.5 0
9731.5 0
9732.5 0
9733.5 0
9734.5 0
9735.5 0
9736.5 0
9737.5 0
9738.5 0
9739.5 0
9740.5 0
9741.5 0
9742.5 0
9743.5 0
9744.5 0
9745.5 0
9746.5 0
9747.5 0
9748.5 -1.45455
9749.5 0
9750.5 1
9751.5 1
9752.5 0
9753.5 1
9754.5 0
9755.5 0
9756.5 0
9757.5 0
9758.5 0
9759.5 0
9760.5 0
9761.5 0
9762.5 0
9763.5 0
9764.5 0
9765.5 0
9766.5 0
9767.5 0
9768.5 0
9769.5 0
9770.5 0
9771.5 0
9772.5 0
9773.5 0
9774.5 0
9775.5 0
9776.5 0
9777.5 0
9778.5 0
9779.5 0
9780.5 0
9781.5 0
9782.5 0
9783.5 0
9784.5 0
9785.5 0
9786.5 0
9787.5 0
9788.5 0
9789.5 0
9790.5 0
9791.5 0
9792.5 0
9793.5 0
9794.5 0
9795.5 0
9796.5 0
9797.5 0
9798.5 1
9799.5 0
9800.5 0
9801.5 0
9802.5 0
9803.5 0
9804.5 0
9805.5 0
9806.5 0
9807.5 0
9808.5 0
9809.5 0
9810.5 0
9811.5 0
9812.5 0
9813.5 0
9814.5 0
9815.5 0
9816.5 0
9817.5 0
9818.5 0
9819.5 0
9820.5 0
9821.5 0
9822.5 0
9823.5 0
9824.5 0
9825.5 0
9826.5 0
9827.5 0
9828.5 0
9829.5 0
9830.5 0
9831.5 0
9832.5 0
9833.5 0
9834.5 0
9835.5 0
9836.5 0
9837.5 0
9838.5 0
9839.5 0
9840.5 0
9841.5 0
9842.5 0
9843.5 0
9844.5 0
9845.5 0
9846.5 0
9847.5 0
9848.5 0
9849.5 0
9850.5 0
9851.5 0
9852.5 0
9853.5 0
9854.5 0
9855.5 0
9856.5 0
9857.5 0
9858.5 0
9859.5 0
9860.5 0
9861.5 0
9862.5 0
9863.5 0
9864.5 0
9865.5 0
9866.5 0
9867.5 0
9868.5 0
9869.5 0
9870.5 0
9871.5 0
9872.5 0
9873.5 0
9874.5 0
9875.5 0
9876.5 0
9877.5 0
9878.5 0
9879.5 0
9880.5 0
9881.5 0
9882.5 0
9883.5 0
9884.5 0
9885.5 0
9886.5 0
9887.5 0
9888.5 0
9889.5 0
9890.5 0
9891.5 0
9892.5 0
9893.5 0
9894.5 0
9895.5 0
9896.5 0
9897.5 0
9898.5 0
9899.5 0
9900.5 0
9901.5 0
9902.5 0
9903.5 0
9904.5 0
9905.5 0
9906.5 0
9907.5 0
9908.5 0
9909.5 0
9910.5 0
9911.5 0
9912.5 0
9913.5 0
9914.5 0
9915.5 0
9916.5 0
9917.5 0
9918.5 0
9919.5 0
9920.5 0
9921.5 0
9922.5 0
9923.5 0
9924.5 0
9925.5 0
9926.5 1
9927.5 0
9928.5 0
9929.5 0
9930.5 0
9931.5 0
9932.5 0
9933.5 0
9934.5 0
9935.5 0
9936.5 -1.45455
9937.5 0
9938.5 0
9939.5 1
9940.5 0
9941.5 0
9942.5 0
9943.5 0
9944.5 0
9945.5 0
9946.5 0
9947.5 0
9948.5 0
9949.5 0
9950.5 0
9951.5 0
9952.5 0
9953.5 0
9954.5 0
9955.5 0
9956.5 0
9957.5 0
9958.5 0
9959.5 -1.45455
9960.5 0
9961.5 0
9962.5 0
9963.5 0
9964.5 0
9965.5 0
9966.5 0
9967.5 0
9968.5 0
9969.5 0
9970.5 0
9971.5 0
9972.5 0
9973.5 0
9974.5 0
9975.5 0
9976.5 0
9977.5 0
9978.5 0
9979.5 0
9980.5 0
9981.5 0
9982.5 0
9983.5 0
9984.5 0
9985.5 0
9986.5 0
9987.5 0
9988.5 0
9989.5 0
9990.5 0
9991.5 0
9992.5 0
9993.5 0
9994.5 0
9995.5 0
9996.5 0
9997.5 0
9998.5 0
9999.5 0
10000.5 0
10001.5 0
10002.5 0
10003.5 0
10004.5 0
10005.5 0
10006.5 0
10007.5 0
10008.5 0
10009.5 0
10010.5 0
10011.5 0
10012.5 0
10013.5 0
10014.5 0
10015.5 0
10016.5 0
10017.5 0
10018.5 0
10019.5 0
10020.5 0
10021.5 0
10022.5 0
10023.5 0
10024.5 0
10025.5 0
10026.5 0
10027.5 0
10028.5 0
10029.5 0
10030.5 0
10031.5 0
10032.5 0
10033.5 0
10034.5 0
10035.5 0
10036.5 0
10037.5 0
10038.5 0
10039.5 0
10040.5 0
10041.5 0
10042.5 0
10043.5 0
10044.5 0
10045.5 0
10046.5 0
10047.5 0
10048.5 0
10049.5 0
10050.5 0
10051.5 0
10052.5 0
10053.5 0
10054.5 0
10055.5 0
10056.5 0
10057.5 0
10058.5 0
10059.5 0
10060.5 0
10061.5 0
10062.5 0
10063.5 0
10064.5 0
10065.5 0
10066.5 0
10067.5 0
10068.5 0
10069.5 0
10070.5 0
10071.5 0
10072.5 0
10073.5 0
10074.5 0
10075.5 0
10076.5 0
10077.5 0
10078.5 0
10079.5 0
10080.5 0
10081.5 0
10082.5 0
10083.5 0
10084.5 0
10085.5 0
10086.5 0
10087.5 0
10088.5 0
10089.5 0
10090.5 0
10091.5 0
10092.5 0
10093.5 0
10094.5 0
10095.5 0
10096.5 0
10097.5 0
10098.5 0
10099.5 0
10100.5 -1.45455
10101.5 0
10102.5 0
10103.5 0
10104.5 0
10105.5 0
10106.5 0
10107.5 1
10108.5 0
10109.5 0
10110.5 0
10111.5 0
10112.5 0
10113.5 0
10114.5 0
10115.5 0
10116.5 0
10117.5 0
10118.5 0
10119.5 0
10120.5 0
10121.5 0
10122.5 0
10123.5 1
10124.5 1
10125.5 0
10126.5 0
10127.5 0
10128.5 0
10129.5 0
10130.5 0
10131.5 0
10132.5 0
10133.5 0
10134.5 0
10135.5 0
10136.5 0
10137.5 0
10138.5 0
10139.5 0
10140.5 0
10141.5 0
10142.5 0
10143.5 1
10144.5 0
10145.5 0
10146.5 0
10147.5 0
10148.5 0
10149.5 0
10150.5 0
10151.5 0
10152.5 0
10153.5 0
10154.5 0
10155.5 0
10156.5 0
10157.5 0
10158.5 0
10159.5 0
10160.5 0
10161.5 0
10162.5 0
10163.5 0
10164.5 0
10165.5 0
10166.5 0
10167.5 0
10168.5 0
10169.5 0
10170.5 0
10171.5 0
10172.5 0
10173.5 0
10174.5 0
10175.5 0
10176.5 0
10177.5 0
10178.5 0
10179.5 0
10180.5 0
10181.5 0
10182.5 -1.45455
10183.5 0
10184.5 0
10185.5 0
10186.5 0
10187.5 0
10188.5 0
10189.5 0
10190.5 0
10191.5 0
10192.5 0
10193.5 0
10194.5 0
10195.5 0
10196.5 0
10197.5 0
10198.5 0
10199.5 0
10200.5 0
10201.5 0
10202.5 0
10203.5 0
10204.5 0
10205.5 0
10206.5 0
10207.5 0
10208.5 0
10209.5 0
10210.5 0
10211.5 0
10212.5 0
10213.5 0
10214.5 1
10215.5 -1.45455
10216.5 0
10217.5 0
10218.5 0
10219.5 0
10220.5 0
10221.5 0
10222.5 0
10223.5 0
10224.5 0
10225.5 0
10226.5 0
10227.5 0
10228.5 0
10229.5 0
10230.5 0
10231.5 0
10232.5 0
10233.5 0
10234.5 0
10235.5 0
10236.5 0
10237.5 0
10238.5 0
10239.5 0
10240.5 0
10241.5 0
10242.5 0
10243.5 0
10244.5 0
10245.5 0
10246.5 0
10247.5 0
10248.5 0
10249.5 0
10250.5 1
10251.5 0
10252.5 0
10253.5 0
10254.5 0
10255.5 0
10256.5 0
10257.5 0
10258.5 0
10259.5 0
10260.5 0
10261.5 0
10262.5 0
10263.5 0
10264.5 0
10265.5 0
10266.5 0
10267.5 0
10268.5 0
10269.5 0
10270.5 0
10271.5 0
10272.5 0
10273.5 0
10274.5 0
10275.5 0
10276.5 0
10277.5 0
10278.5 0
10279.5 0
10280.5 0
10281.5 0
10282.5 0
10283.5 0
10284.5 0
10285.5 0
10286.5 0
10287.5 0
10288.5 0
10289.5 0
10290.5 0
10291.5 0
10292.5 0
10293.5 0
10294.5 0
10295.5 0
10296.5 0
10297.5 0
10298.5 0
10299.5 0
10300.5 0
10301.5 0
10302.5 0
10303.5 0
10304.5 0
10305.5 0
10306.5 0
10307.5 0
10308.5 0
10309.5 0
10310.5 0
10311.5 0
10312.5 0
10313.5 0
10314.5 0
10315.5 0
10316.5 0
10317.5 0
10318.5 0
10319.5 0
10320.5 0
10321.5 0
10322.5 0
10323.5 0
10324.5 0
10325.5 0
10326.5 0
10327.5 0
10328.5 -1.45455
10329.5 0
10330.5 0
10331.5 0
10332.5 0
10333.5 0
10334.5 0
10335.5 0
10336.5 0
10337.5 0
10338.5 0
10339.5 0
10340.5 0
10341.5 0
10342.5 0
10343.5 0
10344.5 0
10345.5 0
10346.5 0
10347.5 0
10348.5 0
10349.5 0
10350.5 0
10351.5 0
10352.5 0
10353.5 0
10354.5 0
10355.5 0
10356.5 0
10357.5 0
10358.5 0
10359.5 0
10360.5 0
10361.5 0
10362.5 0
10363.5 0
10364.5 0
10365.5 0
10366.5 0
10367.5 0
10368.5 0
10369.5 0
10370.5 0
10371.5 0
10372.5 0
10373.5 0
10374.5 0
10375.5 0
10376.5 0
10377.5 0
10378.5 0
10379.5 0
10380.5 1
10381.5 0
10382.5 0
10383.5 0
10384.5 0
10385.5 0
10386.5 0
10387.5 0
10388.5 0
10389.5 0
10390.5 0
10391.5 0
10392.5 0
10393.5 0
10394.5 0
10395.5 0
10396.5 0
10397.5 0
10398.5 0
10399.5 0
10400.5 0
10401.5 0
10402.5 0
10403.5 0
10404.5 0
10405.5 0
10406.5 0
10407.5 0
10408.5 0
10409.5 0
10410.5 0
10411.5 0
10412.5 0
10413.5 0
10414.5 0
10415.5 0
10416.5 0
10417.5 0
10418.5 0
10419.5 0
10420.5 0
10421.5 0
10422.5 0
10423.5 0
10424.5 0
10425.5 0
10426.5 0
10427.5 0
10428.5 0
10429.5 0
10430.5 0
10431.5 0
10432.5 0
10433.5 0
10434.5 0
10435.5 0
10436.5 0
10437.5 0
10438.5 0
10439.5 0
10440.5 0
10441.5 0
10442.5 0
10443.5 0
10444.5 0
10445.5 0
10446.5 0
10447.5 0
10448.5 0
10449.5 0
10450.5 0
10451.5 0
10452.5 0
10453.5 0
10454.5 0
10455.5 0
10456.5 0
10457.5 0
10458.5 0
10459.5 0
10460.5 0
10461.5 0
10462.5 0
10463.5 0
10464.5 0
10465.5 0
10466.5 0
10467.5 0
10468.5 0
10469.5 0
10470.5 0
10471.5 0
10472.5 0
10473.5 0
10474.5 0
10475.5 0
10476.5 0
10477.5 0
10478.5 0
10479.5 0
10480.5 0
10481.5 0
10482.5 0
10483.5 0
10484.5 0
10485.5 0
10486.5 0
10487.5 0
10488.5 0
10489.5 0
10490.5 0
10491.5 0
10492.5 0
10493.5 0
10494.5 0
10495.5 0
10496.5 0
10497.5 0
10498.5 0
10499.5 0
10500.5 0
10501.5 0
10502.5 0
10503.5 0
10504.5 0
10505.5 0
10506.5 0
10507.5 0
10508.5 0
10509.5 0
10510.5 0
10511.5 0
10512.5 0
10513.5 0
10514.5 0
10515.5 0
10516.5 0
10517.5 0
10518.5 0
10519.5 0
10520.5 0
10521.5 0
10522.5 0
10523.5 0
10524.5 0
10525.5 0
10526.5 0
10527.5 0
10528.5 0
10529.5 0
10530.5 0
10531.5 0
10532.5 0
10533.5 0
10534.5 0
10535.5 0
10536.5 0
10537.5 0
10538.5 0
10539.5 0
10540.5 0
10541.5 0
10542.5 0
10543.5 0
10544.5 0
10545.5 0
10546.5 0
10547.5 0
10548.5 0
10549.5 0
10550.5 0
10551.5 0
10552.5 0
10553.5 0
10554.5 0
10555.5 0
10556.5 0
10557.5 0
10558.5 0
10559.5 0
10560.5 0
10561.5 0
10562.5 0
10563.5 0
10564.5 0
10565.5 0
10566.5 0
10567.5 0
10568.5 0
10569.5 0
10570.5 0
10571.5 0
10572.5 0
10573.5 0
10574.5 0
10575.5 0
10576.5 0
10577.5 0
10578.5 0
10579.5 0
10580.5 0
10581.5 0
10582.5 0
10583.5 0
10584.5 0
10585.5 0
10586.5 0
10587.5 0
10588.5 0
10589.5 0
10590.5 0
10591.5 0
10592.5 0
10593.5 0
10594.5 0
10595.5 0
10596.5 0
10597.5 0
10598.5 0
10599.5 0
10600.5 0
10601.5 0
10602.5 0
10603.5 0
10604.5 0
10605.5 0
10606.5 0
10607.5 0
10608.5 0
10609.5 0
10610.5 0
10611.5 0
10612.5 0
10613.5 0
10614.5 0
10615.5 0
10616.5 0
10617.5 0
10618.5 0
10619.5 0
10620.5 0
10621.5 0
10622.5 0
10623.5 0
10624.5 0
10625.5 0
10626.5 0
10627.5 0
10628.5 0
10629.5 0
10630.5 0
10631.5 0
10632.5 0
10633.5 0
10634.5 0
10635.5 0
10636.5 0
10637.5 0
10638.5 0
10639.5 0
10640.5 0
10641.5 0
10642.5 0
10643.5 0
10644.5 0
10645.5 0
10646.5 0
10647.5 0
10648.5 0
10649.5 0
10650.5 0
10651.5 0
10652.5 0
10653.5 0
10654.5 0
10655.5 0
10656.5 0
10657.5 0
10658.5 0
10659.5 0
10660.5 0
10661.5 0
10662.5 0
10663.5 0
10664.5 0
10665.5 0
10666.5 0
10667.5 0
10668.5 0
10669.5 0
10670.5 0
10671.5 0
10672.5 0
10673.5 0
10674.5 0
10675.5 0
10676.5 0
10677.5 0
10678.5 0
10679.5 0
10680.5 0
10681.5 0
10682.5 0
10683.5 0
10684.5 0
10685.5 -1.45455
10686.5 0
10687.5 0
10688.5 0
10689.5 0
10690.5 0
10691.5 0
10692.5 0
10693.5 0
10694.5 0
10695.5 0
10696.5 0
10697.5 0
10698.5 0
10699.5 0
10700.5 0
10701.5 0
10702.5 0
10703.5 -1.45455
10704.5 0
10705.5 0
10706.5 0
10707.5 0
10708.5 0
10709.5 0
10710.5 0
10711.5 0
10712.5 0
10713.5 0
10714.5 0
10715.5 0
10716.5 0
10717.5 0
10718.5 0
10719.5 0
10720.5 0
10721.5 0
10722.5 0
10723.5 0
10724.5 0
10725.5 0
10726.5 0
10727.5 0
10728.5 0
10729.5 0
10730.5 0
10731.5 0
10732.5 0
10733.5 0
10734.5 0
10735.5 0
10736.5 0
10737.5 0
10738.5 0
10739.5 0
10740.5 0
10741.5 0
10742.5 0
10743.5 0
10744.5 0
10745.5 0
10746.5 0
10747.5 0
10748.5 0
10749.5 0
10750.5 0
10751.5 0
10752.5 0
10753.5 0
10754.5 0
10755.5 0
10756.5 0
10757.5 0
10758.5 0
10759.5 0
10760.5 0
10761.5 0
10762.5 0
10763.5 0
10764.5 0
10765.5 0
10766.5 0
10767.5 0
10768.5 0
10769.5 0
10770.5 0
10771.5 0
10772.5 0
10773.5 0
10774.5 0
10775.5 0
10776.5 0
10777.5 0
10778.5 0
10779.5 0
10780.5 0
10781.5 0
10782.5 0
10783.5 0
10784.5 0
10785.5 0
10786.5 0
10787.5 0
10788.5 1
10789.5 0
10790.5 0
10791.5 0
10792.5 0
10793.5 0
10794.5 0
10795.5 0
10796.5 0
10797.5 0
10798.5 0
10799.5 0
10800.5 -1.45455
10801.5 0
10802.5 0
10803.5 0
10804.5 0
10805.5 0
10806.5 0
10807.5 0
10808.5 0
10809.5 0
10810.5 0
10811.5 0
10812.5 0
10813.5 0
10814.5 0
10815.5 0
10816.5 0
10817.5 0
10818.5 0
10819.5 0
10820.5 0
10821.5 0
10822.5 0
10823.5 0
10824.5 0
10825.5 0
10826.5 0
10827.5 0
10828.5 0
10829.5 -1.45455
10830.5 0
10831.5 0
10832.5 0
10833.5 0
10834.5 0
10835.5 0
10836.5 0
10837.5 0
10838.5 0
10839.5 0
10840.5 0
10841.5 0
10842.5 0
10843.5 0
10844.5 0
10845.5 0
10846.5 -1.45455
10847.5 0
10848.5 0
10849.5 0
10850.5 0
10851.5 0
10852.5 0
10853.5 0
10854.5 0
10855.5 0
10856.5 0
10857.5 0
10858.5 0
10859.5 0
10860.5 0
10861.5 0
10862.5 0
10863.5 0
10864.5 0
10865.5 0
10866.5 0
10867.5 0
10868.5 0
10869.5 0
10870.5 0
10871.5 0
10872.5 0
10873.5 0
10874.5 0
10875.5 0
10876.5 0
10877.5 0
10878.5 0
10879.5 0
10880.5 0
10881.5 0
10882.5 0
10883.5 0
10884.5 0
10885.5 0
10886.5 0
10887.5 0
10888.5 0
10889.5 0
10890.5 0
10891.5 0
10892.5 0
10893.5 0
10894.5 0
10895.5 0
10896.5 0
10897.5 0
10898.5 0
10899.5 0
10900.5 0
10901.5 0
10902.5 0
10903.5 0
10904.5 0
10905.5 0
10906.5 0
10907.5 0
10908.5 0
10909.5 0
10910.5 0
10911.5 0
10912.5 0
10913.5 0
10914.5 0
10915.5 0
10916.5 0
10917.5 0
10918.5 0
10919.5 0
10920.5 0
10921.5 0
10922.5 0
10923.5 0
10924.5 0
10925.5 0
10926.5 0
10927.5 0
10928.5 0
10929.5 0
10930.5 0
10931.5 0
10932.5 0
10933.5 0
10934.5 0
10935.5 0
10936.5 0
10937.5 0
10938.5 0
10939.5 0
10940.5 0
10941.5 0
10942.5 0
10943.5 0
10944.5 0
10945.5 0
10946.5 0
10947.5 0
10948.5 0
10949.5 0
10950.5 0
10951.5 0
10952.5 0
10953.5 0
10954.5 0
10955.5 0
10956.5 0
10957.5 0
10958.5 0
10959.5 0
10960.5 0
10961.5 0
10962.5 0
10963.5 0
10964.5 0
10965.5 0
10966.5 0
10967.5 0
10968.5 0
10969.5 0
10970.5 0
10971.5 0
10972.5 0
10973.5 0
10974.5 0
10975.5 0
10976.5 0
10977.5 0
10978.5 0
10979.5 0
10980.5 0
10981.5 0
10982.5 0
10983.5 0
10984.5 0
10985.5 0
10986.5 0
10987.5 0
10988.5 0
10989.5 0
10990.5 0
10991.5 0
10992.5 0
10993.5 0
10994.5 0
10995.5 0
10996.5 0
10997.5 0
10998.5 0
10999.5 0
11000.5 0
11001.5 0
11002.5 0
11003.5 0
11004.5 0
11005.5 0
11006.5 0
11007.5 0
11008.5 0
11009.5 0
11010.5 0
11011.5 0
11012.5 0
11013.5 0
11014.5 0
11015.5 0
11016.5 0
11017.5 0
11018.5 0
11019.5 0
11020.5 0
11021.5 0
11022.5 0
11023.5 0
11024.5 0
11025.5 0
11026.5 0
11027.5 0
11028.5 0
11029.5 0
11030.5 0
11031.5 0
11032.5 0
11033.5 0
11034.5 0
11035.5 0
11036.5 0
11037.5 0
11038.5 0
11039.5 0
11040.5 0
11041.5 0
11042.5 0
11043.5 0
11044.5 0
11045.5 0
11046.5 0
11047.5 0
11048.5 0
11049.5 0
11050.5 0
11051.5 0
11052.5 0
11053.5 0
11054.5 0
11055.5 0
11056.5 0
11057.5 0
11058.5 0
11059.5 0
11060.5 0
11061.5 0
11062.5 0
11063.5 0
11064.5 0
11065.5 0
11066.5 0
11067.5 0
11068.5 0
11069.5 0
11070.5 0
11071.5 0
11072.5 0
11073.5 0
11074.5 0
11075.5 0
11076.5 0
11077.5 0
11078.5 0
11079.5 0
11080.5 0
11081.5 0
11082.5 0
11083.5 0
11084.5 0
11085.5 0
11086.5 0
11087.5 0
11088.5 0
11089.5 0
11090.5 0
11091.5 0
11092.5 0
11093.5 0
11094.5 0
11095.5 0
11096.5 0
11097.5 0
11098.5 0
11099.5 0
11100.5 0
11101.5 0
11102.5 0
11103.5 0
11104.5 0
11105.5 0
11106.5 0
11107.5 0
11108.5 0
11109.5 0
11110.5 0
11111.5 0
11112.5 0
11113.5 0
11114.5 0
11115.5 0
11116.5 0
11117.5 0
11118.5 0
11119.5 0
11120.5 0
11121.5 0
11122.5 0
11123.5 0
11124.5 0
11125.5 0
11126.5 0
11127.5 0
11128.5 0
11129.5 0
11130.5 0
11131.5 0
11132.5 0
11133.5 0
11134.5 0
11135.5 0
11136.5 0
11137.5 0
11138.5 0
11139.5 0
11140.5 0
11141.5 0
11142.5 0
11143.5 0
11144.5 0
11145.5 0
11146.5 0
11147.5 0
11148.5 0
11149.5 0
11150.5 0
11151.5 0
11152.5 0
11153.5 0
11154.5 0
11155.5 0
11156.5 0
11157.5 0
11158.5 0
11159.5 0
11160.5 0
11161.5 0
11162.5 0
11163.5 0
11164.5 0
11165.5 0
11166.5 0
11167.5 0
11168.5 0
11169.5 0
11170.5 0
11171.5 0
11172.5 0
11173.5 0
11174.5 0
11175.5 0
11176.5 0
11177.5 0
11178.5 -1.45455
11179.5 0
11180.5 0
11181.5 0
11182.5 0
11183.5 0
11184.5 0
11185.5 0
11186.5 0
11187.5 0
11188.5 0
11189.5 0
11190.5 0
11191.5 0
11192.5 0
11193.5 0
11194.5 0
11195.5 0
11196.5 0
11197.5 0
11198.5 0
11199.5 0
11200.5 0
11201.5 0
11202.5 0
11203.5 0
11204.5 0
11205.5 0
11206.5 0
11207.5 0
11208.5 0
11209.5 0
11210.5 0
11211.5 0
11212.5 0
11213.5 0
11214.5 0
11215.5 0
11216.5 0
11217.5 0
11218.5 0
11219.5 0
11220.5 0
11221.5 0
11222.5 0
11223.5 0
11224.5 0
11225.5 0
11226.5 0
11227.5 0
11228.5 0
11229.5 0
11230.5 0
11231.5 0
11232.5 0
11233.5 0
11234.5 0
11235.5 0
11236.5 0
11237.5 0
11238.5 0
11239.5 0
11240.5 0
11241.5 0
11242.5 0
11243.5 0
11244.5 0
11245.5 0
11246.5 0
11247.5 0
11248.5 0
11249.5 0
11250.5 0
11251.5 0
11252.5 0
11253.5 0
11254.5 0
11255.5 0
11256.5 0
11257.5 0
11258.5 0
11259.5 0
11260.5 0
11261.5 0
11262.5 0
11263.5 0
11264.5 0
11265.5 0
11266.5 -1.45455
11267.5 0
11268.5 0
11269.5 0
11270.5 0
11271.5 0
11272.5 0
11273.5 0
11274.5 0
11275.5 0
11276.5 0
11277.5 0
11278.5 0
11279.5 0
11280.5 0
11281.5 0
11282.5 0
11283.5 0
11284.5 0
11285.5 0
11286.5 0
11287.5 0
11288.5 0
11289.5 0
11290.5 0
11291.5 0
11292.5 0
11293.5 0
11294.5 0
11295.5 0
11296.5 0
11297.5 0
11298.5 0
11299.5 0
11300.5 0
11301.5 0
11302.5 0
11303.5 0
11304.5 0
11305.5 0
11306.5 0
11307.5 0
11308.5 0
11309.5 0
11310.5 0
11311.5 0
11312.5 0
11313.5 0
11314.5 0
11315.5 0
11316.5 0
11317.5 0
11318.5 0
11319.5 0
11320.5 0
11321.5 0
11322.5 0
11323.5 0
11324.5 0
11325.5 0
11326.5 0
11327.5 0
11328.5 0
11329.5 0
11330.5 0
11331.5 0
11332.5 -1.45455
11333.5 0
11334.5 0
11335.5 0
11336.5 0
11337.5 0
11338.5 0
11339.5 0
11340.5 0
11341.5 0
11342.5 0
11343.5 0
11344.5 0
11345.5 0
11346.5 0
11347.5 0
11348.5 0
11349.5 0
11350.5 0
11351.5 0
11352.5 0
11353.5 0
11354.5 0
11355.5 0
11356.5 0
11357.5 0
11358.5 0
11359.5 0
11360.5 0
11361.5 0
11362.5 0
11363.5 0
11364.5 0
11365.5 0
11366.5 0
11367.5 0
11368.5 0
11369.5 0
11370.5 0
11371.5 0
11372.5 0
11373.5 0
11374.5 0
11375.5 0
11376.5 0
11377.5 0
11378.5 0
11379.5 0
11380.5 0
11381.5 0
11382.5 0
11383.5 0
11384.5 0
11385.5 0
11386.5 0
11387.5 0
11388.5 0
11389.5 0
11390.5 0
11391.5 0
11392.5 0
11393.5 0
11394.5 0
11395.5 0
11396.5 0
11397.5 0
11398.5 0
11399.5 0
11400.5 0
11401.5 0
11402.5 0
11403.5 0
11404.5 0
11405.5 0
11406.5 0
11407.5 0
11408.5 1
11409.5 0
11410.5 0
11411.5 0
11412.5 0
11413.5 0
11414.5 0
11415.5 0
11416.5 0
11417.5 0
11418.5 0
11419.5 0
11420.5 0
11421.5 0
11422.5 0
11423.5 0
11424.5 0
11425.5 0
11426.5 0
11427.5 0
11428.5 0
11429.5 0
11430.5 0
11431.5 0
11432.5 0
11433.5 0
11434.5 0
11435.5 0
11436.5 0
11437.5 0
11438.5 0
11439.5 0
11440.5 0
11441.5 0
11442.5 0
11443.5 0
11444.5 0
11445.5 0
11446.5 0
11447.5 0
11448.5 0
11449.5 0
11450.5 0
11451.5 0
11452.5 0
11453.5 0
11454.5 0
11455.5 0
11456.5 0
11457.5 0
11458.5 0
11459.5 0
11460.5 0
11461.5 0
11462.5 0
11463.5 0
11464.5 0
11465.5 0
11466.5 0
11467.5 0
11468.5 0
11469.5 0
11470.5 0
11471.5 0
11472.5 0
11473.5 0
11474.5 0
11475.5 0
11476.5 0
11477.5 0
11478.5 0
11479.5 0
11480.5 0
11481.5 0
11482.5 0
11483.5 1
11484.5 0
11485.5 0
11486.5 0
11487.5 0
11488.5 0
11489.5 0
11490.5 0
11491.5 0
11492.5 0
11493.5 0
11494.5 0
11495.5 0
11496.5 0
11497.5 0
11498.5 0
11499.5 0
11500.5 0
11501.5 0
11502.5 0
11503.5 0
11504.5 0
11505.5 0
11506.5 0
11507.5 0
11508.5 0
11509.5 0
11510.5 0
11511.5 0
11512.5 0
11513.5 0
11514.5 0
11515.5 0
11516.5 0
11517.5 0
11518.5 0
11519.5 0
11520.5 0
11521.5 0
11522.5 0
11523.5 0
11524.5 0
11525.5 0
11526.5 0
11527.5 0
11528.5 0
11529.5 0
11530.5 0
11531.5 0
11532.5 0
11533.5 0
11534.5 0
11535.5 0
11536.5 0
11537.5 0
11538.5 0
11539.5 0
11540.5 0
11541.5 0
11542.5 0
11543.5 0
11544.5 0
11545.5 0
11546.5 0
11547.5 0
11548.5 0
11549.5 0
11550.5 0
11551.5 0
11552.5 0
11553.5 0
11554.5 0
11555.5 0
11556.5 0
11557.5 0
11558.5 0
11559.5 0
11560.5 0
11561.5 0
11562.5 0
11563.5 0
11564.5 0
11565.5 0
11566.5 0
11567.5 0
11568.5 0
11569.5 0
11570.5 0
11571.5 0
11572.5 0
11573.5 0
11574.5 0
11575.5 0
11576.5 0
11577.5 0
11578.5 0
11579.5 0
11580.5 0
11581.5 0
11582.5 0
11583.5 0
11584.5 0
11585.5 0
11586.5 0
11587.5 0
11588.5 0
11589.5 0
11590.5 0
11591.5 0
11592.5 0
11593.5 0
11594.5 0
11595.5 0
11596.5 0
11597.5 0
11598.5 0
11599.5 0
11600.5 0
11601.5 0
11602.5 0
11603.5 0
11604.5 0
11605.5 0
11606.5 0
11607.5 0
11608.5 0
11609.5 0
11610.5 0
11611.5 0
11612.5 0
11613.5 0
11614.5 0
11615.5 0
11616.5 0
11617.5 0
11618.5 0
11619.5 0
11620.5 0
11621.5 0
11622.5 0
11623.5 0
11624.5 0
11625.5 0
11626.5 0
11627.5 0
11628.5 0
11629.5 0
11630.5 1
11631.5 0
11632.5 0
11633.5 0
11634.5 0
11635.5 0
11636.5 0
11637.5 0
11638.5 0
11639.5 0
11640.5 0
11641.5 0
11642.5 0
11643.5 0
11644.5 0
11645.5 0
11646.5 0
11647.5 0
11648.5 0
11649.5 0
11650.5 0
11651.5 0
11652.5 0
11653.5 0
11654.5 0
11655.5 0
11656.5 0
11657.5 0
11658.5 0
11659.5 0
11660.5 0
11661.5 0
11662.5 0
11663.5 0
11664.5 0
11665.5 0
11666.5 0
11667.5 0
11668.5 0
11669.5 0
11670.5 0
11671.5 0
11672.5 0
11673.5 0
11674.5 0
11675.5 0
11676.5 0
11677.5 0
11678.5 0
11679.5 0
11680.5 0
11681.5 0
11682.5 0
11683.5 0
11684.5 0
11685.5 0
11686.5 0
11687.5 0
11688.5 0
11689.5 0
11690.5 0
11691.5 0
11692.5 0
11693.5 0
11694.5 0
11695.5 0
11696.5 0
11697.5 0
11698.5 0
11699.5 0
11700.5 0
11701.5 0
11702.5 0
11703.5 0
11704.5 0
11705.5 0
11706.5 0
11707.5 0
11708.5 0
11709.5 0
11710.5 0
11711.5 0
11712.5 0
11713.5 0
11714.5 0
11715.5 0
11716.5 0
11717.5 0
11718.5 0
11719.5 0
11720.5 0
11721.5 0
11722.5 0
11723.5 0
11724.5 0
11725.5 0
11726.5 0
11727.5 0
11728.5 0
11729.5 0
11730.5 0
11731.5 0
11732.5 0
11733.5 0
11734.5 0
11735.5 0
11736.5 0
11737.5 0
11738.5 0
11739.5 0
11740.5 0
11741.5 0
11742.5 0
11743.5 0
11744.5 0
11745.5 0
11746.5 0
11747.5 0
11748.5 0
11749.5 0
11750.5 0
11751.5 0
11752.5 0
11753.5 0
11754.5 0
11755.5 0
11756.5 0
11757.5 0
11758.5 0
11759.5 0
11760.5 0
11761.5 0
11762.5 0
11763.5 0
11764.5 0
11765.5 0
11766.5 0
11767.5 0
11768.5 0
11769.5 0
11770.5 0
11771.5 0
11772.5 0
11773.5 0
11774.5 0
11775.5 0
11776.5 0
11777.5 0
11778.5 0
11779.5 0
11780.5 0
11781.5 0
11782.5 0
11783.5 0
11784.5 0
11785.5 0
11786.5 0
11787.5 0
11788.5 0
11789.5 0
11790.5 0
11791.5 0
11792.5 0
11793.5 0
11794.5 0
11795.5 0
11796.5 0
11797.5 0
11798.5 0
11799.5 0
11800.5 0
11801.5 0
11802.5 0
11803.5 0
11804.5 0
11805.5 0
11806.5 0
11807.5 0
11808.5 0
11809.5 0
11810.5 0
11811.5 0
11812.5 0
11813.5 0
11814.5 0
11815.5 0
11816.5 0
11817.5 0
11818.5 0
11819.5 0
11820.5 0
11821.5 0
11822.5 0
11823.5 0
11824.5 0
11825.5 0
11826.5 0
11827.5 0
11828.5 0
11829.5 0
11830.5 0
11831.5 0
11832.5 0
11833.5 0
11834.5 0
11835.5 0
11836.5 0
11837.5 0
11838.5 0
11839.5 0
11840.5 0
11841.5 0
11842.5 0
11843.5 0
11844.5 0
11845.5 0
11846.5 0
11847.5 0
11848.5 0
11849.5 0
11850.5 0
11851.5 0
11852.5 0
11853.5 0
11854.5 0
11855.5 0
11856.5 0
11857.5 0
11858.5 0
11859.5 0
11860.5 0
11861.5 0
11862.5 0
11863.5 0
11864.5 0
11865.5 0
11866.5 0
11867.5 0
11868.5 0
11869.5 0
11870.5 0
11871.5 0
11872.5 0
11873.5 0
11874.5 0
11875.5 0
11876.5 0
11877.5 0
11878.5 0
11879.5 0
11880.5 0
11881.5 0
11882.5 0
11883.5 0
11884.5 0
11885.5 0
11886.5 0
11887.5 0
11888.5 0
11889.5 0
11890.5 0
11891.5 0
11892.5 0
11893.5 0
11894.5 0
11895.5 0
11896.5 0
11897.5 0
11898.5 0
11899.5 0
11900.5 0
11901.5 0
11902.5 0
11903.5 0
11904.5 0
11905.5 0
11906.5 0
11907.5 0
11908.5 0
11909.5 0
11910.5 0
11911.5 0
11912.5 0
11913.5 0
11914.5 0
11915.5 0
11916.5 0
11917.5 0
11918.5 0
11919.5 0
11920.5 0
11921.5 0
11922.5 0
11923.5 0
11924.5 0
11925.5 0
11926.5 0
11927.5 0
11928.5 0
11929.5 0
11930.5 0
11931.5 0
11932.5 0
11933.5 0
11934.5 0
11935.5 0
11936.5 0
11937.5 0
11938.5 0
11939.5 0
11940.5 0
11941.5 0
11942.5 0
11943.5 0
11944.5 0
11945.5 0
11946.5 0
11947.5 0
11948.5 0
11949.5 0
11950.5 0
11951.5 0
11952.5 0
11953.5 0
11954.5 0
11955.5 0
11956.5 0
11957.5 0
11958.5 0
11959.5 0
11960.5 0
11961.5 0
11962.5 0
11963.5 0
11964.5 0
11965.5 0
11966.5 0
11967.5 0
11968.5 0
11969.5 0
11970.5 1
11971.5 0
11972.5 0
11973.5 0
11974.5 0
11975.5 0
11976.5 0
11977.5 0
11978.5 0
11979.5 0
11980.5 0
11981.5 0
11982.5 0
11983.5 0
11984.5 0
11985.5 1
11986.5 0
11987.5 0
11988.5 0
11989.5 0
11990.5 0
11991.5 0
11992.5 0
11993.5 0
11994.5 0
11995.5 0
11996.5 0
11997.5 0
11998.5 0
11999.5 0
