# EGG_ProjY_E1024.5(3.5)_B1035.0(2.0)_B1013.0(2.0)
# X axis : Energy (keV) [Y axis]
# Y axis : Counts/1 keV
# N Bins : 12000
# X Min : 0
# X Max : 12000
# X value at the center of the bins
0.5 0
1.5 0
2.5 0
3.5 0
4.5 0
5.5 60
6.5 46.625
7.5 90.125
8.5 57.25
9.5 24.75
10.5 55.5
11.5 77.875
12.5 35.5
13.5 111.625
14.5 125.125
15.5 220.5
16.5 312
17.5 359.75
18.5 379
19.5 531.625
20.5 683
21.5 972.625
22.5 1017.5
23.5 1336.25
24.5 1506.12
25.5 1823.5
26.5 1990.25
27.5 2204
28.5 2349.62
29.5 2568.88
30.5 2621.25
31.5 2791.38
32.5 3209.88
33.5 3311.5
34.5 3797
35.5 3683.5
36.5 3622.62
37.5 3814.5
38.5 3697.88
39.5 3723.25
40.5 3991.5
41.5 3960.38
42.5 3785.38
43.5 3496
44.5 4152.12
45.5 4254
46.5 4445.62
47.5 4156.25
48.5 4124.25
49.5 4347
50.5 4326.38
51.5 4366.25
52.5 4304.12
53.5 4699.75
54.5 4491.62
55.5 4590.25
56.5 4647.12
57.5 5705.38
58.5 6546.12
59.5 6930.88
60.5 5581.88
61.5 4515.12
62.5 4792.62
63.5 4381.38
64.5 4711.38
65.5 4980.75
66.5 5776.25
67.5 5963.62
68.5 5753
69.5 5373.5
70.5 5489.12
71.5 5268.25
72.5 5418.75
73.5 6227.38
74.5 8717.38
75.5 9577.75
76.5 10819.6
77.5 11912.1
78.5 7630.12
79.5 5079.62
80.5 4801
81.5 4980.88
82.5 4724.25
83.5 4933.38
84.5 4807.5
85.5 5669.75
86.5 6658
87.5 7477.75
88.5 5984.88
89.5 4813.5
90.5 4133.25
91.5 3456.88
92.5 3693
93.5 4690.88
94.5 5152.62
95.5 5733.75
96.5 6207.25
97.5 7380
98.5 8648.12
99.5 9324.5
100.5 10020.1
101.5 10155
102.5 10146.2
103.5 9583.62
104.5 8480.88
105.5 7294.62
106.5 6023.62
107.5 5362.88
108.5 4836.62
109.5 4201.38
110.5 3052
111.5 1260.75
112.5 195.25
113.5 547.375
114.5 2085.38
115.5 3645.62
116.5 4711.25
117.5 5073.62
118.5 3168
119.5 -345.25
120.5 -4259.5
121.5 -6499.25
122.5 -5434.12
123.5 -2455.25
124.5 2213.88
125.5 5592.12
126.5 8484.62
127.5 11603.2
128.5 17244.4
129.5 23689.4
130.5 28354.6
131.5 30820.5
132.5 31390.1
133.5 31124
134.5 28296.1
135.5 22379
136.5 14353.4
137.5 8892.88
138.5 6566.25
139.5 5350
140.5 1625.88
141.5 -5250.38
142.5 -11925.4
143.5 -16927.9
144.5 -15006.9
145.5 -9874.62
146.5 -1972.5
147.5 3910.75
148.5 6298.5
149.5 6822.62
150.5 6663.25
151.5 6914.88
152.5 7069.25
153.5 7139.88
154.5 7508.75
155.5 7773.38
156.5 8262.5
157.5 8291.62
158.5 8450.38
159.5 8436.25
160.5 8806.38
161.5 8361
162.5 8405.75
163.5 8378
164.5 8135.38
165.5 7882.38
166.5 7915.12
167.5 7690.38
168.5 7326
169.5 7639.25
170.5 7532.12
171.5 7629.38
172.5 7640.12
173.5 9104.75
174.5 10192
175.5 8785.5
176.5 7788.38
177.5 7786.38
178.5 8182.88
179.5 8043.38
180.5 7899.62
181.5 7914.38
182.5 7716
183.5 7806.62
184.5 7594.62
185.5 7525
186.5 7745.38
187.5 7779.88
188.5 7360.5
189.5 7688.62
190.5 7602.88
191.5 7600.12
192.5 7725.75
193.5 7241.25
194.5 7843.62
195.5 7542.5
196.5 7527.88
197.5 7576
198.5 7900.88
199.5 7803.88
200.5 8459.38
201.5 10298.5
202.5 10497.6
203.5 8918.12
204.5 7973
205.5 7526.5
206.5 8018.38
207.5 8003.25
208.5 7975.75
209.5 9209.62
210.5 10049.4
211.5 10327.9
212.5 9724.25
213.5 8924.12
214.5 8542.5
215.5 8624
216.5 8790.62
217.5 9093.25
218.5 8949.38
219.5 8436
220.5 8709.38
221.5 8415.62
222.5 8572.25
223.5 8151.12
224.5 8145.25
225.5 8176.62
226.5 8050.38
227.5 8144.25
228.5 8079.12
229.5 8351.25
230.5 8518.75
231.5 8214.75
232.5 8768.12
233.5 8892.12
234.5 9022
235.5 9298.88
236.5 9174.38
237.5 9386.38
238.5 9471
239.5 9207
240.5 8878.75
241.5 8604.75
242.5 8766.25
243.5 8412.62
244.5 8188.62
245.5 7916.5
246.5 7515.12
247.5 7466.88
248.5 7271.62
249.5 7155.12
250.5 7572.12
251.5 7204.5
252.5 7671.5
253.5 7370
254.5 7623
255.5 6688.75
256.5 7063.75
257.5 6569.38
258.5 6910.25
259.5 6685.12
260.5 6868.75
261.5 6870.5
262.5 7162.75
263.5 6635.38
264.5 6965.88
265.5 7104.12
266.5 7222
267.5 7153.5
268.5 7400.5
269.5 7068.75
270.5 7057.5
271.5 7162.25
272.5 6600.62
273.5 6767.12
274.5 6704
275.5 6442
276.5 6439.75
277.5 6295
278.5 6041.38
279.5 6121.25
280.5 5886.62
281.5 5956.12
282.5 6075
283.5 6741.38
284.5 6411.12
285.5 6403.38
286.5 6343.25
287.5 6168.62
288.5 6291.75
289.5 5984.88
290.5 6174.62
291.5 6015.62
292.5 5918.62
293.5 6143
294.5 5501.75
295.5 5492.38
296.5 5501.25
297.5 6100.38
298.5 7425
299.5 8354.12
300.5 6997.5
301.5 5929.38
302.5 5837.25
303.5 5771.5
304.5 5909.88
305.5 5563.25
306.5 5960.88
307.5 5450.5
308.5 5478.5
309.5 5256.5
310.5 5775
311.5 6086.38
312.5 5494.88
313.5 5224.62
314.5 5491.62
315.5 5384.88
316.5 5529.12
317.5 5231.88
318.5 5440.5
319.5 5343.75
320.5 5646.38
321.5 5578.88
322.5 5706.25
323.5 5338.5
324.5 5651.88
325.5 5505.12
326.5 5022.62
327.5 5282.62
328.5 5268.88
329.5 5276.75
330.5 5565.62
331.5 5599
332.5 5296.38
333.5 5225
334.5 5068.62
335.5 5104.25
336.5 4834.88
337.5 5149.25
338.5 5084.88
339.5 5150.5
340.5 5208.62
341.5 5123.25
342.5 5105
343.5 5219.25
344.5 5132.5
345.5 4939.62
346.5 5122
347.5 5209.75
348.5 5288.62
349.5 5237.12
350.5 5272.75
351.5 5158.25
352.5 5088.62
353.5 4828.25
354.5 4688.38
355.5 4999.5
356.5 4966.62
357.5 5013.5
358.5 5069.25
359.5 4998.12
360.5 5260.75
361.5 5196.25
362.5 5099.62
363.5 5289.25
364.5 4983.88
365.5 5320.38
366.5 7118.5
367.5 14805.8
368.5 20803.9
369.5 11739
370.5 5945.62
371.5 4963.25
372.5 4947.5
373.5 4817.88
374.5 4558.88
375.5 4411.62
376.5 4354.25
377.5 4368.38
378.5 4325.5
379.5 4466.12
380.5 4412.75
381.5 4614.25
382.5 4521.88
383.5 4424.75
384.5 4587.38
385.5 4406.25
386.5 4600.5
387.5 4571.75
388.5 4821.88
389.5 4441.38
390.5 4106.38
391.5 4275
392.5 3961.62
393.5 3999.88
394.5 4258
395.5 4121.75
396.5 4254.62
397.5 4254.5
398.5 4318.62
399.5 4766.75
400.5 5245.12
401.5 9132.12
402.5 33754.1
403.5 106795
404.5 113393
405.5 39156.4
406.5 9670.5
407.5 4723.12
408.5 4142.12
409.5 3910
410.5 3796.12
411.5 3761.25
412.5 3830.88
413.5 3389.88
414.5 3199.62
415.5 3011.5
416.5 3556.5
417.5 3426.62
418.5 3668
419.5 3529.75
420.5 3471.12
421.5 3396.12
422.5 3868
423.5 3368.25
424.5 3234.38
425.5 3596.62
426.5 3386.75
427.5 3417.5
428.5 3371.25
429.5 3526.5
430.5 3335.38
431.5 3646.25
432.5 3507.75
433.5 3757.5
434.5 3703.88
435.5 3541.38
436.5 3470.38
437.5 3501.5
438.5 3442.38
439.5 3506.5
440.5 3662.5
441.5 3612.88
442.5 3325.5
443.5 3477.75
444.5 3520.75
445.5 3359.25
446.5 3281.5
447.5 3370.62
448.5 3475.62
449.5 3149.75
450.5 3189.62
451.5 3380.5
452.5 3582.88
453.5 3539.38
454.5 3552.25
455.5 3417
456.5 3512.62
457.5 3227.88
458.5 3420.25
459.5 3450.38
460.5 3172
461.5 2830
462.5 2698
463.5 2564.25
464.5 2387.75
465.5 2567.62
466.5 2991.12
467.5 3077.88
468.5 3705.25
469.5 3866.75
470.5 3948.5
471.5 4474.38
472.5 4915.25
473.5 4987.12
474.5 5270.25
475.5 5136.38
476.5 5380.5
477.5 4589.75
478.5 4215.62
479.5 4000.25
480.5 3685.12
481.5 3601.12
482.5 3324.62
483.5 3606.5
484.5 3200.5
485.5 2650.38
486.5 2307.88
487.5 2782.38
488.5 2977
489.5 3091.25
490.5 3351.88
491.5 3485
492.5 3494
493.5 3380.5
494.5 3505.25
495.5 3306.88
496.5 3027.88
497.5 3314.12
498.5 3169.38
499.5 3277.5
500.5 3404
501.5 3105.62
502.5 3110.5
503.5 3352
504.5 2966.62
505.5 3352.25
506.5 4073.38
507.5 5295.5
508.5 9168.12
509.5 15887.9
510.5 22070.8
511.5 20961.5
512.5 14742.8
513.5 8142.25
514.5 4868.38
515.5 3788
516.5 3379.12
517.5 3284.12
518.5 3180.38
519.5 3252.88
520.5 3075.12
521.5 2990.62
522.5 3071.88
523.5 2974.88
524.5 2907
525.5 2996.5
526.5 2746
527.5 2713.38
528.5 2899.12
529.5 2973.5
530.5 2824.75
531.5 3004.5
532.5 2962.12
533.5 3025.88
534.5 3169.62
535.5 2747.38
536.5 2973.25
537.5 2756.5
538.5 2751.75
539.5 2697.75
540.5 2925.62
541.5 3007.62
542.5 2818
543.5 2784.62
544.5 2905
545.5 2861.62
546.5 2845.62
547.5 2728.88
548.5 2970.62
549.5 2890.12
550.5 2965.38
551.5 2874.12
552.5 2889.5
553.5 2962.38
554.5 2807.12
555.5 2991.75
556.5 2865.62
557.5 2894.88
558.5 2929.25
559.5 2850.75
560.5 3018.5
561.5 3043.88
562.5 2898.25
563.5 2679.75
564.5 2959.38
565.5 2822.75
566.5 2962.38
567.5 2807.75
568.5 2891.88
569.5 2813
570.5 2928.25
571.5 2981.62
572.5 2790.75
573.5 2905.88
574.5 2754.62
575.5 2636
576.5 2787.75
577.5 2774.38
578.5 2867.12
579.5 2770.5
580.5 2772.62
581.5 2849.75
582.5 2927.88
583.5 3155.75
584.5 2910.75
585.5 2716.12
586.5 2822.12
587.5 2604.25
588.5 2856.38
589.5 2554.62
590.5 2827
591.5 2754.12
592.5 2858.75
593.5 2796.62
594.5 2770.88
595.5 2619.5
596.5 2390.75
597.5 2374.88
598.5 2402
599.5 2409.88
600.5 2565.38
601.5 2536.38
602.5 3037.75
603.5 2928.62
604.5 4293.88
605.5 6009.75
606.5 5399.75
607.5 4228.38
608.5 3931
609.5 3592
610.5 3725.12
611.5 3222.25
612.5 3224.62
613.5 2976.62
614.5 2737
615.5 2691.5
616.5 2637
617.5 2517.25
618.5 2346.5
619.5 2382.62
620.5 2430.38
621.5 2582.75
622.5 2482.25
623.5 2756.38
624.5 2950.62
625.5 2814.5
626.5 2711.25
627.5 2316
628.5 2224.38
629.5 2656.75
630.5 2450.88
631.5 2727
632.5 2768.5
633.5 2693.38
634.5 2779.25
635.5 2788.62
636.5 2464
637.5 2700.88
638.5 2725.62
639.5 2490.62
640.5 2683.25
641.5 2700
642.5 2746
643.5 2802.88
644.5 3087.75
645.5 3743.25
646.5 4171.12
647.5 3953.75
648.5 3107.12
649.5 3361
650.5 3888.62
651.5 3713.62
652.5 2832.62
653.5 2868.62
654.5 2804.75
655.5 2788.75
656.5 2809.88
657.5 2611.12
658.5 2786.5
659.5 2743.75
660.5 2829.62
661.5 2648
662.5 2844
663.5 2590.25
664.5 2421.25
665.5 2309.62
666.5 2517
667.5 3046
668.5 2889.12
669.5 3066.12
670.5 2808.12
671.5 2879.5
672.5 2910.75
673.5 2735.12
674.5 2727.25
675.5 2648.62
676.5 2812.62
677.5 2651
678.5 2719.25
679.5 2635
680.5 2774.75
681.5 3139.88
682.5 3242.5
683.5 3006.12
684.5 2877.25
685.5 3147
686.5 3405
687.5 3406.5
688.5 2884.12
689.5 2726.25
690.5 2779.88
691.5 2637.75
692.5 2745.75
693.5 2647.75
694.5 2768.25
695.5 2811.88
696.5 3102
697.5 3156.75
698.5 2897.25
699.5 2839.62
700.5 3104.75
701.5 3443.75
702.5 4102
703.5 4360.38
704.5 3242.38
705.5 2975.12
706.5 2835.88
707.5 2847
708.5 2959.12
709.5 2795.12
710.5 2548.12
711.5 2343.38
712.5 2802
713.5 2784
714.5 2722.88
715.5 2696
716.5 2695.5
717.5 2823.38
718.5 2766.25
719.5 2913.5
720.5 2753.62
721.5 2821.38
722.5 2982
723.5 3050
724.5 2805.62
725.5 2750.38
726.5 2876.25
727.5 3047.62
728.5 2770.88
729.5 2715.38
730.5 2668.38
731.5 2886.25
732.5 2833.12
733.5 2732.25
734.5 2917.75
735.5 2816.75
736.5 3148.88
737.5 3790
738.5 3668.38
739.5 3189.62
740.5 2646.38
741.5 2797.5
742.5 2564.25
743.5 2520
744.5 2381.75
745.5 2534.62
746.5 2806.12
747.5 2928.25
748.5 3131.62
749.5 2989.25
750.5 3044.12
751.5 3275.5
752.5 3067
753.5 3204.38
754.5 3337.25
755.5 3301.12
756.5 3130.25
757.5 3015.25
758.5 2892.88
759.5 2806.25
760.5 2807
761.5 2154.88
762.5 2796
763.5 2583.62
764.5 2592
765.5 2614.75
766.5 2463.5
767.5 2732.88
768.5 2560.12
769.5 2733.25
770.5 2761.62
771.5 3006
772.5 2897.62
773.5 2749.25
774.5 2646.62
775.5 2998.88
776.5 2909.38
777.5 2697.12
778.5 2813
779.5 3120.5
780.5 3023.12
781.5 3125.62
782.5 2954.75
783.5 2920.5
784.5 3033
785.5 3032.38
786.5 2981.88
787.5 3068.25
788.5 2916.62
789.5 2989.12
790.5 2971
791.5 2932.75
792.5 2994.62
793.5 3229.12
794.5 3017.62
795.5 3149.12
796.5 2774.12
797.5 2974.25
798.5 2891.38
799.5 2834.12
800.5 2966.25
801.5 2923.88
802.5 2908.12
803.5 3032
804.5 3148.25
805.5 2938.12
806.5 2863.88
807.5 3099.62
808.5 3065.25
809.5 2990.25
810.5 2920.88
811.5 3208.5
812.5 3053.75
813.5 3118.62
814.5 3512
815.5 3557
816.5 3530.75
817.5 3239
818.5 2973.38
819.5 3115.75
820.5 3187.75
821.5 3258.62
822.5 3312.88
823.5 3204.75
824.5 3167.12
825.5 3111
826.5 3032.12
827.5 3091.12
828.5 3027.12
829.5 3085.88
830.5 3343
831.5 3251
832.5 3167.62
833.5 3047.12
834.5 3105.25
835.5 3102.38
836.5 2979.88
837.5 2923.62
838.5 3187.38
839.5 3067.62
840.5 3201.25
841.5 3259.62
842.5 3286.75
843.5 3324.62
844.5 3302.25
845.5 3498
846.5 3485.12
847.5 3524.12
848.5 3178
849.5 3341.25
850.5 3098.38
851.5 3283
852.5 3273.75
853.5 3244
854.5 3271.62
855.5 3225.25
856.5 3414.25
857.5 3494.62
858.5 3449.25
859.5 3563.5
860.5 3519.12
861.5 3774
862.5 3872
863.5 3673.5
864.5 3689.5
865.5 3598.88
866.5 3628.38
867.5 3291.75
868.5 3222.12
869.5 3048.25
870.5 3294.38
871.5 4055.25
872.5 4133
873.5 3537
874.5 3579.25
875.5 3980.62
876.5 4011.5
877.5 4016.25
878.5 3830.38
879.5 3825.62
880.5 3803.25
881.5 3715.62
882.5 3668.62
883.5 3712.12
884.5 3729.12
885.5 4094.75
886.5 4843.62
887.5 5534.38
888.5 5046.25
889.5 4226.75
890.5 3770.12
891.5 3771.88
892.5 3991.38
893.5 4024
894.5 3943.88
895.5 4182.12
896.5 4256.12
897.5 4220.88
898.5 4301.12
899.5 4094.88
900.5 4219
901.5 4176
902.5 4193.5
903.5 4476.12
904.5 4241.25
905.5 4342.5
906.5 4057.25
907.5 4393
908.5 4226.25
909.5 4384.25
910.5 4193.12
911.5 4514.75
912.5 4280
913.5 4489.75
914.5 4573.75
915.5 4331.25
916.5 4399.25
917.5 4350.5
918.5 4264.88
919.5 4069.25
920.5 4100.62
921.5 4045.75
922.5 3897.88
923.5 3670.75
924.5 3997
925.5 4100.88
926.5 3944.25
927.5 4106.38
928.5 3867.5
929.5 3903.88
930.5 3880
931.5 3804.75
932.5 3959
933.5 4135.12
934.5 4003.38
935.5 4082.38
936.5 3911.38
937.5 3917.12
938.5 4124.88
939.5 3950.25
940.5 3952
941.5 4024.12
942.5 4008.62
943.5 3986.75
944.5 4084.88
945.5 3938.88
946.5 3641.62
947.5 3499.5
948.5 3429.88
949.5 3178.62
950.5 3338.38
951.5 3069.25
952.5 3373.5
953.5 3378.5
954.5 3200.75
955.5 3193.88
956.5 3417.25
957.5 3643.62
958.5 3338.88
959.5 3085
960.5 3083.5
961.5 2986.62
962.5 2999.75
963.5 2937
964.5 2926.38
965.5 2797.88
966.5 2777.25
967.5 2815
968.5 2895.62
969.5 2904.12
970.5 2835.38
971.5 2751.88
972.5 3013.88
973.5 3099.62
974.5 3256
975.5 3065.62
976.5 3040.62
977.5 2944.5
978.5 2872.75
979.5 2920
980.5 2729.5
981.5 2475.75
982.5 2386.38
983.5 2532.5
984.5 2627.75
985.5 2570
986.5 2749.75
987.5 2539.38
988.5 2698.88
989.5 2632.25
990.5 2611
991.5 2569.38
992.5 2509.5
993.5 2599.25
994.5 2420.62
995.5 2379
996.5 2555.75
997.5 2592.75
998.5 2421.25
999.5 2490
1000.5 2392.62
1001.5 2144.25
1002.5 2537.12
1003.5 2202.12
1004.5 2383.25
1005.5 2487.62
1006.5 3341
1007.5 3981.12
1008.5 3389.75
1009.5 2761.88
1010.5 2252
1011.5 2215.12
1012.5 2230.62
1013.5 2248.75
1014.5 2157.38
1015.5 2165.88
1016.5 2106.38
1017.5 2310.12
1018.5 2127.62
1019.5 2307.5
1020.5 1994.12
1021.5 2103.88
1022.5 2144.25
1023.5 2341.88
1024.5 2065.75
1025.5 2418.38
1026.5 2192.62
1027.5 2111.75
1028.5 2067.62
1029.5 2068.62
1030.5 2019.5
1031.5 1987
1032.5 2088.5
1033.5 2003.38
1034.5 1787.5
1035.5 1974.25
1036.5 1779.75
1037.5 1792.75
1038.5 1899.38
1039.5 1843
1040.5 1885.12
1041.5 1929.62
1042.5 1905.25
1043.5 1882.75
1044.5 1910.62
1045.5 1903
1046.5 2005.12
1047.5 2276.25
1048.5 3806.25
1049.5 8402.88
1050.5 13527.2
1051.5 10211.6
1052.5 4157
1053.5 2203
1054.5 1746.25
1055.5 1682.25
1056.5 1816.75
1057.5 1820.5
1058.5 1611.5
1059.5 1545.62
1060.5 1814.25
1061.5 1645.62
1062.5 1531.75
1063.5 1669.75
1064.5 1778.88
1065.5 1631.88
1066.5 1595.88
1067.5 1625.62
1068.5 1482.5
1069.5 1795.25
1070.5 1583.5
1071.5 1611
1072.5 1983.75
1073.5 1472.62
1074.5 1647.62
1075.5 1677.88
1076.5 1462.88
1077.5 1593.12
1078.5 1578.38
1079.5 1616.25
1080.5 1657.75
1081.5 1596.38
1082.5 1678.38
1083.5 1455.62
1084.5 1480.12
1085.5 1627.62
1086.5 1605.12
1087.5 1539
1088.5 1725.25
1089.5 2524.25
1090.5 3346.12
1091.5 3765
1092.5 2676.25
1093.5 1798.62
1094.5 1596
1095.5 1517.12
1096.5 1419.62
1097.5 1523.38
1098.5 1429.5
1099.5 1648.88
1100.5 1518.88
1101.5 1480.62
1102.5 1548.88
1103.5 1476.38
1104.5 1403.25
1105.5 1353.75
1106.5 1151.38
1107.5 1026.12
1108.5 1111.38
1109.5 1226.62
1110.5 1418.5
1111.5 1428.75
1112.5 1400.25
1113.5 1378.62
1114.5 1418.25
1115.5 1374.38
1116.5 1605.38
1117.5 1464
1118.5 1469.38
1119.5 1536.5
1120.5 1701.75
1121.5 2217
1122.5 4587.88
1123.5 16005.4
1124.5 57935.8
1125.5 139956
1126.5 158808
1127.5 73968.2
1128.5 17276.8
1129.5 4027.5
1130.5 1934.62
1131.5 1256.38
1132.5 1224.62
1133.5 1075.75
1134.5 1078.25
1135.5 1051.12
1136.5 1057
1137.5 980.75
1138.5 1047.12
1139.5 1109.5
1140.5 1027.5
1141.5 1170.5
1142.5 1249.75
1143.5 1136
1144.5 1172
1145.5 1123
1146.5 1257
1147.5 1268.38
1148.5 1123.12
1149.5 1239.12
1150.5 1147.25
1151.5 1309.38
1152.5 1811.5
1153.5 4673.5
1154.5 18570.2
1155.5 67834.6
1156.5 148825
1157.5 151160
1158.5 64836.4
1159.5 14118.2
1160.5 3122.88
1161.5 1409.75
1162.5 973
1163.5 807.25
1164.5 767.75
1165.5 827.875
1166.5 711.375
1167.5 697.125
1168.5 791.5
1169.5 678.125
1170.5 804
1171.5 906
1172.5 792.875
1173.5 818.75
1174.5 755.375
1175.5 838.875
1176.5 704
1177.5 704.25
1178.5 779.5
1179.5 682.625
1180.5 761.5
1181.5 918.5
1182.5 1156.12
1183.5 921.25
1184.5 719.125
1185.5 154.25
1186.5 -87.75
1187.5 -364.875
1188.5 -105.125
1189.5 81.5
1190.5 479.375
1191.5 690.875
1192.5 916.75
1193.5 1270.12
1194.5 1695.12
1195.5 1497.25
1196.5 1612
1197.5 1855.88
1198.5 1942.25
1199.5 1772
1200.5 1620
1201.5 1399
1202.5 1079.88
1203.5 812.75
1204.5 717
1205.5 636.75
1206.5 367.25
1207.5 233.125
1208.5 82.75
1209.5 -74.375
1210.5 -63.75
1211.5 72.625
1212.5 501.25
1213.5 944.25
1214.5 1296
1215.5 1083
1216.5 968
1217.5 1057.75
1218.5 1278.25
1219.5 1207.62
1220.5 863.125
1221.5 769.875
1222.5 816.375
1223.5 690.5
1224.5 604.875
1225.5 707.875
1226.5 668.75
1227.5 707.125
1228.5 904.375
1229.5 979.375
1230.5 877.875
1231.5 758.375
1232.5 677.625
1233.5 714.875
1234.5 730.25
1235.5 668.375
1236.5 748.75
1237.5 646.75
1238.5 694.625
1239.5 625.75
1240.5 696.375
1241.5 650
1242.5 712.875
1243.5 1043.75
1244.5 1573.75
1245.5 1370.88
1246.5 980.625
1247.5 741.125
1248.5 564.25
1249.5 797.125
1250.5 751.25
1251.5 641
1252.5 706.375
1253.5 700
1254.5 689.25
1255.5 887
1256.5 937.625
1257.5 784.125
1258.5 854.5
1259.5 870.5
1260.5 1023.12
1261.5 876.25
1262.5 715.25
1263.5 983
1264.5 1307.25
1265.5 2652.75
1266.5 3983.62
1267.5 3220.88
1268.5 1512.75
1269.5 838.25
1270.5 645.5
1271.5 670.875
1272.5 697.5
1273.5 894.25
1274.5 1111.62
1275.5 2012.62
1276.5 2402.12
1277.5 1661.38
1278.5 1144.12
1279.5 694.125
1280.5 773.125
1281.5 734.375
1282.5 640.25
1283.5 723.375
1284.5 702.75
1285.5 678.5
1286.5 675.125
1287.5 738.75
1288.5 626.75
1289.5 649.875
1290.5 680
1291.5 762.875
1292.5 737.25
1293.5 759.5
1294.5 739.875
1295.5 671.25
1296.5 713.5
1297.5 618.875
1298.5 722.875
1299.5 617.25
1300.5 758
1301.5 692.375
1302.5 606.875
1303.5 735.125
1304.5 611.375
1305.5 681.75
1306.5 651.25
1307.5 720.125
1308.5 544.625
1309.5 653.875
1310.5 794
1311.5 811
1312.5 866.25
1313.5 1196.12
1314.5 1642.62
1315.5 1352
1316.5 1101.25
1317.5 796.625
1318.5 745.25
1319.5 719.875
1320.5 641.5
1321.5 621.125
1322.5 693.375
1323.5 719.625
1324.5 840.25
1325.5 679.375
1326.5 696.75
1327.5 717.5
1328.5 793.875
1329.5 707.75
1330.5 895.75
1331.5 701.125
1332.5 728.75
1333.5 689.125
1334.5 718.625
1335.5 721.5
1336.5 748.25
1337.5 663.625
1338.5 674.25
1339.5 814
1340.5 744.5
1341.5 813.375
1342.5 1060
1343.5 983.5
1344.5 877.625
1345.5 870.875
1346.5 812.25
1347.5 798
1348.5 687.375
1349.5 648.125
1350.5 648
1351.5 809.875
1352.5 732.25
1353.5 783.125
1354.5 704.75
1355.5 763.75
1356.5 666.25
1357.5 704.625
1358.5 702.125
1359.5 750.625
1360.5 644.875
1361.5 694.75
1362.5 664.125
1363.5 738.5
1364.5 764.875
1365.5 684.375
1366.5 714.375
1367.5 782.75
1368.5 651.875
1369.5 617.125
1370.5 647.625
1371.5 863.25
1372.5 842
1373.5 771.75
1374.5 859.375
1375.5 838.25
1376.5 851.25
1377.5 743.75
1378.5 689.125
1379.5 778.5
1380.5 729.375
1381.5 718.625
1382.5 725.875
1383.5 836.5
1384.5 773.125
1385.5 833.375
1386.5 725.5
1387.5 796.75
1388.5 768.625
1389.5 695.875
1390.5 711
1391.5 682.625
1392.5 710.125
1393.5 649.25
1394.5 629.375
1395.5 681.625
1396.5 696.625
1397.5 648.25
1398.5 615.25
1399.5 693.25
1400.5 761.625
1401.5 638.375
1402.5 739.125
1403.5 693.75
1404.5 594.25
1405.5 642
1406.5 582.5
1407.5 666.625
1408.5 637.125
1409.5 646.375
1410.5 669.25
1411.5 774.5
1412.5 649.625
1413.5 682.875
1414.5 742.5
1415.5 935.625
1416.5 986
1417.5 1011.25
1418.5 814.375
1419.5 834
1420.5 911
1421.5 788
1422.5 618.375
1423.5 631.25
1424.5 621.625
1425.5 566.125
1426.5 656.75
1427.5 725.625
1428.5 742.75
1429.5 802.75
1430.5 580
1431.5 743.625
1432.5 759.5
1433.5 778.625
1434.5 776.25
1435.5 677.25
1436.5 743.375
1437.5 749
1438.5 738.875
1439.5 665.125
1440.5 648
1441.5 746.875
1442.5 615.375
1443.5 692.375
1444.5 729.875
1445.5 665.75
1446.5 648.625
1447.5 704.875
1448.5 670
1449.5 730.875
1450.5 661.5
1451.5 738.25
1452.5 577.125
1453.5 695.625
1454.5 704.25
1455.5 617.875
1456.5 663.75
1457.5 628.25
1458.5 731
1459.5 745.75
1460.5 720.375
1461.5 670.375
1462.5 788.875
1463.5 643.25
1464.5 608.25
1465.5 653.5
1466.5 623
1467.5 648.875
1468.5 764.75
1469.5 787.5
1470.5 588
1471.5 596.5
1472.5 649.5
1473.5 706.25
1474.5 595.375
1475.5 639
1476.5 570.125
1477.5 664.5
1478.5 653.75
1479.5 592.125
1480.5 621.75
1481.5 580.75
1482.5 618.75
1483.5 586.125
1484.5 616.625
1485.5 659.25
1486.5 543.125
1487.5 766.125
1488.5 728.5
1489.5 680.75
1490.5 702.5
1491.5 848.125
1492.5 793.625
1493.5 1151.88
1494.5 1420.12
1495.5 1245.88
1496.5 917.875
1497.5 1049.88
1498.5 1530
1499.5 1529.75
1500.5 1199.88
1501.5 854.25
1502.5 630.75
1503.5 706.5
1504.5 711.125
1505.5 691.5
1506.5 625.5
1507.5 745.5
1508.5 1074.88
1509.5 903.125
1510.5 772.875
1511.5 724.125
1512.5 595.875
1513.5 602.25
1514.5 632.375
1515.5 617.375
1516.5 823.5
1517.5 1149.62
1518.5 1128.12
1519.5 884.125
1520.5 756
1521.5 646.75
1522.5 640.625
1523.5 630.375
1524.5 711.875
1525.5 582.375
1526.5 610.875
1527.5 657.625
1528.5 645.75
1529.5 863.25
1530.5 732.25
1531.5 716.75
1532.5 579.125
1533.5 532.375
1534.5 586.375
1535.5 641.875
1536.5 611.625
1537.5 657.625
1538.5 757.625
1539.5 750.625
1540.5 620.375
1541.5 644.75
1542.5 583.25
1543.5 602.375
1544.5 609.875
1545.5 667.375
1546.5 681.25
1547.5 700.625
1548.5 745.625
1549.5 633.375
1550.5 652.25
1551.5 603
1552.5 717.75
1553.5 655
1554.5 651.625
1555.5 613
1556.5 529
1557.5 522.375
1558.5 734.125
1559.5 688.625
1560.5 707.25
1561.5 743.75
1562.5 659.75
1563.5 649.875
1564.5 668.875
1565.5 734.625
1566.5 593.5
1567.5 638.125
1568.5 632.875
1569.5 550.5
1570.5 611.625
1571.5 570.25
1572.5 696.25
1573.5 851.625
1574.5 1387
1575.5 2329.75
1576.5 3045.12
1577.5 2467.38
1578.5 1479.62
1579.5 829.375
1580.5 662.625
1581.5 544
1582.5 605.375
1583.5 565.875
1584.5 623.5
1585.5 967.625
1586.5 1532.38
1587.5 3046.88
1588.5 5061.75
1589.5 4564.5
1590.5 2253.88
1591.5 1048.5
1592.5 736.75
1593.5 722.5
1594.5 749
1595.5 800.875
1596.5 983.375
1597.5 1005.38
1598.5 738.5
1599.5 622.625
1600.5 612.25
1601.5 640.75
1602.5 638.75
1603.5 636.375
1604.5 713.625
1605.5 559.125
1606.5 515.625
1607.5 580.75
1608.5 681.375
1609.5 597.5
1610.5 570.375
1611.5 622.875
1612.5 546
1613.5 553.875
1614.5 576.625
1615.5 532.25
1616.5 499.5
1617.5 497.625
1618.5 738.75
1619.5 861.625
1620.5 1359.75
1621.5 1788
1622.5 1738.5
1623.5 1423.75
1624.5 1488.75
1625.5 1236.38
1626.5 777.375
1627.5 661.125
1628.5 804.625
1629.5 844.125
1630.5 624.875
1631.5 696.5
1632.5 804.75
1633.5 668.5
1634.5 837.5
1635.5 534
1636.5 582.875
1637.5 621.875
1638.5 527.125
1639.5 638.25
1640.5 549.75
1641.5 407.125
1642.5 477.25
1643.5 568.125
1644.5 569.25
1645.5 430.25
1646.5 633
1647.5 562.625
1648.5 657.125
1649.5 654.5
1650.5 509.5
1651.5 449.75
1652.5 497.375
1653.5 536.625
1654.5 528
1655.5 528.25
1656.5 573
1657.5 618.375
1658.5 768.125
1659.5 685.875
1660.5 571.625
1661.5 486.25
1662.5 541.5
1663.5 471.875
1664.5 599.75
1665.5 526.625
1666.5 472.75
1667.5 473.625
1668.5 609.25
1669.5 643.125
1670.5 794.375
1671.5 735.625
1672.5 781.5
1673.5 728
1674.5 959.625
1675.5 1120.38
1676.5 1184.5
1677.5 862.5
1678.5 549.375
1679.5 594.75
1680.5 628.5
1681.5 847.25
1682.5 1170.75
1683.5 1547.88
1684.5 1205.38
1685.5 777.125
1686.5 604.75
1687.5 525.625
1688.5 544.375
1689.5 463.5
1690.5 463.75
1691.5 566.5
1692.5 733.75
1693.5 629.75
1694.5 538.375
1695.5 672.375
1696.5 891.875
1697.5 920.75
1698.5 1024.25
1699.5 1018.25
1700.5 926.375
1701.5 632.25
1702.5 552.375
1703.5 456.75
1704.5 606.875
1705.5 503.875
1706.5 497.75
1707.5 588
1708.5 613
1709.5 598.5
1710.5 636.125
1711.5 611.25
1712.5 646.75
1713.5 551.125
1714.5 580.625
1715.5 808.125
1716.5 1402.62
1717.5 2592.25
1718.5 3152.38
1719.5 2295.25
1720.5 1084
1721.5 675.125
1722.5 503.375
1723.5 600.125
1724.5 732.5
1725.5 604.5
1726.5 712.5
1727.5 606.5
1728.5 577.375
1729.5 572.5
1730.5 425
1731.5 549.25
1732.5 502.75
1733.5 492
1734.5 451.25
1735.5 531.625
1736.5 412
1737.5 562.625
1738.5 529.75
1739.5 509.125
1740.5 559.625
1741.5 519.875
1742.5 446.375
1743.5 501.5
1744.5 587.625
1745.5 537.375
1746.5 518.25
1747.5 497.5
1748.5 475.125
1749.5 477.125
1750.5 532.375
1751.5 506.5
1752.5 463
1753.5 466.25
1754.5 441.75
1755.5 455.5
1756.5 543.125
1757.5 542
1758.5 459.625
1759.5 436.875
1760.5 461.375
1761.5 532.375
1762.5 554.125
1763.5 462
1764.5 498.625
1765.5 400.75
1766.5 593
1767.5 453.5
1768.5 538.625
1769.5 545.25
1770.5 448.5
1771.5 626.25
1772.5 471.375
1773.5 523.5
1774.5 473.5
1775.5 502.75
1776.5 535
1777.5 574.125
1778.5 555.75
1779.5 605.75
1780.5 699.75
1781.5 1046.62
1782.5 1940.62
1783.5 2510.62
1784.5 2096.38
1785.5 1282.62
1786.5 1549.25
1787.5 2681.12
1788.5 3456
1789.5 2655.88
1790.5 1228.75
1791.5 704
1792.5 460.5
1793.5 440.25
1794.5 558.875
1795.5 423
1796.5 517.625
1797.5 551
1798.5 405.875
1799.5 415.75
1800.5 530.875
1801.5 471.75
1802.5 485.625
1803.5 555.875
1804.5 478.625
1805.5 527.5
1806.5 471.875
1807.5 554.875
1808.5 467.875
1809.5 406.75
1810.5 536.25
1811.5 565.625
1812.5 421.75
1813.5 504.5
1814.5 505
1815.5 625.5
1816.5 969.625
1817.5 1518.38
1818.5 1641.12
1819.5 1305
1820.5 960.75
1821.5 812.375
1822.5 758.375
1823.5 641.625
1824.5 673.25
1825.5 805.75
1826.5 645.125
1827.5 517.125
1828.5 492.125
1829.5 507.75
1830.5 446.5
1831.5 521.75
1832.5 489.5
1833.5 467.875
1834.5 470
1835.5 538.125
1836.5 639
1837.5 650.125
1838.5 614.125
1839.5 591.125
1840.5 542.875
1841.5 555.5
1842.5 500.25
1843.5 627.125
1844.5 582.875
1845.5 492.5
1846.5 466.75
1847.5 429.5
1848.5 459.5
1849.5 562.5
1850.5 575.875
1851.5 796.75
1852.5 877.875
1853.5 836.875
1854.5 548
1855.5 473.5
1856.5 478.625
1857.5 510.375
1858.5 572.25
1859.5 727.375
1860.5 683
1861.5 572.25
1862.5 584.125
1863.5 584.25
1864.5 464.5
1865.5 585.375
1866.5 558.5
1867.5 657.25
1868.5 571.25
1869.5 502.125
1870.5 521.375
1871.5 447.625
1872.5 842.875
1873.5 559.125
1874.5 520.125
1875.5 506.75
1876.5 420.375
1877.5 365.5
1878.5 475.25
1879.5 493.125
1880.5 534.125
1881.5 492.25
1882.5 542.25
1883.5 560.25
1884.5 600.125
1885.5 652.125
1886.5 524
1887.5 459.75
1888.5 594
1889.5 490.875
1890.5 524.75
1891.5 493
1892.5 477
1893.5 600.125
1894.5 483
1895.5 451.125
1896.5 410.375
1897.5 352.5
1898.5 600.75
1899.5 516.25
1900.5 607.5
1901.5 577.125
1902.5 450.125
1903.5 460.125
1904.5 463.375
1905.5 472.375
1906.5 398.375
1907.5 424.625
1908.5 368.375
1909.5 457.75
1910.5 559
1911.5 906.375
1912.5 1163.38
1913.5 964.375
1914.5 753.25
1915.5 524.25
1916.5 486.75
1917.5 598.125
1918.5 731.75
1919.5 903.25
1920.5 1457
1921.5 2216
1922.5 2188
1923.5 1317.5
1924.5 824.625
1925.5 607.875
1926.5 549.125
1927.5 662.625
1928.5 551.125
1929.5 407.25
1930.5 583.5
1931.5 339.625
1932.5 384
1933.5 497.625
1934.5 436.625
1935.5 507.875
1936.5 572.625
1937.5 511.875
1938.5 570.625
1939.5 519.25
1940.5 618.625
1941.5 542.5
1942.5 500.375
1943.5 472.5
1944.5 432
1945.5 522.125
1946.5 578.875
1947.5 509.625
1948.5 616
1949.5 528.25
1950.5 494.875
1951.5 504.375
1952.5 517.375
1953.5 470.125
1954.5 490.125
1955.5 481.125
1956.5 502.5
1957.5 471.375
1958.5 400.25
1959.5 484.625
1960.5 453.75
1961.5 420.125
1962.5 464.75
1963.5 444.875
1964.5 475.25
1965.5 458.375
1966.5 511.375
1967.5 470.5
1968.5 496.75
1969.5 508.875
1970.5 459.125
1971.5 401
1972.5 448
1973.5 435.375
1974.5 474.75
1975.5 507.125
1976.5 431.875
1977.5 530.75
1978.5 554.625
1979.5 526.75
1980.5 564.25
1981.5 498.125
1982.5 594.125
1983.5 560.5
1984.5 600.875
1985.5 572.375
1986.5 588.75
1987.5 957.75
1988.5 977.25
1989.5 794.125
1990.5 707.5
1991.5 557.5
1992.5 571.875
1993.5 497.75
1994.5 572.25
1995.5 391.75
1996.5 502.375
1997.5 350
1998.5 433.125
1999.5 545.375
2000.5 413.625
2001.5 415.25
2002.5 393.25
2003.5 514
2004.5 502.5
2005.5 487.5
2006.5 593.25
2007.5 635.75
2008.5 551.75
2009.5 381.5
2010.5 384.25
2011.5 465.25
2012.5 452.875
2013.5 452.125
2014.5 443.125
2015.5 382.625
2016.5 526
2017.5 463.375
2018.5 454
2019.5 442.875
2020.5 430.5
2021.5 368
2022.5 446
2023.5 338.5
2024.5 502.125
2025.5 536.5
2026.5 501.625
2027.5 470.125
2028.5 488.125
2029.5 527.75
2030.5 439.625
2031.5 482.875
2032.5 533.375
2033.5 505.875
2034.5 533
2035.5 421.875
2036.5 378
2037.5 335.25
2038.5 320.375
2039.5 369.375
2040.5 375.625
2041.5 375.375
2042.5 469.25
2043.5 468.375
2044.5 482.25
2045.5 539.5
2046.5 408.625
2047.5 453.625
2048.5 435.125
2049.5 463.5
2050.5 460.125
2051.5 428.5
2052.5 501.75
2053.5 519.625
2054.5 356.5
2055.5 398.125
2056.5 373
2057.5 454.125
2058.5 440.375
2059.5 371.5
2060.5 463.25
2061.5 535.25
2062.5 630.125
2063.5 706
2064.5 616.625
2065.5 398.875
2066.5 436.125
2067.5 393
2068.5 459.375
2069.5 427.5
2070.5 428.75
2071.5 429.25
2072.5 418.375
2073.5 467.5
2074.5 467.75
2075.5 428.375
2076.5 451.75
2077.5 484.5
2078.5 443.5
2079.5 341
2080.5 386.625
2081.5 386.125
2082.5 488.75
2083.5 668.875
2084.5 1157.88
2085.5 2300.5
2086.5 4604.12
2087.5 5506.62
2088.5 3834.88
2089.5 1678.25
2090.5 756.875
2091.5 530.75
2092.5 474.5
2093.5 419.625
2094.5 432.5
2095.5 434
2096.5 659.875
2097.5 883.75
2098.5 1293.88
2099.5 1285.38
2100.5 899
2101.5 593.25
2102.5 468.25
2103.5 405.75
2104.5 435.5
2105.5 415.5
2106.5 379.25
2107.5 423.375
2108.5 367.75
2109.5 431.375
2110.5 393.125
2111.5 401.25
2112.5 378.875
2113.5 418.75
2114.5 500.875
2115.5 490.75
2116.5 422.875
2117.5 503.75
2118.5 411
2119.5 372.5
2120.5 366.5
2121.5 386.25
2122.5 409.75
2123.5 425.25
2124.5 419.75
2125.5 329.25
2126.5 367.375
2127.5 357.125
2128.5 373.5
2129.5 366.25
2130.5 324.5
2131.5 462.125
2132.5 431
2133.5 393.5
2134.5 515.625
2135.5 423.5
2136.5 520.125
2137.5 439.375
2138.5 390.875
2139.5 435.875
2140.5 260.375
2141.5 352.375
2142.5 369.625
2143.5 343.25
2144.5 493.75
2145.5 379.75
2146.5 509.25
2147.5 562.25
2148.5 479.25
2149.5 772.375
2150.5 846
2151.5 770.25
2152.5 564.375
2153.5 637.375
2154.5 601.75
2155.5 601.125
2156.5 477.375
2157.5 496.25
2158.5 531.625
2159.5 391.75
2160.5 383.5
2161.5 386.5
2162.5 441.375
2163.5 428.875
2164.5 386.625
2165.5 359.375
2166.5 400
2167.5 405.25
2168.5 401.75
2169.5 399.25
2170.5 375
2171.5 379.25
2172.5 356.75
2173.5 457.125
2174.5 400
2175.5 487
2176.5 464.75
2177.5 866.75
2178.5 1010.25
2179.5 922.5
2180.5 654.625
2181.5 488.5
2182.5 426
2183.5 414.75
2184.5 410
2185.5 365.375
2186.5 466.875
2187.5 399.125
2188.5 498.875
2189.5 492.375
2190.5 893.875
2191.5 1344.5
2192.5 2077.12
2193.5 2429.38
2194.5 1735.62
2195.5 1138.75
2196.5 684.5
2197.5 448.25
2198.5 401
2199.5 437.375
2200.5 470.625
2201.5 469
2202.5 477.125
2203.5 377.625
2204.5 411.5
2205.5 366.125
2206.5 380.5
2207.5 499.875
2208.5 474.5
2209.5 385.875
2210.5 362
2211.5 336.625
2212.5 414.625
2213.5 374.375
2214.5 460.75
2215.5 492.625
2216.5 474.75
2217.5 485.5
2218.5 416.25
2219.5 525.25
2220.5 628.25
2221.5 842.875
2222.5 1080.12
2223.5 1108
2224.5 891.125
2225.5 471.25
2226.5 375.25
2227.5 449.125
2228.5 551.25
2229.5 636.625
2230.5 575.75
2231.5 597.875
2232.5 648.75
2233.5 667
2234.5 567
2235.5 404
2236.5 342.5
2237.5 383.25
2238.5 401.125
2239.5 423.75
2240.5 441.75
2241.5 394.125
2242.5 361
2243.5 432.25
2244.5 387.25
2245.5 422.75
2246.5 481.125
2247.5 420.75
2248.5 398.875
2249.5 535.625
2250.5 490.25
2251.5 526.875
2252.5 455.875
2253.5 485.875
2254.5 441.625
2255.5 485.375
2256.5 408.875
2257.5 437.25
2258.5 491.5
2259.5 432.875
2260.5 429.375
2261.5 511.875
2262.5 539.125
2263.5 725.375
2264.5 1023.88
2265.5 881.125
2266.5 573.25
2267.5 458.375
2268.5 465
2269.5 339.875
2270.5 432
2271.5 440.75
2272.5 467.375
2273.5 574.375
2274.5 451.125
2275.5 410.5
2276.5 372.75
2277.5 388
2278.5 284.375
2279.5 392.25
2280.5 501.5
2281.5 577.375
2282.5 833.75
2283.5 655.125
2284.5 569.25
2285.5 480.875
2286.5 332.125
2287.5 303.875
2288.5 379.5
2289.5 363.25
2290.5 313.25
2291.5 248.625
2292.5 359.375
2293.5 305.125
2294.5 426.875
2295.5 422.125
2296.5 456.375
2297.5 452.875
2298.5 431.25
2299.5 427
2300.5 500.375
2301.5 425.625
2302.5 388.875
2303.5 392.25
2304.5 378.625
2305.5 309.125
2306.5 288
2307.5 306.25
2308.5 313.125
2309.5 378.625
2310.5 400.5
2311.5 406.5
2312.5 462.25
2313.5 434.75
2314.5 452.25
2315.5 369.375
2316.5 385.625
2317.5 405.875
2318.5 332.25
2319.5 275.5
2320.5 339
2321.5 357
2322.5 271.25
2323.5 312.25
2324.5 304.375
2325.5 382.375
2326.5 278.75
2327.5 391.75
2328.5 394.125
2329.5 357.25
2330.5 380.125
2331.5 388.875
2332.5 572.875
2333.5 566
2334.5 421.25
2335.5 476.375
2336.5 288.75
2337.5 347.625
2338.5 226.5
2339.5 328.875
2340.5 302.25
2341.5 226.125
2342.5 323.375
2343.5 438.375
2344.5 439.625
2345.5 454.25
2346.5 295.5
2347.5 340
2348.5 404.875
2349.5 360.25
2350.5 354.25
2351.5 422.25
2352.5 286.125
2353.5 373.125
2354.5 399.375
2355.5 384.375
2356.5 409.875
2357.5 438.625
2358.5 290.5
2359.5 287.875
2360.5 325.375
2361.5 327.375
2362.5 329.125
2363.5 358
2364.5 317.125
2365.5 326.875
2366.5 319.75
2367.5 317.875
2368.5 286.25
2369.5 465.375
2370.5 356.125
2371.5 277.125
2372.5 285.25
2373.5 405.875
2374.5 375
2375.5 257
2376.5 322.875
2377.5 415.375
2378.5 425.25
2379.5 578
2380.5 610.625
2381.5 505.5
2382.5 495.875
2383.5 416
2384.5 377
2385.5 292.125
2386.5 330.625
2387.5 274.125
2388.5 324.125
2389.5 328.875
2390.5 376.375
2391.5 284
2392.5 301.375
2393.5 332
2394.5 334.5
2395.5 286.25
2396.5 391.875
2397.5 327
2398.5 390
2399.5 378.875
2400.5 376.25
2401.5 372.875
2402.5 448.25
2403.5 491.75
2404.5 405.75
2405.5 447.875
2406.5 371.75
2407.5 332.25
2408.5 310.375
2409.5 379.75
2410.5 309.75
2411.5 354
2412.5 389.625
2413.5 396.875
2414.5 404
2415.5 428.375
2416.5 382.375
2417.5 459.375
2418.5 336.875
2419.5 278
2420.5 343.125
2421.5 407.125
2422.5 411.875
2423.5 357.5
2424.5 398.25
2425.5 424.375
2426.5 482.25
2427.5 404
2428.5 450.5
2429.5 410.5
2430.5 425.75
2431.5 373.125
2432.5 442.375
2433.5 455.625
2434.5 353.5
2435.5 403.75
2436.5 296.875
2437.5 311.875
2438.5 430.25
2439.5 328.375
2440.5 404.125
2441.5 385.875
2442.5 506.5
2443.5 697
2444.5 786.875
2445.5 756.25
2446.5 514.25
2447.5 458.125
2448.5 331.625
2449.5 397.25
2450.5 328.25
2451.5 270.375
2452.5 358
2453.5 365
2454.5 326.625
2455.5 254.625
2456.5 310.5
2457.5 382.25
2458.5 287.125
2459.5 359.625
2460.5 311
2461.5 303.5
2462.5 323
2463.5 466.25
2464.5 535.875
2465.5 771.25
2466.5 850
2467.5 719
2468.5 532.875
2469.5 344
2470.5 409.5
2471.5 253.375
2472.5 351.75
2473.5 361
2474.5 382.25
2475.5 426.25
2476.5 451.125
2477.5 351.875
2478.5 304
2479.5 282.25
2480.5 364.25
2481.5 313.5
2482.5 337.25
2483.5 321.25
2484.5 404.125
2485.5 353.75
2486.5 359.75
2487.5 405.875
2488.5 338
2489.5 276.25
2490.5 408.875
2491.5 395.625
2492.5 362.5
2493.5 347.75
2494.5 338
2495.5 339.25
2496.5 446.875
2497.5 555.875
2498.5 703.5
2499.5 688
2500.5 504.5
2501.5 511.125
2502.5 298.25
2503.5 341.75
2504.5 356.375
2505.5 310.375
2506.5 278.5
2507.5 393.75
2508.5 327.625
2509.5 386.125
2510.5 398
2511.5 374.125
2512.5 446.75
2513.5 498.5
2514.5 477.625
2515.5 466.125
2516.5 901
2517.5 1372.5
2518.5 1826.75
2519.5 1833.5
2520.5 1083.12
2521.5 626.75
2522.5 412.25
2523.5 403.5
2524.5 367
2525.5 360.875
2526.5 454.5
2527.5 419.75
2528.5 405
2529.5 450.375
2530.5 413.25
2531.5 391
2532.5 366.25
2533.5 429.25
2534.5 302.125
2535.5 336
2536.5 426.125
2537.5 395
2538.5 414.375
2539.5 525.125
2540.5 589.375
2541.5 501.75
2542.5 380
2543.5 402.875
2544.5 294
2545.5 284.125
2546.5 349.75
2547.5 444.125
2548.5 393.375
2549.5 469.75
2550.5 386.25
2551.5 365.625
2552.5 382.625
2553.5 314
2554.5 336.75
2555.5 333.875
2556.5 349.625
2557.5 378.875
2558.5 353.375
2559.5 359.125
2560.5 363.75
2561.5 335.625
2562.5 340.125
2563.5 331
2564.5 318.75
2565.5 306.25
2566.5 381.625
2567.5 374.125
2568.5 375.125
2569.5 337
2570.5 290.625
2571.5 256.25
2572.5 311.75
2573.5 333.875
2574.5 240.625
2575.5 298.75
2576.5 311
2577.5 159.75
2578.5 214
2579.5 389
2580.5 404.375
2581.5 467.5
2582.5 419.5
2583.5 320.75
2584.5 331.375
2585.5 444.875
2586.5 382.625
2587.5 346.25
2588.5 378.625
2589.5 417.25
2590.5 319.625
2591.5 347.375
2592.5 372.25
2593.5 263.375
2594.5 369.75
2595.5 311.125
2596.5 316.25
2597.5 379.875
2598.5 368.75
2599.5 484.25
2600.5 397.75
2601.5 508.875
2602.5 509.125
2603.5 435.75
2604.5 382.125
2605.5 359.25
2606.5 400.875
2607.5 336.375
2608.5 399.75
2609.5 455.25
2610.5 433.375
2611.5 490.75
2612.5 446.25
2613.5 325.5
2614.5 297.25
2615.5 345.75
2616.5 327
2617.5 432.625
2618.5 397.25
2619.5 403
2620.5 370.5
2621.5 506.5
2622.5 326.5
2623.5 398.625
2624.5 381.625
2625.5 455.875
2626.5 611.125
2627.5 679.5
2628.5 553.25
2629.5 441.375
2630.5 395
2631.5 429.875
2632.5 444.375
2633.5 459
2634.5 536.375
2635.5 392.75
2636.5 312.75
2637.5 270.625
2638.5 338
2639.5 316.375
2640.5 355.75
2641.5 302.375
2642.5 192.375
2643.5 356
2644.5 355
2645.5 404.375
2646.5 239.875
2647.5 347.875
2648.5 296.875
2649.5 372
2650.5 353.125
2651.5 313.75
2652.5 442
2653.5 477.875
2654.5 421.125
2655.5 386.375
2656.5 443.125
2657.5 420.375
2658.5 473.625
2659.5 372
2660.5 549.625
2661.5 677.625
2662.5 658.625
2663.5 454.875
2664.5 476.5
2665.5 480.5
2666.5 450.375
2667.5 410.625
2668.5 417.875
2669.5 541.75
2670.5 542.5
2671.5 525.625
2672.5 464.5
2673.5 367.75
2674.5 370.875
2675.5 365
2676.5 351.125
2677.5 356.125
2678.5 347.75
2679.5 328.375
2680.5 361.5
2681.5 358.375
2682.5 437.5
2683.5 391.5
2684.5 266.5
2685.5 322.25
2686.5 314.5
2687.5 297.375
2688.5 356.5
2689.5 226.5
2690.5 381
2691.5 333.25
2692.5 279.75
2693.5 298.75
2694.5 357.375
2695.5 285.5
2696.5 415.125
2697.5 340.75
2698.5 379.5
2699.5 316
2700.5 285.625
2701.5 259
2702.5 331.25
2703.5 331.5
2704.5 332.25
2705.5 396.875
2706.5 301.875
2707.5 367.625
2708.5 351.25
2709.5 326
2710.5 377.625
2711.5 378.25
2712.5 309.25
2713.5 336.625
2714.5 290.875
2715.5 311.875
2716.5 194.5
2717.5 264.75
2718.5 338.625
2719.5 293.125
2720.5 418.125
2721.5 439.125
2722.5 406.875
2723.5 407
2724.5 272.625
2725.5 240.875
2726.5 376.25
2727.5 278
2728.5 318
2729.5 330.875
2730.5 302.5
2731.5 362
2732.5 433
2733.5 299.5
2734.5 287.5
2735.5 378.625
2736.5 263
2737.5 408.875
2738.5 280.875
2739.5 301.5
2740.5 395.75
2741.5 327.875
2742.5 329.875
2743.5 370.625
2744.5 445.25
2745.5 296.875
2746.5 409.625
2747.5 358.625
2748.5 422.25
2749.5 406.5
2750.5 374.875
2751.5 385
2752.5 337.25
2753.5 301.25
2754.5 366.375
2755.5 329.125
2756.5 400
2757.5 353.75
2758.5 422.875
2759.5 374.625
2760.5 387.375
2761.5 327
2762.5 391.875
2763.5 423.25
2764.5 496.25
2765.5 559.375
2766.5 517.75
2767.5 268.125
2768.5 280.875
2769.5 268.5
2770.5 292
2771.5 370.5
2772.5 346.75
2773.5 417.5
2774.5 375.5
2775.5 369.25
2776.5 364.625
2777.5 347
2778.5 380.75
2779.5 312.875
2780.5 399.25
2781.5 451
2782.5 666.625
2783.5 859.75
2784.5 1218.88
2785.5 1172.38
2786.5 860.5
2787.5 522.75
2788.5 370.75
2789.5 310.125
2790.5 253.125
2791.5 322
2792.5 276.375
2793.5 345
2794.5 342.75
2795.5 265.375
2796.5 353.5
2797.5 303.875
2798.5 338.5
2799.5 365.125
2800.5 328.375
2801.5 351.5
2802.5 350.375
2803.5 265.5
2804.5 341
2805.5 322.125
2806.5 360
2807.5 393.625
2808.5 316
2809.5 287.125
2810.5 358.125
2811.5 301
2812.5 431.875
2813.5 526.75
2814.5 597.5
2815.5 692.125
2816.5 706.375
2817.5 488.875
2818.5 430.25
2819.5 410.375
2820.5 435.25
2821.5 386.75
2822.5 373.25
2823.5 355.875
2824.5 400.75
2825.5 327.625
2826.5 358.75
2827.5 431
2828.5 470.875
2829.5 483.625
2830.5 437.875
2831.5 358.125
2832.5 259.375
2833.5 356.625
2834.5 271.375
2835.5 226.25
2836.5 241.25
2837.5 375.75
2838.5 316.25
2839.5 255.625
2840.5 324
2841.5 441.375
2842.5 402.625
2843.5 393.625
2844.5 382
2845.5 323.875
2846.5 420.625
2847.5 395
2848.5 366.5
2849.5 375.375
2850.5 395.125
2851.5 260
2852.5 340
2853.5 365.25
2854.5 336.25
2855.5 389.25
2856.5 280.875
2857.5 290.875
2858.5 282.25
2859.5 231
2860.5 304.875
2861.5 359.875
2862.5 325.5
2863.5 271.25
2864.5 218
2865.5 325.625
2866.5 389
2867.5 291.125
2868.5 342.5
2869.5 294.375
2870.5 217.75
2871.5 251.5
2872.5 263.75
2873.5 266.75
2874.5 233
2875.5 288.5
2876.5 280.75
2877.5 255.75
2878.5 291.875
2879.5 317.875
2880.5 300.375
2881.5 329.75
2882.5 300.25
2883.5 240.375
2884.5 267.875
2885.5 276.75
2886.5 164.625
2887.5 236.75
2888.5 300
2889.5 307.375
2890.5 415
2891.5 436.625
2892.5 352.75
2893.5 370
2894.5 379.25
2895.5 407.625
2896.5 374.75
2897.5 331.625
2898.5 265.875
2899.5 250
2900.5 330.875
2901.5 378.125
2902.5 351.75
2903.5 318.75
2904.5 408
2905.5 350.75
2906.5 260.125
2907.5 335.25
2908.5 370.625
2909.5 309.125
2910.5 336.875
2911.5 382.625
2912.5 350.375
2913.5 382.875
2914.5 398.375
2915.5 412.875
2916.5 522.875
2917.5 587.625
2918.5 463.375
2919.5 423.875
2920.5 273
2921.5 303.125
2922.5 289.125
2923.5 316.75
2924.5 307.75
2925.5 264
2926.5 287.625
2927.5 345.375
2928.5 322
2929.5 291.25
2930.5 312.125
2931.5 329.875
2932.5 318.125
2933.5 256.625
2934.5 313.125
2935.5 287.5
2936.5 266.125
2937.5 327.625
2938.5 316.5
2939.5 236.375
2940.5 344.875
2941.5 325.625
2942.5 310.25
2943.5 399.25
2944.5 440.5
2945.5 408
2946.5 371.875
2947.5 322.375
2948.5 334
2949.5 288.375
2950.5 360.75
2951.5 362.125
2952.5 445
2953.5 446.875
2954.5 475.625
2955.5 479.875
2956.5 615.875
2957.5 677.375
2958.5 563.125
2959.5 473.125
2960.5 370.375
2961.5 439.25
2962.5 431.875
2963.5 269.375
2964.5 304.125
2965.5 343.25
2966.5 310.5
2967.5 386.125
2968.5 393
2969.5 425.125
2970.5 456
2971.5 376.25
2972.5 447.125
2973.5 372.25
2974.5 319.375
2975.5 308.875
2976.5 309.5
2977.5 313.875
2978.5 314.625
2979.5 315.875
2980.5 305.375
2981.5 286.5
2982.5 312.25
2983.5 220.75
2984.5 306.75
2985.5 260
2986.5 254.5
2987.5 234.75
2988.5 182.125
2989.5 223.625
2990.5 332.125
2991.5 312.25
2992.5 389.875
2993.5 349.875
2994.5 378.375
2995.5 307.625
2996.5 307
2997.5 318.25
2998.5 346.875
2999.5 330.5
3000.5 296.5
3001.5 311.625
3002.5 376.625
3003.5 360.375
3004.5 397.5
3005.5 263.5
3006.5 414.125
3007.5 357.5
3008.5 304.5
3009.5 332.25
3010.5 354.625
3011.5 407.5
3012.5 346
3013.5 344.5
3014.5 365
3015.5 377.25
3016.5 355.75
3017.5 300
3018.5 292.5
3019.5 248.875
3020.5 248.25
3021.5 331.5
3022.5 340.875
3023.5 355.375
3024.5 271
3025.5 346.375
3026.5 328.625
3027.5 282.125
3028.5 303.375
3029.5 316.375
3030.5 345.125
3031.5 438
3032.5 451.875
3033.5 369.75
3034.5 291.125
3035.5 242
3036.5 171.375
3037.5 342.75
3038.5 351.625
3039.5 198.25
3040.5 322.875
3041.5 311.875
3042.5 278.125
3043.5 232.625
3044.5 222.375
3045.5 284.75
3046.5 243
3047.5 335.75
3048.5 351.25
3049.5 452
3050.5 626.75
3051.5 636.5
3052.5 710.625
3053.5 664.375
3054.5 465.125
3055.5 300.625
3056.5 207.875
3057.5 206.625
3058.5 313
3059.5 294.75
3060.5 280
3061.5 239.5
3062.5 320.875
3063.5 292.625
3064.5 323.75
3065.5 247.75
3066.5 322.5
3067.5 305.25
3068.5 235.75
3069.5 275.25
3070.5 329.375
3071.5 297.875
3072.5 433.25
3073.5 427.5
3074.5 422.625
3075.5 388.75
3076.5 373.625
3077.5 252.75
3078.5 319.125
3079.5 317.25
3080.5 268.25
3081.5 224.375
3082.5 301
3083.5 182.5
3084.5 292.625
3085.5 241.125
3086.5 227.75
3087.5 195.25
3088.5 190.75
3089.5 237
3090.5 251.875
3091.5 218.5
3092.5 313.5
3093.5 282.25
3094.5 271.375
3095.5 207.875
3096.5 230.625
3097.5 318.125
3098.5 370.5
3099.5 401.875
3100.5 410.625
3101.5 307.125
3102.5 238.75
3103.5 331.125
3104.5 278.5
3105.5 366.875
3106.5 344.375
3107.5 351.375
3108.5 550.5
3109.5 499.125
3110.5 525.625
3111.5 403.25
3112.5 361.75
3113.5 294.625
3114.5 345.75
3115.5 263.75
3116.5 225.125
3117.5 263.125
3118.5 147.25
3119.5 288.5
3120.5 300.25
3121.5 239.375
3122.5 262
3123.5 292.125
3124.5 281.875
3125.5 271
3126.5 229.375
3127.5 255.5
3128.5 205.875
3129.5 241.625
3130.5 216.625
3131.5 237
3132.5 288.625
3133.5 272.125
3134.5 294.625
3135.5 298.25
3136.5 286.125
3137.5 316.5
3138.5 353.375
3139.5 263.5
3140.5 383.875
3141.5 316.75
3142.5 256.375
3143.5 306.25
3144.5 267
3145.5 312.375
3146.5 303.625
3147.5 304
3148.5 304.625
3149.5 257.125
3150.5 315.875
3151.5 340
3152.5 317.125
3153.5 313.5
3154.5 216.375
3155.5 220.375
3156.5 251.75
3157.5 290.375
3158.5 423.75
3159.5 392.5
3160.5 501.5
3161.5 421.125
3162.5 320.25
3163.5 310.625
3164.5 254.125
3165.5 313.625
3166.5 304.875
3167.5 274.25
3168.5 202.625
3169.5 204.125
3170.5 224.375
3171.5 251.5
3172.5 277.625
3173.5 434.625
3174.5 530.375
3175.5 697.75
3176.5 741
3177.5 604.875
3178.5 436
3179.5 245.625
3180.5 293.25
3181.5 304.5
3182.5 349.375
3183.5 317.5
3184.5 299.875
3185.5 361.25
3186.5 386.875
3187.5 355.375
3188.5 390.875
3189.5 277
3190.5 230.75
3191.5 315.875
3192.5 295.25
3193.5 295
3194.5 347.875
3195.5 422
3196.5 438.5
3197.5 465.25
3198.5 407.875
3199.5 318.125
3200.5 327.75
3201.5 323.25
3202.5 321.625
3203.5 293.25
3204.5 485
3205.5 516.5
3206.5 502.625
3207.5 373.625
3208.5 329.875
3209.5 274.75
3210.5 271.5
3211.5 292.875
3212.5 293.75
3213.5 311.625
3214.5 335
3215.5 318.625
3216.5 401.5
3217.5 326.625
3218.5 347.625
3219.5 354.5
3220.5 283
3221.5 382.125
3222.5 385.625
3223.5 392.875
3224.5 338.875
3225.5 353
3226.5 250.5
3227.5 266.75
3228.5 259.5
3229.5 257.5
3230.5 277.5
3231.5 442.625
3232.5 521.875
3233.5 565.75
3234.5 537.375
3235.5 424.875
3236.5 333.375
3237.5 328.125
3238.5 238.75
3239.5 179.375
3240.5 236
3241.5 241.375
3242.5 218.75
3243.5 258.75
3244.5 194.5
3245.5 288.5
3246.5 282.375
3247.5 303.125
3248.5 265.375
3249.5 257.375
3250.5 290.875
3251.5 280.25
3252.5 329.5
3253.5 298.375
3254.5 340.875
3255.5 428.625
3256.5 616.625
3257.5 717
3258.5 694.75
3259.5 693.25
3260.5 585.75
3261.5 443.75
3262.5 326.5
3263.5 302.875
3264.5 234.375
3265.5 413.125
3266.5 279.875
3267.5 328.75
3268.5 305.5
3269.5 232.875
3270.5 308
3271.5 231.125
3272.5 227.75
3273.5 255.875
3274.5 256.875
3275.5 209.25
3276.5 256
3277.5 213
3278.5 280.625
3279.5 255.875
3280.5 274.75
3281.5 134.25
3282.5 245.25
3283.5 282.25
3284.5 304.75
3285.5 234.5
3286.5 278.125
3287.5 269.375
3288.5 284.625
3289.5 257.25
3290.5 311.125
3291.5 231
3292.5 242.375
3293.5 267.875
3294.5 185.375
3295.5 263.75
3296.5 271.625
3297.5 219
3298.5 225.875
3299.5 342.125
3300.5 216.125
3301.5 280.625
3302.5 306.25
3303.5 252.25
3304.5 279.125
3305.5 253.5
3306.5 316.5
3307.5 350.5
3308.5 225.5
3309.5 314.75
3310.5 308.75
3311.5 328.75
3312.5 317.75
3313.5 356.625
3314.5 337.375
3315.5 225.375
3316.5 195.375
3317.5 235.5
3318.5 232.875
3319.5 242.75
3320.5 287.375
3321.5 347.625
3322.5 419.375
3323.5 360
3324.5 308.375
3325.5 267.625
3326.5 288.75
3327.5 324.125
3328.5 257.625
3329.5 287.25
3330.5 358.25
3331.5 443.125
3332.5 561.25
3333.5 677
3334.5 539.125
3335.5 422.75
3336.5 269
3337.5 277.75
3338.5 287.125
3339.5 329.125
3340.5 319.625
3341.5 279.875
3342.5 202.5
3343.5 197.5
3344.5 232.375
3345.5 193.75
3346.5 230.625
3347.5 236.375
3348.5 260.5
3349.5 317.375
3350.5 311.625
3351.5 362.25
3352.5 525.375
3353.5 704.25
3354.5 829.625
3355.5 627.75
3356.5 467.875
3357.5 367.875
3358.5 325.625
3359.5 195.875
3360.5 191.75
3361.5 257
3362.5 353.625
3363.5 414.375
3364.5 565.5
3365.5 710.75
3366.5 867.125
3367.5 771
3368.5 704.25
3369.5 408.375
3370.5 316.125
3371.5 226.75
3372.5 215.5
3373.5 192.5
3374.5 180.5
3375.5 250.25
3376.5 264
3377.5 199.625
3378.5 253.75
3379.5 249.5
3380.5 300.25
3381.5 254.25
3382.5 328.75
3383.5 310.25
3384.5 170.75
3385.5 233.375
3386.5 248.375
3387.5 260.25
3388.5 290.25
3389.5 267.875
3390.5 329.75
3391.5 399.125
3392.5 452.75
3393.5 390.375
3394.5 314.625
3395.5 317.75
3396.5 270.5
3397.5 259.625
3398.5 299.875
3399.5 232.5
3400.5 270.375
3401.5 236.125
3402.5 221.875
3403.5 222.875
3404.5 272.5
3405.5 229.875
3406.5 208.875
3407.5 235.125
3408.5 238
3409.5 190.25
3410.5 190.5
3411.5 205.25
3412.5 180.375
3413.5 216.5
3414.5 196.75
3415.5 233.125
3416.5 219
3417.5 237.625
3418.5 241.875
3419.5 261.75
3420.5 166.875
3421.5 174.375
3422.5 236.5
3423.5 258.25
3424.5 257.25
3425.5 259
3426.5 341.625
3427.5 413.25
3428.5 355.375
3429.5 244.375
3430.5 313.875
3431.5 239.5
3432.5 274.375
3433.5 319.25
3434.5 339.25
3435.5 322.5
3436.5 198.875
3437.5 307.75
3438.5 321.125
3439.5 306.5
3440.5 289.5
3441.5 297.625
3442.5 285.5
3443.5 339.5
3444.5 330.75
3445.5 349
3446.5 396.125
3447.5 286.125
3448.5 323.625
3449.5 244.875
3450.5 201.625
3451.5 262
3452.5 159.25
3453.5 239.375
3454.5 205.375
3455.5 251.75
3456.5 186.375
3457.5 266.125
3458.5 279.125
3459.5 301.125
3460.5 310.625
3461.5 261.25
3462.5 278
3463.5 218.125
3464.5 289.5
3465.5 334
3466.5 376
3467.5 298.75
3468.5 246.25
3469.5 238.125
3470.5 219
3471.5 203.875
3472.5 223.625
3473.5 240.625
3474.5 248.875
3475.5 231.375
3476.5 255.625
3477.5 237.25
3478.5 243.875
3479.5 181
3480.5 251.125
3481.5 277.5
3482.5 220.5
3483.5 220.875
3484.5 252
3485.5 237.625
3486.5 292.375
3487.5 216.375
3488.5 224.875
3489.5 169.875
3490.5 202.75
3491.5 228.875
3492.5 189.625
3493.5 276.125
3494.5 306.5
3495.5 229
3496.5 237.125
3497.5 220
3498.5 232.25
3499.5 279.75
3500.5 192
3501.5 151.25
3502.5 194.75
3503.5 220.125
3504.5 223
3505.5 302.875
3506.5 352.5
3507.5 375
3508.5 418.375
3509.5 383.125
3510.5 283.125
3511.5 282.75
3512.5 306.125
3513.5 415.875
3514.5 376.875
3515.5 559.375
3516.5 670.25
3517.5 521.125
3518.5 447.75
3519.5 302.375
3520.5 214.5
3521.5 310.125
3522.5 256.375
3523.5 269.875
3524.5 311.875
3525.5 252.875
3526.5 230.375
3527.5 273.625
3528.5 289.875
3529.5 288.125
3530.5 321.125
3531.5 399.875
3532.5 343.75
3533.5 329
3534.5 326.125
3535.5 210
3536.5 240.5
3537.5 235.125
3538.5 292.25
3539.5 272.5
3540.5 240.5
3541.5 250.875
3542.5 353.875
3543.5 334.25
3544.5 375.375
3545.5 296.5
3546.5 263.25
3547.5 207.125
3548.5 159.875
3549.5 194.125
3550.5 112.125
3551.5 172
3552.5 213.125
3553.5 260.375
3554.5 278.25
3555.5 269.25
3556.5 355.375
3557.5 445.25
3558.5 347.25
3559.5 254.625
3560.5 138
3561.5 263.25
3562.5 179.75
3563.5 217.625
3564.5 248.5
3565.5 229
3566.5 225.75
3567.5 227.75
3568.5 220.125
3569.5 224.75
3570.5 237.25
3571.5 200.5
3572.5 201.75
3573.5 240
3574.5 219.375
3575.5 208.375
3576.5 230
3577.5 183
3578.5 280.875
3579.5 227.25
3580.5 257.25
3581.5 324.125
3582.5 281.25
3583.5 268.5
3584.5 346.25
3585.5 190.125
3586.5 231.75
3587.5 214.625
3588.5 218.625
3589.5 159.75
3590.5 169.875
3591.5 251.875
3592.5 196.75
3593.5 220.625
3594.5 221.875
3595.5 202.375
3596.5 221.75
3597.5 254.375
3598.5 219.5
3599.5 284.625
3600.5 202.5
3601.5 240.125
3602.5 179
3603.5 204.375
3604.5 156.75
3605.5 219.5
3606.5 200.375
3607.5 226
3608.5 274.25
3609.5 302.375
3610.5 305
3611.5 299.625
3612.5 285.125
3613.5 270
3614.5 280.875
3615.5 241.375
3616.5 241.5
3617.5 251.125
3618.5 266.875
3619.5 380.625
3620.5 515.125
3621.5 603
3622.5 527.875
3623.5 420.875
3624.5 299.75
3625.5 257.5
3626.5 165.5
3627.5 208.25
3628.5 202.125
3629.5 222.875
3630.5 235.875
3631.5 241.125
3632.5 236.75
3633.5 230.5
3634.5 165.375
3635.5 223.625
3636.5 237.375
3637.5 217.875
3638.5 184.75
3639.5 217.375
3640.5 176
3641.5 177.625
3642.5 209.125
3643.5 207
3644.5 244
3645.5 276.875
3646.5 265.625
3647.5 354.5
3648.5 413.5
3649.5 477.625
3650.5 407.75
3651.5 378
3652.5 245.25
3653.5 229
3654.5 248.25
3655.5 307.125
3656.5 278.25
3657.5 318.25
3658.5 220.75
3659.5 289
3660.5 217.125
3661.5 206.125
3662.5 262.75
3663.5 252.5
3664.5 215.75
3665.5 188.5
3666.5 242.875
3667.5 188.875
3668.5 258.875
3669.5 299.25
3670.5 288.125
3671.5 417.5
3672.5 535.375
3673.5 483.125
3674.5 334.875
3675.5 253.125
3676.5 212.5
3677.5 211.25
3678.5 131
3679.5 213.125
3680.5 209.125
3681.5 174.375
3682.5 139.625
3683.5 319.875
3684.5 221.5
3685.5 188.625
3686.5 247.75
3687.5 155.375
3688.5 335.875
3689.5 274.875
3690.5 286.875
3691.5 220.875
3692.5 308.125
3693.5 181.625
3694.5 237.375
3695.5 299.5
3696.5 256.5
3697.5 259.375
3698.5 220.625
3699.5 203.25
3700.5 196
3701.5 223.375
3702.5 143.125
3703.5 205.625
3704.5 224.625
3705.5 299.125
3706.5 193.875
3707.5 230.625
3708.5 222.75
3709.5 173.875
3710.5 209
3711.5 263.5
3712.5 243.875
3713.5 218.375
3714.5 289.375
3715.5 326
3716.5 300.625
3717.5 267.25
3718.5 349.875
3719.5 312.375
3720.5 349.875
3721.5 393.125
3722.5 332.75
3723.5 351.75
3724.5 383.125
3725.5 312.375
3726.5 260.125
3727.5 332.625
3728.5 175.5
3729.5 251
3730.5 218.75
3731.5 221.5
3732.5 267.875
3733.5 152.75
3734.5 195.625
3735.5 149.5
3736.5 136.5
3737.5 167.875
3738.5 169.25
3739.5 197.25
3740.5 213.25
3741.5 199.5
3742.5 213
3743.5 289.5
3744.5 318.5
3745.5 406.75
3746.5 402.75
3747.5 344.375
3748.5 335.875
3749.5 217.5
3750.5 197.375
3751.5 216
3752.5 220
3753.5 181.5
3754.5 261.25
3755.5 238.25
3756.5 225
3757.5 196.5
3758.5 178.375
3759.5 201.5
3760.5 256.125
3761.5 223.625
3762.5 250
3763.5 166
3764.5 198.125
3765.5 259.75
3766.5 248.375
3767.5 225.75
3768.5 230.125
3769.5 217.5
3770.5 195.75
3771.5 196.25
3772.5 205.375
3773.5 185.375
3774.5 160.375
3775.5 213.75
3776.5 168.375
3777.5 149
3778.5 225.25
3779.5 223
3780.5 187.875
3781.5 233.625
3782.5 188.25
3783.5 212
3784.5 235.5
3785.5 164
3786.5 233.125
3787.5 228.75
3788.5 201.75
3789.5 206.375
3790.5 135.875
3791.5 197.375
3792.5 228.25
3793.5 232.375
3794.5 351.75
3795.5 304.125
3796.5 354.375
3797.5 356.25
3798.5 307.875
3799.5 214.375
3800.5 198.375
3801.5 208
3802.5 228.375
3803.5 227.75
3804.5 209.125
3805.5 246.125
3806.5 265.875
3807.5 375.75
3808.5 401.375
3809.5 487.75
3810.5 241.125
3811.5 258
3812.5 194.75
3813.5 145.625
3814.5 123.5
3815.5 202
3816.5 198
3817.5 139.625
3818.5 238.5
3819.5 216.375
3820.5 192.125
3821.5 162
3822.5 137.25
3823.5 162.625
3824.5 194.375
3825.5 256.5
3826.5 155.5
3827.5 196.75
3828.5 177.875
3829.5 230.25
3830.5 245.75
3831.5 214.375
3832.5 292.75
3833.5 249.25
3834.5 216.625
3835.5 318.25
3836.5 210.625
3837.5 231.25
3838.5 156
3839.5 131
3840.5 124.75
3841.5 181.5
3842.5 191.375
3843.5 176.375
3844.5 180.375
3845.5 154.125
3846.5 200.25
3847.5 250.375
3848.5 234
3849.5 240.75
3850.5 264.375
3851.5 183.625
3852.5 208.5
3853.5 178
3854.5 151.375
3855.5 155.5
3856.5 231.25
3857.5 281
3858.5 201.25
3859.5 297.25
3860.5 271.125
3861.5 281.75
3862.5 276.875
3863.5 273.75
3864.5 233.625
3865.5 253.5
3866.5 218.375
3867.5 193.875
3868.5 174.5
3869.5 211.375
3870.5 249.5
3871.5 247.25
3872.5 208.75
3873.5 330
3874.5 347.5
3875.5 288.5
3876.5 254.125
3877.5 271.875
3878.5 229.75
3879.5 189.875
3880.5 192.25
3881.5 185.5
3882.5 239.25
3883.5 181.625
3884.5 182
3885.5 183.625
3886.5 174.25
3887.5 197.375
3888.5 147.625
3889.5 123.25
3890.5 235.5
3891.5 186
3892.5 193.125
3893.5 238
3894.5 241.125
3895.5 241.875
3896.5 224.375
3897.5 240.75
3898.5 159
3899.5 291.75
3900.5 357.875
3901.5 354.875
3902.5 416.125
3903.5 401.375
3904.5 371.875
3905.5 316.625
3906.5 340.125
3907.5 252.25
3908.5 307
3909.5 231.875
3910.5 216.125
3911.5 182.375
3912.5 222.125
3913.5 251.5
3914.5 215.375
3915.5 207.125
3916.5 191.25
3917.5 177.5
3918.5 125.125
3919.5 235
3920.5 226.75
3921.5 198.25
3922.5 220.625
3923.5 256.5
3924.5 174.125
3925.5 165.75
3926.5 138.625
3927.5 187.875
3928.5 147.75
3929.5 125.5
3930.5 165.75
3931.5 177.625
3932.5 141.75
3933.5 181.875
3934.5 165
3935.5 186.125
3936.5 157.25
3937.5 101.75
3938.5 231.75
3939.5 118
3940.5 213.5
3941.5 220.25
3942.5 228.375
3943.5 277.875
3944.5 274.125
3945.5 342.25
3946.5 328.5
3947.5 267.125
3948.5 275.375
3949.5 284.75
3950.5 262.5
3951.5 293.25
3952.5 276.5
3953.5 299.5
3954.5 399.375
3955.5 487.25
3956.5 443
3957.5 490.5
3958.5 469.75
3959.5 330.875
3960.5 303
3961.5 281
3962.5 220
3963.5 198.75
3964.5 188.75
3965.5 220.75
3966.5 214.75
3967.5 157.375
3968.5 166.75
3969.5 230.25
3970.5 171.875
3971.5 216.375
3972.5 204.125
3973.5 239
3974.5 256.375
3975.5 282.875
3976.5 292.375
3977.5 359.875
3978.5 317.125
3979.5 265.625
3980.5 261.125
3981.5 193.5
3982.5 186.375
3983.5 272.125
3984.5 233.625
3985.5 182.25
3986.5 218.375
3987.5 164.375
3988.5 196.125
3989.5 215.875
3990.5 201.625
3991.5 185.875
3992.5 169.75
3993.5 174.875
3994.5 294.875
3995.5 302.625
3996.5 398
3997.5 306.5
3998.5 250.875
3999.5 221.125
4000.5 216.375
4001.5 170.875
4002.5 172.625
4003.5 140.125
4004.5 108.5
4005.5 135.375
4006.5 209.875
4007.5 148.625
4008.5 121.75
4009.5 187.625
4010.5 174
4011.5 191.625
4012.5 246.125
4013.5 202
4014.5 234.375
4015.5 231
4016.5 225.375
4017.5 176
4018.5 136.875
4019.5 164.375
4020.5 212.75
4021.5 226
4022.5 231.75
4023.5 368.625
4024.5 498.125
4025.5 456.875
4026.5 408.75
4027.5 316.875
4028.5 296.875
4029.5 204.75
4030.5 250.25
4031.5 283.5
4032.5 344.625
4033.5 405.5
4034.5 525.5
4035.5 476.25
4036.5 422.25
4037.5 315
4038.5 191.25
4039.5 257
4040.5 237.875
4041.5 210.25
4042.5 182.375
4043.5 208.25
4044.5 164.125
4045.5 157.125
4046.5 196.125
4047.5 201.375
4048.5 169.5
4049.5 220.375
4050.5 323.625
4051.5 272
4052.5 290.25
4053.5 270.375
4054.5 257.875
4055.5 257.125
4056.5 216.125
4057.5 208.5
4058.5 196.5
4059.5 163.5
4060.5 208.625
4061.5 175.625
4062.5 198.75
4063.5 167.875
4064.5 203.5
4065.5 186.75
4066.5 171.5
4067.5 166.125
4068.5 144.125
4069.5 158.25
4070.5 202.25
4071.5 227.125
4072.5 151.75
4073.5 203.125
4074.5 227.25
4075.5 227.125
4076.5 205.25
4077.5 253.625
4078.5 186.5
4079.5 148.125
4080.5 179.625
4081.5 177.25
4082.5 145.25
4083.5 184.625
4084.5 199
4085.5 191
4086.5 211
4087.5 227.625
4088.5 214.375
4089.5 239
4090.5 179.625
4091.5 152.125
4092.5 240.125
4093.5 208.625
4094.5 217.875
4095.5 214.375
4096.5 241.875
4097.5 229
4098.5 251.25
4099.5 195.375
4100.5 155.375
4101.5 160.25
4102.5 226.375
4103.5 208.375
4104.5 190.5
4105.5 276
4106.5 280
4107.5 293
4108.5 277.25
4109.5 217.25
4110.5 239.625
4111.5 255.5
4112.5 190.875
4113.5 206
4114.5 250.125
4115.5 215.125
4116.5 241.875
4117.5 258.25
4118.5 237.625
4119.5 181.375
4120.5 214.5
4121.5 212.125
4122.5 181.375
4123.5 171.125
4124.5 142.75
4125.5 230.875
4126.5 227.375
4127.5 220.5
4128.5 210.75
4129.5 167.875
4130.5 116.875
4131.5 152
4132.5 181.625
4133.5 146.125
4134.5 142.5
4135.5 172
4136.5 167
4137.5 190.875
4138.5 176.125
4139.5 234
4140.5 180.875
4141.5 181.5
4142.5 193.125
4143.5 185.75
4144.5 184
4145.5 142.25
4146.5 182.75
4147.5 166
4148.5 154.875
4149.5 169.875
4150.5 206.625
4151.5 186.375
4152.5 219.5
4153.5 191.25
4154.5 190.75
4155.5 189.375
4156.5 194.25
4157.5 200.625
4158.5 263.5
4159.5 286.25
4160.5 244.875
4161.5 230.75
4162.5 149.125
4163.5 218.625
4164.5 205.5
4165.5 222.5
4166.5 176.5
4167.5 225.5
4168.5 197.375
4169.5 233.5
4170.5 206.375
4171.5 260.375
4172.5 292
4173.5 249.75
4174.5 269.625
4175.5 140.75
4176.5 179.625
4177.5 187.875
4178.5 150.625
4179.5 175.125
4180.5 182.25
4181.5 183
4182.5 145.25
4183.5 133
4184.5 191.75
4185.5 204
4186.5 186.125
4187.5 185.875
4188.5 116.375
4189.5 170.625
4190.5 184.875
4191.5 139.75
4192.5 72.875
4193.5 169.375
4194.5 165.75
4195.5 186.75
4196.5 215.375
4197.5 168.875
4198.5 290.625
4199.5 362.375
4200.5 322.875
4201.5 352
4202.5 364.5
4203.5 226
4204.5 221.875
4205.5 215.875
4206.5 252
4207.5 287.5
4208.5 397
4209.5 382.5
4210.5 364.375
4211.5 213.5
4212.5 198.625
4213.5 200.375
4214.5 195
4215.5 233.25
4216.5 226.5
4217.5 220.625
4218.5 187.75
4219.5 209.625
4220.5 145.5
4221.5 179.875
4222.5 158.375
4223.5 130.5
4224.5 122.125
4225.5 148.125
4226.5 157.625
4227.5 179.75
4228.5 153.875
4229.5 184
4230.5 168.125
4231.5 179.25
4232.5 206.875
4233.5 228.125
4234.5 302.125
4235.5 150.5
4236.5 225.25
4237.5 208.625
4238.5 223.875
4239.5 179.25
4240.5 222.125
4241.5 151.25
4242.5 194.5
4243.5 170
4244.5 174.375
4245.5 113.25
4246.5 176.25
4247.5 152.375
4248.5 105.875
4249.5 108.875
4250.5 134.375
4251.5 152.75
4252.5 180.75
4253.5 178.75
4254.5 166.375
4255.5 198.25
4256.5 245.625
4257.5 306
4258.5 327
4259.5 247
4260.5 220.75
4261.5 177
4262.5 263.625
4263.5 276.125
4264.5 375.75
4265.5 307
4266.5 331.625
4267.5 180.375
4268.5 230.375
4269.5 178.5
4270.5 136.875
4271.5 140.5
4272.5 190.25
4273.5 179.25
4274.5 197.375
4275.5 218.125
4276.5 240.625
4277.5 212.875
4278.5 223.125
4279.5 238.125
4280.5 211.75
4281.5 250.75
4282.5 188.625
4283.5 234.375
4284.5 174.25
4285.5 174.75
4286.5 124.75
4287.5 139.5
4288.5 171.625
4289.5 195
4290.5 114.75
4291.5 183.5
4292.5 200.75
4293.5 172.25
4294.5 203.25
4295.5 220.75
4296.5 200.375
4297.5 182.625
4298.5 215.75
4299.5 177.375
4300.5 186.25
4301.5 241.5
4302.5 219.125
4303.5 288.375
4304.5 317
4305.5 379.875
4306.5 376.5
4307.5 288.375
4308.5 214.875
4309.5 250.375
4310.5 200.5
4311.5 249.125
4312.5 197.875
4313.5 204.25
4314.5 193.375
4315.5 172.375
4316.5 252.125
4317.5 258.375
4318.5 206
4319.5 193.25
4320.5 144
4321.5 176.625
4322.5 127.75
4323.5 185.25
4324.5 155.625
4325.5 168.625
4326.5 190
4327.5 151
4328.5 209.75
4329.5 188
4330.5 237.125
4331.5 233.75
4332.5 267.375
4333.5 195.375
4334.5 128.875
4335.5 152.375
4336.5 164.625
4337.5 158
4338.5 137.625
4339.5 154.625
4340.5 164
4341.5 132.625
4342.5 101.125
4343.5 163.625
4344.5 175.875
4345.5 129.75
4346.5 171.625
4347.5 161.625
4348.5 159.25
4349.5 167.5
4350.5 167
4351.5 186.625
4352.5 149.625
4353.5 160.625
4354.5 154
4355.5 180.5
4356.5 137.25
4357.5 168.75
4358.5 139.625
4359.5 104.5
4360.5 123.875
4361.5 217.25
4362.5 170.25
4363.5 145.375
4364.5 166.125
4365.5 217.125
4366.5 161.625
4367.5 245.75
4368.5 222.625
4369.5 174
4370.5 171.625
4371.5 257
4372.5 221.625
4373.5 248.5
4374.5 262.125
4375.5 178.5
4376.5 276.125
4377.5 192.75
4378.5 182.5
4379.5 237
4380.5 236
4381.5 209.875
4382.5 256.125
4383.5 227.125
4384.5 137
4385.5 162.875
4386.5 134.375
4387.5 168.875
4388.5 182.75
4389.5 155
4390.5 213.375
4391.5 166.625
4392.5 219.625
4393.5 182.5
4394.5 209.75
4395.5 189.375
4396.5 159.375
4397.5 155.125
4398.5 100.875
4399.5 166
4400.5 124.625
4401.5 162.875
4402.5 144.25
4403.5 218.125
4404.5 187
4405.5 157.625
4406.5 222.25
4407.5 247.875
4408.5 284.125
4409.5 243.25
4410.5 225.875
4411.5 211.75
4412.5 213
4413.5 159.875
4414.5 108.75
4415.5 127.25
4416.5 142.125
4417.5 133.25
4418.5 139.5
4419.5 144.75
4420.5 156.875
4421.5 167.75
4422.5 166
4423.5 180.375
4424.5 197.375
4425.5 166.625
4426.5 121.5
4427.5 182.875
4428.5 159.125
4429.5 137.5
4430.5 136.125
4431.5 109.375
4432.5 107.375
4433.5 155.125
4434.5 178.125
4435.5 128.625
4436.5 146.875
4437.5 167.75
4438.5 150.875
4439.5 126
4440.5 127.625
4441.5 200.125
4442.5 141.375
4443.5 159.5
4444.5 154.375
4445.5 165.375
4446.5 156.75
4447.5 177
4448.5 154.5
4449.5 174.75
4450.5 220.375
4451.5 242.5
4452.5 302.25
4453.5 297.5
4454.5 560
4455.5 623.5
4456.5 721.5
4457.5 783
4458.5 627.125
4459.5 503
4460.5 525.375
4461.5 449.625
4462.5 430.75
4463.5 336
4464.5 340.25
4465.5 336
4466.5 372.75
4467.5 467.125
4468.5 411.25
4469.5 300.25
4470.5 260.625
4471.5 182
4472.5 127.375
4473.5 107.875
4474.5 139.125
4475.5 147.875
4476.5 138.625
4477.5 74.125
4478.5 125.875
4479.5 154.5
4480.5 170.125
4481.5 168.75
4482.5 153.875
4483.5 177
4484.5 114.625
4485.5 194.125
4486.5 291.625
4487.5 329.75
4488.5 396.625
4489.5 349.125
4490.5 249
4491.5 207.75
4492.5 190.5
4493.5 186.375
4494.5 168
4495.5 217.5
4496.5 169.625
4497.5 187.625
4498.5 150
4499.5 145.375
4500.5 131.625
4501.5 141.25
4502.5 132.625
4503.5 129
4504.5 138.625
4505.5 153.75
4506.5 131.375
4507.5 168.25
4508.5 206.25
4509.5 193.375
4510.5 152.875
4511.5 159.5
4512.5 180.875
4513.5 102.375
4514.5 128
4515.5 172
4516.5 157.75
4517.5 169.25
4518.5 105.5
4519.5 154.625
4520.5 111.875
4521.5 92.5
4522.5 144.375
4523.5 218.625
4524.5 203.5
4525.5 196.625
4526.5 219
4527.5 215
4528.5 182.625
4529.5 164.5
4530.5 194.75
4531.5 168.5
4532.5 133.25
4533.5 136.625
4534.5 188.375
4535.5 152
4536.5 165.375
4537.5 131.625
4538.5 129.375
4539.5 129.625
4540.5 124
4541.5 127.125
4542.5 148.875
4543.5 116.75
4544.5 106.5
4545.5 162.5
4546.5 200.625
4547.5 133.5
4548.5 175.75
4549.5 184.75
4550.5 252
4551.5 302.5
4552.5 344.75
4553.5 282.875
4554.5 242.875
4555.5 296.625
4556.5 288.25
4557.5 265.875
4558.5 202.25
4559.5 200.625
4560.5 251.25
4561.5 281.75
4562.5 362.125
4563.5 400.875
4564.5 510.125
4565.5 493
4566.5 282.625
4567.5 134.625
4568.5 113.375
4569.5 126.5
4570.5 120.625
4571.5 68.25
4572.5 75.375
4573.5 115
4574.5 112.375
4575.5 123.5
4576.5 170.625
4577.5 143.5
4578.5 138.125
4579.5 161.5
4580.5 165
4581.5 136.625
4582.5 153.75
4583.5 131.25
4584.5 161
4585.5 106.5
4586.5 166.5
4587.5 166.5
4588.5 201.125
4589.5 195.625
4590.5 202.5
4591.5 139.875
4592.5 96.5
4593.5 159.75
4594.5 114.875
4595.5 218
4596.5 186.875
4597.5 212.25
4598.5 206.375
4599.5 258.25
4600.5 230.625
4601.5 169.75
4602.5 146.625
4603.5 189.625
4604.5 254.625
4605.5 249.625
4606.5 263.625
4607.5 235.375
4608.5 195.375
4609.5 190
4610.5 137.375
4611.5 125.125
4612.5 160.5
4613.5 187.375
4614.5 280.25
4615.5 230.5
4616.5 257.5
4617.5 284.125
4618.5 222.125
4619.5 186
4620.5 201.75
4621.5 241
4622.5 265.125
4623.5 220.125
4624.5 332.125
4625.5 315.125
4626.5 238.5
4627.5 163.25
4628.5 184
4629.5 145.125
4630.5 119.75
4631.5 157.25
4632.5 123.625
4633.5 132.875
4634.5 136.875
4635.5 148.875
4636.5 155.375
4637.5 191.125
4638.5 172.75
4639.5 169.25
4640.5 127.875
4641.5 138.25
4642.5 151.125
4643.5 220.875
4644.5 227.375
4645.5 211
4646.5 278.5
4647.5 234.5
4648.5 279.375
4649.5 220.125
4650.5 218.75
4651.5 129.5
4652.5 106.25
4653.5 180
4654.5 149.625
4655.5 146
4656.5 158
4657.5 142
4658.5 116.625
4659.5 114.125
4660.5 147.375
4661.5 133.5
4662.5 142.625
4663.5 113
4664.5 106.125
4665.5 111.25
4666.5 170.125
4667.5 127.125
4668.5 132.75
4669.5 99.75
4670.5 157.875
4671.5 117.25
4672.5 126
4673.5 138.375
4674.5 98.875
4675.5 82.625
4676.5 83.375
4677.5 127
4678.5 137.875
4679.5 170.5
4680.5 149.75
4681.5 172
4682.5 197
4683.5 219.375
4684.5 242.25
4685.5 215.5
4686.5 163.5
4687.5 169.75
4688.5 140.625
4689.5 124.375
4690.5 145.75
4691.5 105.5
4692.5 167.875
4693.5 138.75
4694.5 124
4695.5 142.75
4696.5 99.625
4697.5 111.5
4698.5 143
4699.5 140.875
4700.5 137.875
4701.5 140.5
4702.5 125
4703.5 120
4704.5 106.25
4705.5 88
4706.5 100.625
4707.5 101.875
4708.5 132.375
4709.5 193.375
4710.5 240.125
4711.5 278.375
4712.5 327
4713.5 263.625
4714.5 263.125
4715.5 137.625
4716.5 162.25
4717.5 136.375
4718.5 154.875
4719.5 96.875
4720.5 162.625
4721.5 157.75
4722.5 125.25
4723.5 153
4724.5 173.875
4725.5 108.125
4726.5 171
4727.5 133.75
4728.5 171.5
4729.5 127.125
4730.5 84
4731.5 125.75
4732.5 131.75
4733.5 178.375
4734.5 101.875
4735.5 145.125
4736.5 150.375
4737.5 97.875
4738.5 81.625
4739.5 90.25
4740.5 111.875
4741.5 127.75
4742.5 142.375
4743.5 151.5
4744.5 186.75
4745.5 213
4746.5 284.875
4747.5 183
4748.5 220.25
4749.5 214
4750.5 195.25
4751.5 181.5
4752.5 119
4753.5 162.875
4754.5 149
4755.5 137.75
4756.5 119
4757.5 89.375
4758.5 84.5
4759.5 149.5
4760.5 130.125
4761.5 136.25
4762.5 131.75
4763.5 158.375
4764.5 141.125
4765.5 158.125
4766.5 152.25
4767.5 185.625
4768.5 136.5
4769.5 176.375
4770.5 130.25
4771.5 131.5
4772.5 153.75
4773.5 124.375
4774.5 165.5
4775.5 122.25
4776.5 156.125
4777.5 110.625
4778.5 118
4779.5 160.5
4780.5 111.375
4781.5 93
4782.5 138.375
4783.5 167.125
4784.5 172.25
4785.5 189
4786.5 213.625
4787.5 162.75
4788.5 157.875
4789.5 216.375
4790.5 233.875
4791.5 270.375
4792.5 202.125
4793.5 215
4794.5 137.375
4795.5 127
4796.5 157.25
4797.5 127.875
4798.5 148
4799.5 159.625
4800.5 168.375
4801.5 99.625
4802.5 137.125
4803.5 161.625
4804.5 177.5
4805.5 202
4806.5 295.375
4807.5 266.375
4808.5 288.375
4809.5 196.75
4810.5 203.125
4811.5 191.25
4812.5 217.375
4813.5 198.5
4814.5 198.625
4815.5 268.625
4816.5 144.625
4817.5 116.625
4818.5 113
4819.5 177
4820.5 163.625
4821.5 122.375
4822.5 141.375
4823.5 159.375
4824.5 114.25
4825.5 113
4826.5 68.75
4827.5 136
4828.5 150.875
4829.5 106.875
4830.5 120
4831.5 112.625
4832.5 83.375
4833.5 145.25
4834.5 113.125
4835.5 134.125
4836.5 103.5
4837.5 152.875
4838.5 138.5
4839.5 159
4840.5 213
4841.5 280.5
4842.5 318.625
4843.5 320.875
4844.5 322.375
4845.5 202.75
4846.5 215.25
4847.5 162
4848.5 219.75
4849.5 183.125
4850.5 163.625
4851.5 151.5
4852.5 92.125
4853.5 144.75
4854.5 157.375
4855.5 104.625
4856.5 134.25
4857.5 153.875
4858.5 138.25
4859.5 110.625
4860.5 115.625
4861.5 87.75
4862.5 91.625
4863.5 123.25
4864.5 80.5
4865.5 131.875
4866.5 80.625
4867.5 154.875
4868.5 144.375
4869.5 196.875
4870.5 153.875
4871.5 204
4872.5 211.5
4873.5 208.25
4874.5 207
4875.5 180.5
4876.5 246.625
4877.5 218.875
4878.5 277.5
4879.5 207.375
4880.5 221
4881.5 177.625
4882.5 97
4883.5 185.75
4884.5 118.5
4885.5 118.875
4886.5 215.5
4887.5 119.125
4888.5 157.125
4889.5 206.5
4890.5 238.25
4891.5 160.25
4892.5 144.25
4893.5 152.875
4894.5 107.375
4895.5 98.875
4896.5 139.375
4897.5 94.25
4898.5 114.125
4899.5 116.125
4900.5 120.625
4901.5 150
4902.5 168
4903.5 285.125
4904.5 336.75
4905.5 300
4906.5 228.25
4907.5 121.125
4908.5 145
4909.5 151.125
4910.5 91.5
4911.5 146
4912.5 160.5
4913.5 150.875
4914.5 206.125
4915.5 238.875
4916.5 299.375
4917.5 384.375
4918.5 593.5
4919.5 550.5
4920.5 422.75
4921.5 282.5
4922.5 175.125
4923.5 128.25
4924.5 154
4925.5 149.75
4926.5 140.5
4927.5 119.75
4928.5 103
4929.5 121.625
4930.5 121
4931.5 179
4932.5 103.875
4933.5 93.875
4934.5 83.875
4935.5 103.5
4936.5 90.5
4937.5 152.625
4938.5 119.75
4939.5 132.375
4940.5 182.5
4941.5 139.625
4942.5 111.125
4943.5 125.375
4944.5 125.5
4945.5 106
4946.5 157.5
4947.5 116.25
4948.5 138.125
4949.5 131.75
4950.5 118.125
4951.5 86.25
4952.5 118.75
4953.5 127.125
4954.5 106.25
4955.5 79.375
4956.5 112.125
4957.5 102.625
4958.5 144.875
4959.5 101.5
4960.5 88.625
4961.5 94.625
4962.5 71.25
4963.5 82.5
4964.5 107
4965.5 143.875
4966.5 150.75
4967.5 109.125
4968.5 154.375
4969.5 165.375
4970.5 187.875
4971.5 249
4972.5 257
4973.5 208.375
4974.5 248.875
4975.5 322
4976.5 214.875
4977.5 132.5
4978.5 95.5
4979.5 162.25
4980.5 162.375
4981.5 112.875
4982.5 66.375
4983.5 129.25
4984.5 51.625
4985.5 132.875
4986.5 185.25
4987.5 94.875
4988.5 142.375
4989.5 152
4990.5 185.875
4991.5 168.75
4992.5 161.375
4993.5 158
4994.5 163.375
4995.5 138.875
4996.5 150.125
4997.5 135.125
4998.5 77.875
4999.5 51.625
5000.5 118.875
5001.5 120
5002.5 178.5
5003.5 138
5004.5 127.75
5005.5 207.25
5006.5 306.25
5007.5 235.125
5008.5 209.375
5009.5 235.625
5010.5 202.625
5011.5 210.25
5012.5 215.625
5013.5 239.125
5014.5 171
5015.5 199.5
5016.5 201.125
5017.5 170.25
5018.5 111.875
5019.5 66.875
5020.5 125.125
5021.5 99.875
5022.5 106.5
5023.5 83.375
5024.5 118.25
5025.5 167.375
5026.5 118.625
5027.5 116.75
5028.5 115
5029.5 114
5030.5 125.625
5031.5 168.375
5032.5 140.625
5033.5 223.5
5034.5 263.75
5035.5 315.875
5036.5 391.25
5037.5 504.75
5038.5 505.875
5039.5 312.25
5040.5 239.5
5041.5 193.375
5042.5 188.5
5043.5 160.875
5044.5 194
5045.5 178.625
5046.5 180.25
5047.5 185.25
5048.5 201.625
5049.5 154.875
5050.5 118
5051.5 144.375
5052.5 117.5
5053.5 119.5
5054.5 123
5055.5 162
5056.5 161
5057.5 203.875
5058.5 163.75
5059.5 122.25
5060.5 129.375
5061.5 163.75
5062.5 168.5
5063.5 143.25
5064.5 169.5
5065.5 108.5
5066.5 161.25
5067.5 143
5068.5 148.25
5069.5 126.875
5070.5 132.25
5071.5 96.75
5072.5 99.125
5073.5 121.5
5074.5 142.25
5075.5 116.875
5076.5 130.5
5077.5 157.875
5078.5 120.875
5079.5 145.375
5080.5 159.75
5081.5 172
5082.5 208.25
5083.5 164.25
5084.5 142.125
5085.5 115
5086.5 151.25
5087.5 99.625
5088.5 129.625
5089.5 131
5090.5 169.875
5091.5 128.625
5092.5 123.75
5093.5 174.5
5094.5 93.5
5095.5 106.125
5096.5 126.5
5097.5 124.75
5098.5 172.5
5099.5 115.5
5100.5 165.625
5101.5 103.25
5102.5 104.625
5103.5 136.125
5104.5 98
5105.5 88.5
5106.5 76.375
5107.5 91.875
5108.5 105.5
5109.5 104.5
5110.5 105.875
5111.5 112.5
5112.5 148.625
5113.5 156.375
5114.5 195.5
5115.5 217.5
5116.5 263.375
5117.5 188.875
5118.5 212.25
5119.5 202.375
5120.5 209.875
5121.5 132.125
5122.5 154.125
5123.5 137
5124.5 95
5125.5 87.75
5126.5 134.5
5127.5 118.5
5128.5 169.375
5129.5 189.375
5130.5 73.125
5131.5 162.625
5132.5 237.625
5133.5 197.125
5134.5 227.875
5135.5 250.125
5136.5 144.125
5137.5 112.375
5138.5 121
5139.5 89.75
5140.5 110.875
5141.5 102.625
5142.5 86.25
5143.5 59.5
5144.5 98.25
5145.5 83.625
5146.5 124.875
5147.5 126.75
5148.5 155
5149.5 140.5
5150.5 81
5151.5 111.25
5152.5 124.25
5153.5 131.75
5154.5 160
5155.5 149.25
5156.5 141.625
5157.5 175.25
5158.5 196.875
5159.5 171.375
5160.5 207.75
5161.5 220.375
5162.5 175.375
5163.5 244
5164.5 209
5165.5 233.25
5166.5 174
5167.5 173.25
5168.5 153.875
5169.5 121.875
5170.5 129.875
5171.5 116.125
5172.5 97.75
5173.5 136.25
5174.5 102.625
5175.5 106.875
5176.5 98.875
5177.5 103.875
5178.5 125.25
5179.5 138
5180.5 116.125
5181.5 137.875
5182.5 100.25
5183.5 75.875
5184.5 112.5
5185.5 127.375
5186.5 148.125
5187.5 65.125
5188.5 144.875
5189.5 169.25
5190.5 153
5191.5 162.875
5192.5 237.125
5193.5 343.25
5194.5 399.625
5195.5 415.5
5196.5 354.875
5197.5 264.875
5198.5 158.625
5199.5 184.75
5200.5 131.875
5201.5 145
5202.5 160.125
5203.5 125.375
5204.5 105.125
5205.5 137.25
5206.5 110.75
5207.5 112.75
5208.5 149.625
5209.5 102.875
5210.5 97.875
5211.5 137
5212.5 156.875
5213.5 132.5
5214.5 175.375
5215.5 84.875
5216.5 153.625
5217.5 124.125
5218.5 181.625
5219.5 220
5220.5 208.625
5221.5 303.25
5222.5 423.75
5223.5 495.875
5224.5 392
5225.5 319.25
5226.5 267.625
5227.5 186.625
5228.5 162.625
5229.5 151.5
5230.5 137.75
5231.5 129
5232.5 95.5
5233.5 134.75
5234.5 143.25
5235.5 149.625
5236.5 181.75
5237.5 215.375
5238.5 223.75
5239.5 195.25
5240.5 205
5241.5 191.75
5242.5 171.875
5243.5 125.75
5244.5 127.25
5245.5 144
5246.5 139.875
5247.5 114.875
5248.5 112.625
5249.5 78.875
5250.5 96.75
5251.5 96.5
5252.5 117.125
5253.5 111.625
5254.5 131.75
5255.5 64.25
5256.5 154.625
5257.5 114.875
5258.5 111.25
5259.5 66.875
5260.5 180.875
5261.5 157
5262.5 177
5263.5 194
5264.5 161.25
5265.5 161.75
5266.5 129.875
5267.5 88.375
5268.5 120.875
5269.5 155.5
5270.5 79
5271.5 78.75
5272.5 83.25
5273.5 89.5
5274.5 161
5275.5 123.625
5276.5 127
5277.5 120.75
5278.5 116.25
5279.5 140
5280.5 117.125
5281.5 152.125
5282.5 122.75
5283.5 121.5
5284.5 118.625
5285.5 102.375
5286.5 120.25
5287.5 146.875
5288.5 75.25
5289.5 141.75
5290.5 75.5
5291.5 128.25
5292.5 115
5293.5 146.5
5294.5 104.125
5295.5 98.125
5296.5 145
5297.5 120.125
5298.5 145.75
5299.5 165.875
5300.5 182.75
5301.5 297.75
5302.5 356.375
5303.5 413.25
5304.5 392
5305.5 319.375
5306.5 262.375
5307.5 153.5
5308.5 181.5
5309.5 143.75
5310.5 103.125
5311.5 114.375
5312.5 101.125
5313.5 131.875
5314.5 222.875
5315.5 238.5
5316.5 296.5
5317.5 367.25
5318.5 350.25
5319.5 332.125
5320.5 273
5321.5 222.625
5322.5 235.5
5323.5 177.125
5324.5 160.25
5325.5 184.625
5326.5 117.75
5327.5 130.125
5328.5 158.875
5329.5 226.875
5330.5 191.25
5331.5 172.5
5332.5 202.375
5333.5 127
5334.5 106.75
5335.5 107.625
5336.5 135.375
5337.5 116.625
5338.5 91
5339.5 120.125
5340.5 113.625
5341.5 100.25
5342.5 129.25
5343.5 116.125
5344.5 119.625
5345.5 102.625
5346.5 88.625
5347.5 132.75
5348.5 165
5349.5 186.375
5350.5 254.875
5351.5 269.875
5352.5 349.375
5353.5 463
5354.5 562.75
5355.5 683.125
5356.5 553.375
5357.5 374.75
5358.5 301.875
5359.5 200.875
5360.5 175.25
5361.5 113.875
5362.5 97.375
5363.5 83.625
5364.5 109.375
5365.5 98.25
5366.5 94.125
5367.5 85
5368.5 88.625
5369.5 123.25
5370.5 126.625
5371.5 101
5372.5 124.25
5373.5 124.625
5374.5 124.75
5375.5 102.625
5376.5 109.625
5377.5 105.125
5378.5 78.375
5379.5 79.375
5380.5 97.5
5381.5 93.875
5382.5 139.375
5383.5 109
5384.5 95.25
5385.5 70.375
5386.5 173.25
5387.5 215.75
5388.5 261
5389.5 242
5390.5 155.125
5391.5 185.375
5392.5 136.25
5393.5 184.125
5394.5 163.625
5395.5 234.875
5396.5 291.125
5397.5 325.25
5398.5 246.375
5399.5 250
5400.5 105.625
5401.5 130.25
5402.5 77.5
5403.5 103.375
5404.5 96.875
5405.5 65
5406.5 84.5
5407.5 104
5408.5 111
5409.5 116.625
5410.5 104.125
5411.5 69.5
5412.5 63.75
5413.5 138.25
5414.5 97.125
5415.5 123.625
5416.5 144.75
5417.5 112
5418.5 85.25
5419.5 78.625
5420.5 116.875
5421.5 126.25
5422.5 84.25
5423.5 96.875
5424.5 83.75
5425.5 69.75
5426.5 106
5427.5 93.5
5428.5 107.375
5429.5 123.375
5430.5 88
5431.5 92.75
5432.5 115.75
5433.5 142.625
5434.5 53.375
5435.5 125.375
5436.5 124.125
5437.5 46.375
5438.5 137.5
5439.5 91.875
5440.5 79.625
5441.5 101.125
5442.5 97
5443.5 101.875
5444.5 72.125
5445.5 89
5446.5 96.25
5447.5 91.625
5448.5 118
5449.5 116.625
5450.5 129.625
5451.5 125.5
5452.5 132.5
5453.5 112.625
5454.5 94.875
5455.5 144.75
5456.5 109.25
5457.5 110
5458.5 75.75
5459.5 94.375
5460.5 87.625
5461.5 60.5
5462.5 41.5
5463.5 98
5464.5 67.625
5465.5 61.25
5466.5 84.25
5467.5 78
5468.5 112.875
5469.5 139.125
5470.5 117
5471.5 133.125
5472.5 60.5
5473.5 175.375
5474.5 132.75
5475.5 101.75
5476.5 116.5
5477.5 122.75
5478.5 96.5
5479.5 128.375
5480.5 88.875
5481.5 129.875
5482.5 151.625
5483.5 94
5484.5 119.75
5485.5 134.875
5486.5 130.375
5487.5 99.125
5488.5 137.5
5489.5 132.75
5490.5 96.75
5491.5 118.25
5492.5 124.5
5493.5 134.5
5494.5 138
5495.5 98.75
5496.5 117.875
5497.5 107.5
5498.5 122.5
5499.5 93.75
5500.5 91.375
5501.5 116.875
5502.5 93.125
5503.5 93.125
5504.5 137.125
5505.5 89.25
5506.5 126.125
5507.5 81.125
5508.5 83.375
5509.5 112.375
5510.5 90.375
5511.5 85.25
5512.5 132.5
5513.5 68.5
5514.5 113.75
5515.5 143.75
5516.5 157.75
5517.5 106.75
5518.5 155.875
5519.5 234.625
5520.5 245.375
5521.5 250.5
5522.5 331.25
5523.5 323
5524.5 281.5
5525.5 249.375
5526.5 255.5
5527.5 237
5528.5 185.125
5529.5 131.125
5530.5 146.875
5531.5 130.5
5532.5 74.25
5533.5 132.375
5534.5 121
5535.5 78.375
5536.5 120.375
5537.5 127.875
5538.5 134.5
5539.5 127.875
5540.5 91
5541.5 71
5542.5 108.375
5543.5 107.875
5544.5 89
5545.5 152
5546.5 70.625
5547.5 126.875
5548.5 92.75
5549.5 94.75
5550.5 87.375
5551.5 65.25
5552.5 129.25
5553.5 140.125
5554.5 180.125
5555.5 169.75
5556.5 236.25
5557.5 265.125
5558.5 193.5
5559.5 170.5
5560.5 87.375
5561.5 87.5
5562.5 123
5563.5 118
5564.5 114.875
5565.5 136.625
5566.5 143.5
5567.5 69.75
5568.5 113.125
5569.5 87.625
5570.5 121.5
5571.5 124.5
5572.5 135.25
5573.5 91.875
5574.5 131
5575.5 132.75
5576.5 88.125
5577.5 100.375
5578.5 125.625
5579.5 91
5580.5 149.875
5581.5 148.875
5582.5 189.125
5583.5 123.75
5584.5 108.25
5585.5 97.25
5586.5 97.5
5587.5 105.875
5588.5 163.375
5589.5 135
5590.5 188
5591.5 199.375
5592.5 214
5593.5 271
5594.5 218
5595.5 167.75
5596.5 152.125
5597.5 159
5598.5 124.75
5599.5 107.75
5600.5 79
5601.5 73.625
5602.5 87.25
5603.5 88
5604.5 75.125
5605.5 75.5
5606.5 112.5
5607.5 51.875
5608.5 90.5
5609.5 55.375
5610.5 117.75
5611.5 74.375
5612.5 130
5613.5 92.5
5614.5 170.75
5615.5 64.75
5616.5 79.875
5617.5 79.75
5618.5 99.75
5619.5 115.625
5620.5 81.5
5621.5 112
5622.5 154.625
5623.5 129.875
5624.5 138.5
5625.5 249.75
5626.5 306.75
5627.5 348.5
5628.5 362.625
5629.5 428.375
5630.5 334.625
5631.5 277.5
5632.5 153.5
5633.5 159.25
5634.5 110.625
5635.5 120
5636.5 97.625
5637.5 134.375
5638.5 143.25
5639.5 139.75
5640.5 115.75
5641.5 163.625
5642.5 84.875
5643.5 102.375
5644.5 113
5645.5 90.25
5646.5 78.25
5647.5 121.25
5648.5 68.75
5649.5 61
5650.5 68.75
5651.5 74.5
5652.5 92.125
5653.5 100.375
5654.5 66.875
5655.5 38.375
5656.5 98.25
5657.5 100.5
5658.5 121.125
5659.5 87.25
5660.5 87
5661.5 72.75
5662.5 96.25
5663.5 83.625
5664.5 77.125
5665.5 65.25
5666.5 59.125
5667.5 124.875
5668.5 109.125
5669.5 112.625
5670.5 85.5
5671.5 98.125
5672.5 163
5673.5 125.75
5674.5 94
5675.5 47.5
5676.5 83.125
5677.5 83.625
5678.5 92.375
5679.5 92.875
5680.5 109.125
5681.5 49.25
5682.5 92.125
5683.5 99.5
5684.5 81
5685.5 87.125
5686.5 102
5687.5 94.5
5688.5 98.5
5689.5 72.5
5690.5 76.375
5691.5 102.25
5692.5 65.75
5693.5 56.25
5694.5 89.25
5695.5 64.625
5696.5 110.875
5697.5 76.5
5698.5 71.25
5699.5 80.25
5700.5 92.375
5701.5 81.625
5702.5 58.25
5703.5 69.5
5704.5 80
5705.5 67.375
5706.5 99.875
5707.5 112.875
5708.5 97.25
5709.5 124.25
5710.5 110.5
5711.5 83.25
5712.5 96.25
5713.5 106
5714.5 88
5715.5 91.375
5716.5 125.125
5717.5 129.625
5718.5 83
5719.5 96.25
5720.5 79.625
5721.5 96.375
5722.5 135
5723.5 105.375
5724.5 111.875
5725.5 110.75
5726.5 94.125
5727.5 109.125
5728.5 105.75
5729.5 165
5730.5 212.5
5731.5 333.75
5732.5 469.875
5733.5 551.125
5734.5 756.75
5735.5 710
5736.5 678.625
5737.5 451.25
5738.5 196
5739.5 151.125
5740.5 132.875
5741.5 129.125
5742.5 129.875
5743.5 147.25
5744.5 120.625
5745.5 94.75
5746.5 138.25
5747.5 102
5748.5 143.25
5749.5 119.75
5750.5 155.75
5751.5 115.625
5752.5 156.125
5753.5 160.75
5754.5 129
5755.5 115.25
5756.5 105.375
5757.5 123.875
5758.5 76.625
5759.5 77.5
5760.5 97.875
5761.5 92.25
5762.5 50.5
5763.5 39.375
5764.5 69.375
5765.5 47.875
5766.5 55.875
5767.5 70.75
5768.5 75.875
5769.5 54.75
5770.5 71.75
5771.5 61.25
5772.5 75.25
5773.5 75.5
5774.5 42.875
5775.5 74.875
5776.5 56
5777.5 59
5778.5 62.75
5779.5 69
5780.5 69
5781.5 40.125
5782.5 83.125
5783.5 45.5
5784.5 95.5
5785.5 100
5786.5 104.625
5787.5 114.125
5788.5 110
5789.5 116.125
5790.5 104.375
5791.5 123.375
5792.5 67
5793.5 70.5
5794.5 108.25
5795.5 71.625
5796.5 124.75
5797.5 145.125
5798.5 78
5799.5 102.625
5800.5 102.25
5801.5 64.375
5802.5 66.5
5803.5 94.75
5804.5 99.25
5805.5 78.875
5806.5 108.75
5807.5 69.125
5808.5 98.75
5809.5 65.375
5810.5 77.875
5811.5 50.5
5812.5 80.875
5813.5 57.125
5814.5 78
5815.5 134.25
5816.5 100.25
5817.5 123.25
5818.5 108.375
5819.5 111
5820.5 65.5
5821.5 81
5822.5 104.5
5823.5 110
5824.5 199
5825.5 259.375
5826.5 331.875
5827.5 405.75
5828.5 635.875
5829.5 775.125
5830.5 751.5
5831.5 548.25
5832.5 405.375
5833.5 343.625
5834.5 198.875
5835.5 195.625
5836.5 150.375
5837.5 149
5838.5 158.5
5839.5 215.25
5840.5 198.75
5841.5 208.125
5842.5 256.25
5843.5 236.375
5844.5 163.25
5845.5 93.625
5846.5 59.375
5847.5 67.5
5848.5 65.125
5849.5 44
5850.5 74.125
5851.5 74.875
5852.5 80.75
5853.5 62
5854.5 101.875
5855.5 71.75
5856.5 61.75
5857.5 75.875
5858.5 69
5859.5 28.875
5860.5 57.875
5861.5 57.875
5862.5 105.25
5863.5 64.5
5864.5 66.375
5865.5 49.75
5866.5 77.5
5867.5 64.625
5868.5 52.875
5869.5 73.375
5870.5 71.875
5871.5 106.875
5872.5 59.75
5873.5 64
5874.5 66.875
5875.5 33.625
5876.5 52.875
5877.5 64.25
5878.5 56.25
5879.5 71.125
5880.5 56
5881.5 80.75
5882.5 57.625
5883.5 62.625
5884.5 79.25
5885.5 69.5
5886.5 64.375
5887.5 103.875
5888.5 54
5889.5 25.875
5890.5 47.25
5891.5 87.125
5892.5 106.5
5893.5 25.75
5894.5 83
5895.5 144
5896.5 154.75
5897.5 143.375
5898.5 217.5
5899.5 465.625
5900.5 440.25
5901.5 453.25
5902.5 323.75
5903.5 206.25
5904.5 54.125
5905.5 47
5906.5 114.75
5907.5 84
5908.5 169
5909.5 155.875
5910.5 143.375
5911.5 108.375
5912.5 167.125
5913.5 79.375
5914.5 58.75
5915.5 55.5
5916.5 58.125
5917.5 66.5
5918.5 51.625
5919.5 41.75
5920.5 54.625
5921.5 33.875
5922.5 76.75
5923.5 52.75
5924.5 79.375
5925.5 50.125
5926.5 42.625
5927.5 53.75
5928.5 39.5
5929.5 63.625
5930.5 74.125
5931.5 62.625
5932.5 64.875
5933.5 66
5934.5 39.75
5935.5 37.125
5936.5 50.625
5937.5 48.5
5938.5 53.125
5939.5 54.25
5940.5 43.625
5941.5 37
5942.5 43.375
5943.5 44.5
5944.5 35.25
5945.5 36.875
5946.5 52.625
5947.5 8
5948.5 44.25
5949.5 48.5
5950.5 12.5
5951.5 29.25
5952.5 60.125
5953.5 43.375
5954.5 39.625
5955.5 39.75
5956.5 10.875
5957.5 60.875
5958.5 51.5
5959.5 54
5960.5 52.5
5961.5 47.375
5962.5 40.25
5963.5 101.5
5964.5 34.625
5965.5 95.875
5966.5 83.875
5967.5 101.625
5968.5 70.625
5969.5 68.75
5970.5 25.25
5971.5 42.625
5972.5 67.75
5973.5 74.375
5974.5 54.5
5975.5 73.625
5976.5 54.25
5977.5 35.625
5978.5 59.375
5979.5 29.875
5980.5 22.75
5981.5 42.125
5982.5 59.75
5983.5 63
5984.5 56.5
5985.5 73.625
5986.5 28.875
5987.5 28
5988.5 31.25
5989.5 35
5990.5 53
5991.5 54.625
5992.5 29.75
5993.5 85.5
5994.5 63.125
5995.5 21.125
5996.5 100.625
5997.5 63.75
5998.5 74.25
5999.5 8.875
6000.5 140.375
6001.5 219.125
6002.5 131.75
6003.5 24.75
6004.5 67.75
6005.5 72
6006.5 64.625
6007.5 44.25
6008.5 41.875
6009.5 49.125
6010.5 40
6011.5 65.75
6012.5 58.5
6013.5 26.625
6014.5 60.125
6015.5 60.875
6016.5 50.375
6017.5 56.375
6018.5 29.625
6019.5 47.25
6020.5 40.125
6021.5 39.125
6022.5 59.5
6023.5 21.875
6024.5 42.875
6025.5 69.5
6026.5 59.125
6027.5 68.375
6028.5 96.875
6029.5 195
6030.5 240.625
6031.5 366.875
6032.5 428.5
6033.5 546.125
6034.5 587.875
6035.5 525.25
6036.5 435.875
6037.5 354.25
6038.5 369.125
6039.5 331.875
6040.5 228.125
6041.5 151
6042.5 116
6043.5 91.125
6044.5 62.75
6045.5 51.375
6046.5 42.625
6047.5 56
6048.5 41.125
6049.5 42.125
6050.5 66.75
6051.5 58.125
6052.5 46.375
6053.5 55.25
6054.5 67.5
6055.5 89.375
6056.5 27.5
6057.5 44.75
6058.5 67.75
6059.5 42.875
6060.5 24.375
6061.5 47.25
6062.5 30.75
6063.5 42.25
6064.5 50.875
6065.5 45
6066.5 62.25
6067.5 26.125
6068.5 20.25
6069.5 44.125
6070.5 23.25
6071.5 56.25
6072.5 36.875
6073.5 45.25
6074.5 40.5
6075.5 42.875
6076.5 17.5
6077.5 14.125
6078.5 29.375
6079.5 56.5
6080.5 41.625
6081.5 55.375
6082.5 17.625
6083.5 45.75
6084.5 32
6085.5 27.125
6086.5 61.625
6087.5 28.5
6088.5 22.375
6089.5 36
6090.5 33.375
6091.5 62
6092.5 55.625
6093.5 69.875
6094.5 49.25
6095.5 42.375
6096.5 85.75
6097.5 93.125
6098.5 108.5
6099.5 124.125
6100.5 171.875
6101.5 257.625
6102.5 286.25
6103.5 333
6104.5 302.125
6105.5 291.25
6106.5 211.125
6107.5 89
6108.5 82.625
6109.5 52.375
6110.5 80.5
6111.5 32.125
6112.5 59.5
6113.5 35.375
6114.5 21.75
6115.5 51.875
6116.5 65.125
6117.5 39.75
6118.5 13.875
6119.5 48.625
6120.5 21.125
6121.5 31.5
6122.5 43.5
6123.5 140.625
6124.5 78.25
6125.5 55.625
6126.5 40.625
6127.5 19.375
6128.5 89.875
6129.5 32.125
6130.5 33.375
6131.5 20.5
6132.5 20.125
6133.5 54.375
6134.5 35.375
6135.5 29
6136.5 25.25
6137.5 24.5
6138.5 44.5
6139.5 55.875
6140.5 40.875
6141.5 31.125
6142.5 15.875
6143.5 32
6144.5 46.125
6145.5 66.625
6146.5 57.375
6147.5 80.25
6148.5 105.75
6149.5 96
6150.5 118.25
6151.5 136.625
6152.5 130.625
6153.5 117.625
6154.5 102.75
6155.5 62.875
6156.5 55.125
6157.5 55.75
6158.5 34.625
6159.5 27.625
6160.5 0.625
6161.5 29.5
6162.5 33.5
6163.5 37
6164.5 34.25
6165.5 44
6166.5 25.25
6167.5 21.625
6168.5 37
6169.5 52.25
6170.5 31.75
6171.5 32.875
6172.5 9.25
6173.5 19.625
6174.5 45.875
6175.5 18.25
6176.5 33.625
6177.5 51.375
6178.5 32.875
6179.5 45.5
6180.5 34.75
6181.5 22
6182.5 44.125
6183.5 50.25
6184.5 15.625
6185.5 32.625
6186.5 51
6187.5 20.125
6188.5 15.5
6189.5 31.875
6190.5 10.5
6191.5 45.25
6192.5 35.625
6193.5 58.125
6194.5 34.75
6195.5 30
6196.5 -8.75
6197.5 16.25
6198.5 0.625
6199.5 7.375
6200.5 29.25
6201.5 16
6202.5 41.5
6203.5 31.375
6204.5 32.625
6205.5 17.875
6206.5 28.125
6207.5 32.375
6208.5 40.625
6209.5 26.5
6210.5 20.5
6211.5 43.375
6212.5 31
6213.5 32.875
6214.5 21.25
6215.5 50.375
6216.5 26
6217.5 48.5
6218.5 45.125
6219.5 36.875
6220.5 52.25
6221.5 95.625
6222.5 79
6223.5 124.125
6224.5 104
6225.5 149.625
6226.5 74.125
6227.5 19.375
6228.5 45.875
6229.5 33.25
6230.5 34.5
6231.5 25.5
6232.5 20.5
6233.5 40.75
6234.5 26.75
6235.5 22.875
6236.5 23.75
6237.5 16
6238.5 38.75
6239.5 15.625
6240.5 31.25
6241.5 38
6242.5 44.5
6243.5 56.625
6244.5 23.625
6245.5 80
6246.5 38.625
6247.5 37.875
6248.5 43
6249.5 37.25
6250.5 56.125
6251.5 53
6252.5 45.75
6253.5 47.625
6254.5 90.75
6255.5 66.5
6256.5 133
6257.5 150.125
6258.5 177.875
6259.5 214.75
6260.5 167.375
6261.5 254.5
6262.5 150
6263.5 123.375
6264.5 65.125
6265.5 41.625
6266.5 45.625
6267.5 28
6268.5 34.75
6269.5 23.875
6270.5 30
6271.5 7.25
6272.5 31.875
6273.5 42.5
6274.5 28.625
6275.5 50.75
6276.5 45.25
6277.5 24.25
6278.5 21.875
6279.5 26.375
6280.5 33.375
6281.5 41.625
6282.5 37.375
6283.5 33
6284.5 32.5
6285.5 29.25
6286.5 35
6287.5 61.125
6288.5 41
6289.5 35.625
6290.5 34.875
6291.5 1.75
6292.5 31.125
6293.5 31.625
6294.5 25.5
6295.5 51.5
6296.5 26.625
6297.5 34.125
6298.5 23.375
6299.5 14.125
6300.5 44.875
6301.5 37
6302.5 38.875
6303.5 16.875
6304.5 26
6305.5 45.5
6306.5 40.125
6307.5 47.25
6308.5 40.875
6309.5 35.5
6310.5 55.25
6311.5 25.5
6312.5 46.25
6313.5 29.875
6314.5 16.625
6315.5 46.25
6316.5 13.5
6317.5 62.625
6318.5 45.375
6319.5 27.25
6320.5 23.375
6321.5 64.75
6322.5 47.875
6323.5 60.25
6324.5 59
6325.5 110.125
6326.5 91.125
6327.5 95.875
6328.5 113.875
6329.5 63.25
6330.5 70.5
6331.5 73.75
6332.5 21.25
6333.5 37.875
6334.5 34.25
6335.5 21.125
6336.5 38
6337.5 48.125
6338.5 59.875
6339.5 42.875
6340.5 36.5
6341.5 46.5
6342.5 46.5
6343.5 25.625
6344.5 34
6345.5 16.5
6346.5 18.875
6347.5 23
6348.5 -3.75
6349.5 28.75
6350.5 41
6351.5 16.875
6352.5 31
6353.5 42.375
6354.5 26.125
6355.5 23.5
6356.5 23.375
6357.5 23.75
6358.5 10.75
6359.5 44.125
6360.5 28
6361.5 24.125
6362.5 37.875
6363.5 36.375
6364.5 18.25
6365.5 13.25
6366.5 43.125
6367.5 23.125
6368.5 39.875
6369.5 38.625
6370.5 32.625
6371.5 27.75
6372.5 26.375
6373.5 11.5
6374.5 3.25
6375.5 27.75
6376.5 15.75
6377.5 40.5
6378.5 34.5
6379.5 31.875
6380.5 21.875
6381.5 48.375
6382.5 36.75
6383.5 16.5
6384.5 23
6385.5 31.125
6386.5 31.125
6387.5 26.375
6388.5 54.625
6389.5 33.5
6390.5 57.5
6391.5 70.75
6392.5 73.875
6393.5 91.75
6394.5 96
6395.5 131.5
6396.5 155
6397.5 107.25
6398.5 90.375
6399.5 56.875
6400.5 35.375
6401.5 14.375
6402.5 16.375
6403.5 12
6404.5 25.625
6405.5 33.375
6406.5 17.75
6407.5 18.75
6408.5 51.875
6409.5 47.875
6410.5 28
6411.5 32.625
6412.5 39
6413.5 29.75
6414.5 41.75
6415.5 39.875
6416.5 52.875
6417.5 33.875
6418.5 31.25
6419.5 21.5
6420.5 33.625
6421.5 55.125
6422.5 90.25
6423.5 61.5
6424.5 49.75
6425.5 39.125
6426.5 41.625
6427.5 36.375
6428.5 25.75
6429.5 51.875
6430.5 41.75
6431.5 49.625
6432.5 45.125
6433.5 38.875
6434.5 51.25
6435.5 13.25
6436.5 47.75
6437.5 29.625
6438.5 48.875
6439.5 24.375
6440.5 30.375
6441.5 30
6442.5 57.5
6443.5 42.875
6444.5 33.5
6445.5 44.625
6446.5 5.625
6447.5 31
6448.5 29.125
6449.5 35.25
6450.5 37.75
6451.5 37
6452.5 29.25
6453.5 50.25
6454.5 17.125
6455.5 46.875
6456.5 6.75
6457.5 54.75
6458.5 34.375
6459.5 29.25
6460.5 43
6461.5 29
6462.5 5
6463.5 20.5
6464.5 4.875
6465.5 27.75
6466.5 44.375
6467.5 37.875
6468.5 33.25
6469.5 44
6470.5 35.75
6471.5 48
6472.5 42
6473.5 31.25
6474.5 41.625
6475.5 42.125
6476.5 82.75
6477.5 73.75
6478.5 111.375
6479.5 129.5
6480.5 116.125
6481.5 67.5
6482.5 27
6483.5 25.625
6484.5 43.625
6485.5 53.375
6486.5 18.5
6487.5 54.125
6488.5 38.125
6489.5 24
6490.5 20.625
6491.5 20.75
6492.5 31.5
6493.5 42.625
6494.5 19.5
6495.5 20.875
6496.5 5.25
6497.5 35.25
6498.5 21.125
6499.5 26.125
6500.5 35.75
6501.5 9.375
6502.5 48.5
6503.5 55.75
6504.5 25.5
6505.5 23.875
6506.5 35.75
6507.5 33.875
6508.5 21.5
6509.5 1
6510.5 41.25
6511.5 49.5
6512.5 31.75
6513.5 24.25
6514.5 58.5
6515.5 35.625
6516.5 53.5
6517.5 47.25
6518.5 33
6519.5 45.625
6520.5 31.25
6521.5 26
6522.5 16.875
6523.5 40.625
6524.5 19.5
6525.5 38.5
6526.5 28.625
6527.5 28.875
6528.5 23.625
6529.5 32.5
6530.5 23
6531.5 28.375
6532.5 36.125
6533.5 25
6534.5 50
6535.5 37.625
6536.5 38.125
6537.5 37.5
6538.5 71.375
6539.5 51
6540.5 28.375
6541.5 84.125
6542.5 48.625
6543.5 119.5
6544.5 143.5
6545.5 169.625
6546.5 191.75
6547.5 152.25
6548.5 101.375
6549.5 59.5
6550.5 62.875
6551.5 38.625
6552.5 30
6553.5 34.875
6554.5 64
6555.5 33.875
6556.5 29.75
6557.5 14.5
6558.5 48.75
6559.5 33.5
6560.5 45.625
6561.5 48.25
6562.5 50.375
6563.5 42.5
6564.5 38.75
6565.5 74.75
6566.5 94
6567.5 33.375
6568.5 41.625
6569.5 61.625
6570.5 44
6571.5 28.75
6572.5 38
6573.5 32.625
6574.5 38.75
6575.5 36.75
6576.5 31.75
6577.5 20.125
6578.5 51.125
6579.5 28.375
6580.5 45.125
6581.5 32.125
6582.5 33.75
6583.5 49.625
6584.5 29.5
6585.5 12.375
6586.5 31.75
6587.5 33
6588.5 12.125
6589.5 14.875
6590.5 27.625
6591.5 41.625
6592.5 34.5
6593.5 18.875
6594.5 18
6595.5 33.125
6596.5 20.625
6597.5 25.25
6598.5 35
6599.5 34.125
6600.5 11.625
6601.5 28
6602.5 39.125
6603.5 59.75
6604.5 29.375
6605.5 14.875
6606.5 28.375
6607.5 43.5
6608.5 37
6609.5 36.375
6610.5 46.75
6611.5 28.375
6612.5 46.125
6613.5 28.125
6614.5 22.375
6615.5 22.125
6616.5 43.875
6617.5 25.875
6618.5 46.75
6619.5 25.75
6620.5 43.25
6621.5 39.25
6622.5 28.875
6623.5 32.875
6624.5 47.5
6625.5 32.625
6626.5 20.125
6627.5 29.375
6628.5 28.625
6629.5 39.75
6630.5 1.375
6631.5 21.75
6632.5 22.125
6633.5 46.5
6634.5 20.875
6635.5 35.5
6636.5 32.75
6637.5 19.75
6638.5 2.875
6639.5 19.625
6640.5 18.625
6641.5 29.5
6642.5 24.25
6643.5 17.375
6644.5 21.875
6645.5 16.5
6646.5 53.375
6647.5 15.875
6648.5 34.125
6649.5 45.5
6650.5 36.625
6651.5 40.25
6652.5 33.75
6653.5 52.625
6654.5 30.25
6655.5 24.125
6656.5 29.5
6657.5 32.5
6658.5 27.375
6659.5 23.625
6660.5 25.375
6661.5 24.75
6662.5 32.625
6663.5 27
6664.5 33.25
6665.5 16
6666.5 18.875
6667.5 37.125
6668.5 19.5
6669.5 23.625
6670.5 14.5
6671.5 21.375
6672.5 22.5
6673.5 28.625
6674.5 14
6675.5 30.5
6676.5 8.75
6677.5 12.25
6678.5 23.5
6679.5 13.875
6680.5 17.375
6681.5 52.5
6682.5 20
6683.5 25.125
6684.5 14.5
6685.5 34.125
6686.5 44.5
6687.5 25.25
6688.5 11.625
6689.5 23.375
6690.5 39.5
6691.5 37.25
6692.5 13
6693.5 28.625
6694.5 49.75
6695.5 54
6696.5 35.125
6697.5 57.875
6698.5 46.375
6699.5 37.625
6700.5 37.25
6701.5 28.875
6702.5 25.625
6703.5 20.25
6704.5 31.125
6705.5 15.5
6706.5 19.875
6707.5 26.25
6708.5 -3.125
6709.5 20
6710.5 -19.75
6711.5 3.375
6712.5 21.5
6713.5 40.625
6714.5 23.875
6715.5 34.625
6716.5 33.875
6717.5 21.375
6718.5 -5.875
6719.5 39.125
6720.5 27.25
6721.5 36.5
6722.5 33.75
6723.5 40.25
6724.5 16.25
6725.5 13
6726.5 43.875
6727.5 48.75
6728.5 62.5
6729.5 64.25
6730.5 59.75
6731.5 71.5
6732.5 71.375
6733.5 50.125
6734.5 31
6735.5 31.875
6736.5 22.125
6737.5 35
6738.5 17.125
6739.5 17.75
6740.5 29.375
6741.5 36.625
6742.5 33.75
6743.5 30.375
6744.5 32.875
6745.5 68.875
6746.5 46.5
6747.5 55.625
6748.5 56.875
6749.5 44.75
6750.5 24.125
6751.5 49.875
6752.5 16.25
6753.5 34.5
6754.5 24.75
6755.5 9.875
6756.5 17.875
6757.5 22.625
6758.5 28.25
6759.5 14.375
6760.5 31.5
6761.5 21.75
6762.5 36.75
6763.5 46.125
6764.5 65.125
6765.5 82.75
6766.5 134.625
6767.5 143.25
6768.5 225.75
6769.5 289.875
6770.5 292.625
6771.5 369.25
6772.5 385
6773.5 327.5
6774.5 269.75
6775.5 154.5
6776.5 73.5
6777.5 34.5
6778.5 32.75
6779.5 35.125
6780.5 36.125
6781.5 9.125
6782.5 24.375
6783.5 25.625
6784.5 10.875
6785.5 24.5
6786.5 18.5
6787.5 28.375
6788.5 15.125
6789.5 22.375
6790.5 22
6791.5 24.25
6792.5 13.5
6793.5 14.75
6794.5 9.375
6795.5 18.75
6796.5 15.25
6797.5 40.125
6798.5 58.875
6799.5 57.875
6800.5 43
6801.5 62.5
6802.5 53
6803.5 30.125
6804.5 17.875
6805.5 21.375
6806.5 28.5
6807.5 31
6808.5 2.625
6809.5 17.875
6810.5 22.25
6811.5 15
6812.5 12.375
6813.5 30.125
6814.5 9.375
6815.5 35.5
6816.5 44.5
6817.5 12
6818.5 15.75
6819.5 21
6820.5 27
6821.5 32.625
6822.5 13.375
6823.5 17.125
6824.5 36
6825.5 28.75
6826.5 4.625
6827.5 22.125
6828.5 24.25
6829.5 13
6830.5 17.625
6831.5 21.375
6832.5 24
6833.5 28
6834.5 7
6835.5 20.25
6836.5 23.875
6837.5 15.875
6838.5 18.5
6839.5 27.375
6840.5 20.125
6841.5 19.875
6842.5 9.25
6843.5 7.625
6844.5 32.375
6845.5 12.875
6846.5 14.375
6847.5 18.375
6848.5 29
6849.5 1.25
6850.5 26.75
6851.5 8.875
6852.5 -0.375
6853.5 27.125
6854.5 20.75
6855.5 25.125
6856.5 11.125
6857.5 4
6858.5 19.5
6859.5 9.875
6860.5 14.75
6861.5 13.125
6862.5 21.5
6863.5 9.375
6864.5 15.75
6865.5 6.25
6866.5 17.875
6867.5 22.25
6868.5 26.25
6869.5 21.875
6870.5 12.75
6871.5 13
6872.5 15.625
6873.5 16.375
6874.5 13.25
6875.5 19.625
6876.5 8.625
6877.5 20.875
6878.5 18.625
6879.5 30
6880.5 -1.75
6881.5 22.125
6882.5 32.25
6883.5 37.375
6884.5 9.25
6885.5 25
6886.5 25.875
6887.5 21.625
6888.5 19.875
6889.5 30.25
6890.5 27.375
6891.5 31.75
6892.5 30.75
6893.5 20
6894.5 29.625
6895.5 20.375
6896.5 22.25
6897.5 24.75
6898.5 39.5
6899.5 59.25
6900.5 62.5
6901.5 70
6902.5 113.75
6903.5 157.75
6904.5 170.75
6905.5 215.5
6906.5 275.75
6907.5 279.25
6908.5 256.125
6909.5 195.125
6910.5 177.625
6911.5 85
6912.5 50.75
6913.5 38.75
6914.5 43
6915.5 15.625
6916.5 27.5
6917.5 26
6918.5 14.5
6919.5 34.75
6920.5 23.125
6921.5 18.875
6922.5 28.75
6923.5 25
6924.5 45.875
6925.5 14.5
6926.5 21.75
6927.5 21.625
6928.5 31.625
6929.5 28.875
6930.5 32.125
6931.5 44.5
6932.5 36.25
6933.5 33.5
6934.5 39.625
6935.5 78.125
6936.5 64.375
6937.5 66.25
6938.5 34.75
6939.5 8.625
6940.5 34.375
6941.5 26.375
6942.5 21.75
6943.5 43
6944.5 22.125
6945.5 24.625
6946.5 16.75
6947.5 5.375
6948.5 22.5
6949.5 33.875
6950.5 23.125
6951.5 37.625
6952.5 20.125
6953.5 23.375
6954.5 19.25
6955.5 13.125
6956.5 11.125
6957.5 9.875
6958.5 9.5
6959.5 24.75
6960.5 18.75
6961.5 22.625
6962.5 40.625
6963.5 24
6964.5 22
6965.5 20.75
6966.5 24.875
6967.5 23.875
6968.5 12.375
6969.5 28.875
6970.5 40.5
6971.5 25.75
6972.5 32.375
6973.5 20.375
6974.5 21.75
6975.5 18.25
6976.5 29.875
6977.5 11.625
6978.5 7.625
6979.5 16.125
6980.5 27
6981.5 25.25
6982.5 33.5
6983.5 33
6984.5 23.875
6985.5 23.75
6986.5 16.75
6987.5 29
6988.5 26.875
6989.5 6.875
6990.5 21.625
6991.5 8.875
6992.5 14.875
6993.5 15.625
6994.5 23.625
6995.5 13.75
6996.5 21.25
6997.5 16.625
6998.5 21
6999.5 11.625
7000.5 18.125
7001.5 32.5
7002.5 8.375
7003.5 18.625
7004.5 26.625
7005.5 17.75
7006.5 1
7007.5 19
7008.5 41
7009.5 22.75
7010.5 25
7011.5 12.25
7012.5 28.625
7013.5 18.125
7014.5 23.25
7015.5 14.5
7016.5 25.25
7017.5 0.75
7018.5 27
7019.5 33
7020.5 37.125
7021.5 27.75
7022.5 -2
7023.5 16
7024.5 23
7025.5 20.375
7026.5 22.5
7027.5 17
7028.5 22.375
7029.5 28.5
7030.5 23.75
7031.5 16.25
7032.5 27.25
7033.5 38.125
7034.5 14.125
7035.5 24.125
7036.5 33.5
7037.5 21
7038.5 15.25
7039.5 16.875
7040.5 26.125
7041.5 11.75
7042.5 27.5
7043.5 18.875
7044.5 32
7045.5 9.625
7046.5 12.75
7047.5 10.875
7048.5 13.625
7049.5 14
7050.5 4.625
7051.5 24.25
7052.5 38.875
7053.5 16.25
7054.5 19
7055.5 6.5
7056.5 15.75
7057.5 25.875
7058.5 27.125
7059.5 49.5
7060.5 15.75
7061.5 29
7062.5 24.625
7063.5 23.625
7064.5 28.625
7065.5 21.875
7066.5 22
7067.5 27.125
7068.5 32
7069.5 22.5
7070.5 10.625
7071.5 9.25
7072.5 25.75
7073.5 41.125
7074.5 36.25
7075.5 21.5
7076.5 -2.625
7077.5 32.25
7078.5 43
7079.5 40.125
7080.5 29.875
7081.5 31.375
7082.5 16
7083.5 -7.5
7084.5 24.25
7085.5 29.375
7086.5 29.25
7087.5 23.875
7088.5 8.75
7089.5 7.75
7090.5 22.125
7091.5 29.25
7092.5 29.125
7093.5 4.625
7094.5 18.375
7095.5 19.125
7096.5 31.375
7097.5 12.375
7098.5 27.5
7099.5 29
7100.5 12.75
7101.5 21.125
7102.5 18.625
7103.5 16.875
7104.5 4.875
7105.5 29.375
7106.5 27.25
7107.5 16.75
7108.5 12.75
7109.5 18.75
7110.5 17.25
7111.5 15.25
7112.5 19.125
7113.5 8
7114.5 18.75
7115.5 18
7116.5 16.25
7117.5 20.5
7118.5 26.75
7119.5 8.625
7120.5 15.5
7121.5 28.375
7122.5 22.75
7123.5 26.125
7124.5 17.5
7125.5 34.625
7126.5 16.625
7127.5 16.5
7128.5 9.875
7129.5 25.125
7130.5 16
7131.5 4.625
7132.5 16.875
7133.5 25.875
7134.5 26.875
7135.5 25
7136.5 24.125
7137.5 19.25
7138.5 25
7139.5 23.125
7140.5 34.125
7141.5 18.375
7142.5 16.75
7143.5 32.625
7144.5 26.25
7145.5 18.5
7146.5 23.375
7147.5 29
7148.5 21.375
7149.5 17.5
7150.5 6.375
7151.5 18.875
7152.5 37.5
7153.5 22.625
7154.5 35.75
7155.5 17
7156.5 18.875
7157.5 11.75
7158.5 36.875
7159.5 33.5
7160.5 22.125
7161.5 24.625
7162.5 25.875
7163.5 27.375
7164.5 6.375
7165.5 25.5
7166.5 12.625
7167.5 36.375
7168.5 24
7169.5 9
7170.5 9.375
7171.5 18.5
7172.5 40.5
7173.5 20.375
7174.5 19.375
7175.5 26.375
7176.5 -3.125
7177.5 13.25
7178.5 27.875
7179.5 10.875
7180.5 10.625
7181.5 22.75
7182.5 21
7183.5 23
7184.5 23
7185.5 15.125
7186.5 15.375
7187.5 27.125
7188.5 32
7189.5 15.125
7190.5 12.625
7191.5 28
7192.5 29.875
7193.5 12
7194.5 28.125
7195.5 28
7196.5 12.375
7197.5 19.625
7198.5 49.25
7199.5 16.125
7200.5 13.5
7201.5 40.25
7202.5 32.875
7203.5 45.75
7204.5 50.125
7205.5 10.125
7206.5 23.625
7207.5 45.5
7208.5 11.875
7209.5 15.375
7210.5 9.5
7211.5 42.25
7212.5 33.5
7213.5 3.5
7214.5 31.5
7215.5 13.25
7216.5 7
7217.5 14.625
7218.5 28.75
7219.5 7.125
7220.5 35
7221.5 15.125
7222.5 18.5
7223.5 11.125
7224.5 -0.75
7225.5 23
7226.5 7.75
7227.5 25.5
7228.5 13
7229.5 9
7230.5 13.25
7231.5 29.875
7232.5 8.75
7233.5 24.5
7234.5 18.125
7235.5 13.5
7236.5 18.25
7237.5 14.125
7238.5 18.75
7239.5 18.875
7240.5 14
7241.5 24.875
7242.5 13.25
7243.5 17.125
7244.5 15.5
7245.5 12.5
7246.5 26.125
7247.5 10
7248.5 14.875
7249.5 20.75
7250.5 22.125
7251.5 25.25
7252.5 4.625
7253.5 9.75
7254.5 31.75
7255.5 16.75
7256.5 31.875
7257.5 -5.375
7258.5 32.25
7259.5 25.25
7260.5 -40.875
7261.5 32.625
7262.5 17
7263.5 26.75
7264.5 30.5
7265.5 28.375
7266.5 -1.375
7267.5 15.625
7268.5 6.375
7269.5 -1.375
7270.5 32.875
7271.5 3.625
7272.5 28.75
7273.5 25.875
7274.5 25.5
7275.5 27.875
7276.5 22.5
7277.5 18.875
7278.5 20.375
7279.5 7.375
7280.5 19.25
7281.5 11.75
7282.5 12.5
7283.5 5.375
7284.5 29.125
7285.5 12.5
7286.5 21.625
7287.5 0.125
7288.5 17.125
7289.5 0.625
7290.5 19.875
7291.5 8.875
7292.5 35.5
7293.5 -0.625
7294.5 11.375
7295.5 8.625
7296.5 24.75
7297.5 10
7298.5 11.875
7299.5 25.25
7300.5 24.75
7301.5 1.125
7302.5 8.625
7303.5 39.625
7304.5 27.5
7305.5 47.375
7306.5 46.125
7307.5 61
7308.5 74.875
7309.5 118.875
7310.5 94.5
7311.5 102.25
7312.5 118.75
7313.5 88.125
7314.5 57.875
7315.5 42.625
7316.5 23
7317.5 19.5
7318.5 27.75
7319.5 29.5
7320.5 9.625
7321.5 11.375
7322.5 17.375
7323.5 10.75
7324.5 24.5
7325.5 17.25
7326.5 12.125
7327.5 11.625
7328.5 15
7329.5 17.875
7330.5 -9.5
7331.5 -0.5
7332.5 15.625
7333.5 8.25
7334.5 18.5
7335.5 10.875
7336.5 -1.375
7337.5 11.875
7338.5 6
7339.5 11.75
7340.5 12.625
7341.5 5.625
7342.5 9.5
7343.5 19.625
7344.5 9.875
7345.5 18.75
7346.5 8.375
7347.5 23.5
7348.5 24.75
7349.5 -0.5
7350.5 26
7351.5 33.25
7352.5 10
7353.5 8.875
7354.5 28.75
7355.5 14
7356.5 10.75
7357.5 11.875
7358.5 4
7359.5 21
7360.5 20.5
7361.5 20.875
7362.5 16.875
7363.5 26.5
7364.5 17.25
7365.5 6.5
7366.5 15.625
7367.5 19
7368.5 -2.625
7369.5 6.25
7370.5 4.5
7371.5 8.75
7372.5 28.125
7373.5 14.5
7374.5 8.875
7375.5 12.5
7376.5 -3.25
7377.5 0.25
7378.5 3
7379.5 3.875
7380.5 14
7381.5 -0.375
7382.5 13.125
7383.5 20.875
7384.5 4
7385.5 5.5
7386.5 13.75
7387.5 13
7388.5 12.125
7389.5 16.75
7390.5 8.125
7391.5 0.5
7392.5 6.5
7393.5 -9.75
7394.5 -1.5
7395.5 -14.75
7396.5 11.375
7397.5 -0.25
7398.5 7
7399.5 -1.375
7400.5 18.5
7401.5 19.25
7402.5 16.125
7403.5 11.75
7404.5 0.25
7405.5 16.375
7406.5 9.875
7407.5 13.875
7408.5 22.25
7409.5 28.75
7410.5 41.25
7411.5 63.875
7412.5 134.875
7413.5 139.375
7414.5 209.25
7415.5 301.875
7416.5 336.125
7417.5 452.125
7418.5 510.625
7419.5 466.125
7420.5 323.625
7421.5 229.25
7422.5 133.125
7423.5 63.25
7424.5 28
7425.5 31.5
7426.5 23.125
7427.5 29.75
7428.5 23.625
7429.5 11.5
7430.5 14.125
7431.5 9.25
7432.5 11.75
7433.5 2.25
7434.5 8.125
7435.5 -1.625
7436.5 7.75
7437.5 6.5
7438.5 3.5
7439.5 -1.875
7440.5 -4.875
7441.5 11.875
7442.5 -3.5
7443.5 0.625
7444.5 6.75
7445.5 13.375
7446.5 8.5
7447.5 15.125
7448.5 20.25
7449.5 24
7450.5 24.125
7451.5 33.625
7452.5 24.125
7453.5 38
7454.5 10.25
7455.5 23.75
7456.5 11.375
7457.5 0.625
7458.5 14.625
7459.5 12.5
7460.5 20
7461.5 12.125
7462.5 6.375
7463.5 7.125
7464.5 8.5
7465.5 3.5
7466.5 18.5
7467.5 5.625
7468.5 11.375
7469.5 -3
7470.5 11.625
7471.5 10.875
7472.5 -9.375
7473.5 7
7474.5 10.875
7475.5 13
7476.5 -3.375
7477.5 6.75
7478.5 7.75
7479.5 11.625
7480.5 4.5
7481.5 11.5
7482.5 1.75
7483.5 14.25
7484.5 9.75
7485.5 1.75
7486.5 7.625
7487.5 7.75
7488.5 12
7489.5 10.75
7490.5 19
7491.5 3.875
7492.5 -8.25
7493.5 11.5
7494.5 8.125
7495.5 4.625
7496.5 16.5
7497.5 6.75
7498.5 11.25
7499.5 4.625
7500.5 4
7501.5 -1.625
7502.5 10.75
7503.5 10
7504.5 7.5
7505.5 -1.125
7506.5 -2.25
7507.5 -1.5
7508.5 17.75
7509.5 0.125
7510.5 5.625
7511.5 5
7512.5 -3.5
7513.5 -7.875
7514.5 -5.75
7515.5 7.875
7516.5 6.125
7517.5 -1.875
7518.5 3.75
7519.5 2
7520.5 -1.375
7521.5 14.375
7522.5 10.25
7523.5 8.875
7524.5 8.375
7525.5 12.875
7526.5 1.25
7527.5 2.75
7528.5 1.125
7529.5 8.375
7530.5 15.25
7531.5 -6.5
7532.5 11.125
7533.5 -1.75
7534.5 11.875
7535.5 13.5
7536.5 5.25
7537.5 7
7538.5 9.75
7539.5 2
7540.5 1.125
7541.5 -4.875
7542.5 14.75
7543.5 -9.5
7544.5 0.25
7545.5 -4.125
7546.5 2.125
7547.5 2.75
7548.5 9
7549.5 9
7550.5 5.125
7551.5 -10.125
7552.5 4.875
7553.5 20
7554.5 2.875
7555.5 12.875
7556.5 18.5
7557.5 3.25
7558.5 -4.875
7559.5 13.625
7560.5 14.375
7561.5 0.125
7562.5 -2.75
7563.5 5
7564.5 17.875
7565.5 7.5
7566.5 11.25
7567.5 2.875
7568.5 11.5
7569.5 -8
7570.5 17.5
7571.5 4.875
7572.5 1.25
7573.5 -0.75
7574.5 10
7575.5 10.125
7576.5 10.5
7577.5 1.5
7578.5 -6.625
7579.5 -1.25
7580.5 10
7581.5 8
7582.5 -4.125
7583.5 12.75
7584.5 -1.875
7585.5 8.875
7586.5 4.125
7587.5 6
7588.5 8
7589.5 -5.125
7590.5 4.75
7591.5 13.125
7592.5 12.25
7593.5 3.25
7594.5 -3.875
7595.5 8.625
7596.5 -1.375
7597.5 6.125
7598.5 0
7599.5 8
7600.5 10.5
7601.5 2.375
7602.5 8.375
7603.5 11.375
7604.5 6.5
7605.5 7
7606.5 -1.75
7607.5 -4.75
7608.5 7.375
7609.5 5.875
7610.5 0.25
7611.5 5
7612.5 6.5
7613.5 8.75
7614.5 6.625
7615.5 4.125
7616.5 12
7617.5 -0.625
7618.5 12
7619.5 11.375
7620.5 4.125
7621.5 5
7622.5 3.625
7623.5 -3.75
7624.5 -2.75
7625.5 1
7626.5 7.125
7627.5 2.25
7628.5 10.625
7629.5 7.375
7630.5 9.125
7631.5 5.125
7632.5 3.875
7633.5 12
7634.5 -2.875
7635.5 12.625
7636.5 5.125
7637.5 7.375
7638.5 -0.875
7639.5 -1.625
7640.5 8.375
7641.5 3.375
7642.5 7.5
7643.5 7.875
7644.5 4
7645.5 12.375
7646.5 16.75
7647.5 1
7648.5 3.75
7649.5 -0.375
7650.5 -1.625
7651.5 10.375
7652.5 3.25
7653.5 -0.75
7654.5 2.75
7655.5 1.25
7656.5 0
7657.5 1.625
7658.5 -1.5
7659.5 -2.375
7660.5 15.375
7661.5 5.75
7662.5 4.625
7663.5 5
7664.5 13.25
7665.5 5.125
7666.5 11.125
7667.5 -10.625
7668.5 2.25
7669.5 0.625
7670.5 9
7671.5 4.5
7672.5 -1.5
7673.5 13.75
7674.5 4.625
7675.5 -2.875
7676.5 -5.125
7677.5 11.125
7678.5 2.875
7679.5 5
7680.5 -5.375
7681.5 -0.5
7682.5 -2.25
7683.5 4.5
7684.5 -5.5
7685.5 2.5
7686.5 10.375
7687.5 14.75
7688.5 -2.375
7689.5 -6.5
7690.5 3.5
7691.5 3
7692.5 7.875
7693.5 7.5
7694.5 0.125
7695.5 0
7696.5 11.5
7697.5 -1.5
7698.5 9.5
7699.5 -2.125
7700.5 2.625
7701.5 1.25
7702.5 11.25
7703.5 11.625
7704.5 3.25
7705.5 12.875
7706.5 1.875
7707.5 6
7708.5 -7.875
7709.5 12
7710.5 4.5
7711.5 5.75
7712.5 10.25
7713.5 5.5
7714.5 11.625
7715.5 -1.25
7716.5 5.125
7717.5 -5.5
7718.5 5.625
7719.5 0.375
7720.5 7.5
7721.5 10.375
7722.5 3.25
7723.5 4.5
7724.5 4.125
7725.5 6.75
7726.5 2.125
7727.5 4.25
7728.5 7.875
7729.5 1.5
7730.5 8
7731.5 9.25
7732.5 3.25
7733.5 7.625
7734.5 18
7735.5 5.375
7736.5 8
7737.5 -6.875
7738.5 -3
7739.5 -4.625
7740.5 4.375
7741.5 10
7742.5 6.125
7743.5 5.75
7744.5 -0.5
7745.5 6.875
7746.5 -1.875
7747.5 -13.625
7748.5 0.25
7749.5 5.75
7750.5 -9.375
7751.5 -2.375
7752.5 4.75
7753.5 9.25
7754.5 7.375
7755.5 -2.375
7756.5 -1.625
7757.5 1.125
7758.5 -3.25
7759.5 2.25
7760.5 0.5
7761.5 2.5
7762.5 6.125
7763.5 7.375
7764.5 8.5
7765.5 -2.75
7766.5 -6.25
7767.5 -7.25
7768.5 0.125
7769.5 -9
7770.5 45.25
7771.5 -15.75
7772.5 6.75
7773.5 34.875
7774.5 -28.375
7775.5 39.625
7776.5 21.75
7777.5 9
7778.5 -1.125
7779.5 5.125
7780.5 -9.625
7781.5 18
7782.5 6.5
7783.5 1.875
7784.5 0.25
7785.5 4.125
7786.5 3.875
7787.5 6.875
7788.5 -0.875
7789.5 8.75
7790.5 4.625
7791.5 -3.75
7792.5 5.125
7793.5 2.5
7794.5 -2.375
7795.5 -2.5
7796.5 -1.875
7797.5 5.5
7798.5 4.75
7799.5 -2.625
7800.5 -1.625
7801.5 0.75
7802.5 -0.75
7803.5 -0.5
7804.5 3.375
7805.5 -2.625
7806.5 2.125
7807.5 4.125
7808.5 -1.375
7809.5 14.25
7810.5 1
7811.5 6.625
7812.5 4.375
7813.5 15.375
7814.5 29.25
7815.5 44.75
7816.5 42.375
7817.5 73.75
7818.5 86.625
7819.5 121.625
7820.5 135.625
7821.5 181.125
7822.5 179.875
7823.5 177.75
7824.5 129.875
7825.5 79
7826.5 60.25
7827.5 46.75
7828.5 -22.875
7829.5 17.75
7830.5 13.875
7831.5 17.375
7832.5 3.375
7833.5 2.625
7834.5 -1
7835.5 4.875
7836.5 -3.375
7837.5 3.875
7838.5 3
7839.5 2.875
7840.5 7.25
7841.5 -4.625
7842.5 0.125
7843.5 -2.25
7844.5 -5
7845.5 -6.75
7846.5 5.75
7847.5 0.75
7848.5 6.875
7849.5 -3.625
7850.5 -3.5
7851.5 -0.25
7852.5 2.875
7853.5 -0.75
7854.5 -4.625
7855.5 -2
7856.5 -1
7857.5 3.75
7858.5 6.375
7859.5 1.125
7860.5 -4.875
7861.5 0.5
7862.5 0.875
7863.5 1
7864.5 0
7865.5 2.625
7866.5 -0.25
7867.5 7.5
7868.5 -0.125
7869.5 3.5
7870.5 1.125
7871.5 0.125
7872.5 -3.125
7873.5 -1.875
7874.5 3
7875.5 0.75
7876.5 -0.75
7877.5 -0.375
7878.5 -3.875
7879.5 2
7880.5 0.875
7881.5 8.25
7882.5 5.875
7883.5 2
7884.5 1.125
7885.5 -3.625
7886.5 0.25
7887.5 0.625
7888.5 1.375
7889.5 5.375
7890.5 2.25
7891.5 0.25
7892.5 0.75
7893.5 0.875
7894.5 -2.875
7895.5 -0.125
7896.5 6.5
7897.5 -3.625
7898.5 -1.75
7899.5 0.625
7900.5 -0.5
7901.5 5.75
7902.5 -5.375
7903.5 3.5
7904.5 3.25
7905.5 -0.125
7906.5 -0.75
7907.5 -4.5
7908.5 5.125
7909.5 -5.625
7910.5 2.75
7911.5 1.875
7912.5 5.75
7913.5 -0.875
7914.5 2.75
7915.5 2
7916.5 -0.125
7917.5 0.75
7918.5 3.75
7919.5 2.5
7920.5 -5.875
7921.5 -3.25
7922.5 -2.75
7923.5 2.125
7924.5 -2.625
7925.5 0.625
7926.5 4.875
7927.5 2.375
7928.5 -5.625
7929.5 -2.75
7930.5 -1.125
7931.5 4.5
7932.5 4.25
7933.5 -0.875
7934.5 -0.375
7935.5 -1
7936.5 5.5
7937.5 -0.75
7938.5 1.25
7939.5 -2.25
7940.5 -2
7941.5 2.125
7942.5 1.375
7943.5 -2.75
7944.5 -2
7945.5 2.5
7946.5 0.875
7947.5 1.625
7948.5 1.625
7949.5 1.5
7950.5 -0.25
7951.5 3.125
7952.5 -0.125
7953.5 -3.375
7954.5 -0.875
7955.5 4.625
7956.5 -3.125
7957.5 3.75
7958.5 -4.25
7959.5 2.625
7960.5 0.375
7961.5 -3.125
7962.5 3.5
7963.5 0
7964.5 -1.5
7965.5 -0.75
7966.5 6.625
7967.5 3.875
7968.5 0
7969.5 6.25
7970.5 -2.625
7971.5 3.125
7972.5 4.375
7973.5 -0.875
7974.5 7.125
7975.5 0.875
7976.5 -4.625
7977.5 0
7978.5 5.5
7979.5 3.25
7980.5 -1
7981.5 -1.75
7982.5 5.875
7983.5 2.875
7984.5 -0.125
7985.5 0.125
7986.5 0.625
7987.5 1.875
7988.5 -5.125
7989.5 -10.25
7990.5 1.125
7991.5 0.625
7992.5 4.5
7993.5 -5.5
7994.5 1.125
7995.5 -1.25
7996.5 1.375
7997.5 0.875
7998.5 9.375
7999.5 -3.25
8000.5 5.625
8001.5 -0.875
8002.5 3.875
8003.5 2.875
8004.5 0.5
8005.5 1.875
8006.5 -1
8007.5 0.125
8008.5 3.75
8009.5 -1.875
8010.5 5.125
8011.5 2.625
8012.5 -1.875
8013.5 2.5
8014.5 -1.25
8015.5 -0.25
8016.5 2.625
8017.5 0.5
8018.5 0.75
8019.5 -2
8020.5 4.5
8021.5 -0.25
8022.5 5.375
8023.5 4.375
8024.5 -2.25
8025.5 -0.25
8026.5 6
8027.5 3.5
8028.5 0.5
8029.5 1.875
8030.5 2
8031.5 5.5
8032.5 3.5
8033.5 -4.75
8034.5 -4
8035.5 -2.25
8036.5 0.375
8037.5 -1.25
8038.5 -0.375
8039.5 3.5
8040.5 -1.125
8041.5 -1.5
8042.5 -4
8043.5 3.5
8044.5 -3.25
8045.5 3.5
8046.5 1.625
8047.5 3.5
8048.5 -4
8049.5 1.625
8050.5 -0.875
8051.5 -0.25
8052.5 3.375
8053.5 -0.25
8054.5 -5.875
8055.5 -0.25
8056.5 -2
8057.5 0.875
8058.5 0.25
8059.5 1.75
8060.5 -1.375
8061.5 -1.25
8062.5 0
8063.5 0.625
8064.5 5.25
8065.5 -0.125
8066.5 4.375
8067.5 -1.125
8068.5 4.625
8069.5 -2
8070.5 -3.75
8071.5 1.375
8072.5 -3
8073.5 -3.25
8074.5 -0.375
8075.5 0
8076.5 -0.875
8077.5 3.875
8078.5 -2
8079.5 7.125
8080.5 12.75
8081.5 0.875
8082.5 10.875
8083.5 11.25
8084.5 -3.125
8085.5 -2.625
8086.5 11.25
8087.5 -4.75
8088.5 1.75
8089.5 11.75
8090.5 5.375
8091.5 3.125
8092.5 1.375
8093.5 1.125
8094.5 0.625
8095.5 -2.875
8096.5 2.75
8097.5 -5.625
8098.5 2.375
8099.5 -4.25
8100.5 -2.25
8101.5 -0.875
8102.5 0.25
8103.5 0.75
8104.5 4.625
8105.5 0.375
8106.5 -1.875
8107.5 -1.125
8108.5 0.75
8109.5 4.125
8110.5 -2.875
8111.5 -0.375
8112.5 -4.875
8113.5 3.5
8114.5 -2.25
8115.5 1.75
8116.5 1.625
8117.5 0.5
8118.5 -1
8119.5 -0.5
8120.5 -0.375
8121.5 -0.375
8122.5 3.625
8123.5 4.25
8124.5 -1.5
8125.5 0.75
8126.5 0.875
8127.5 1.625
8128.5 7
8129.5 -1.875
8130.5 0.75
8131.5 -4.125
8132.5 1.5
8133.5 0.5
8134.5 2.625
8135.5 1.5
8136.5 0.75
8137.5 4.5
8138.5 -0.125
8139.5 1.875
8140.5 1.5
8141.5 -3
8142.5 -1
8143.5 3
8144.5 -3.125
8145.5 5.375
8146.5 0.75
8147.5 4.5
8148.5 0.5
8149.5 -3.25
8150.5 5.375
8151.5 1.5
8152.5 -4
8153.5 3.125
8154.5 -2
8155.5 5.25
8156.5 -3.25
8157.5 -3.125
8158.5 0.625
8159.5 1.5
8160.5 -4
8161.5 -1.5
8162.5 1.875
8163.5 6.25
8164.5 1.375
8165.5 8.125
8166.5 -4.625
8167.5 -0.5
8168.5 2.5
8169.5 -3.25
8170.5 0.875
8171.5 -1.375
8172.5 4.375
8173.5 1.5
8174.5 2.375
8175.5 -1.125
8176.5 1.75
8177.5 2.375
8178.5 -3.375
8179.5 -0.625
8180.5 1.5
8181.5 -3.125
8182.5 -4.375
8183.5 0.5
8184.5 1.375
8185.5 0.75
8186.5 -1.5
8187.5 -3.125
8188.5 0.375
8189.5 2.875
8190.5 0.5
8191.5 6.25
8192.5 -1.25
8193.5 2.375
8194.5 0.125
8195.5 -3.875
8196.5 0.5
8197.5 0.625
8198.5 4.25
8199.5 -0.375
8200.5 -0.5
8201.5 -1.25
8202.5 -2.5
8203.5 -1.125
8204.5 -1
8205.5 0.375
8206.5 0.5
8207.5 1.5
8208.5 3.125
8209.5 -0.375
8210.5 3.25
8211.5 -0.5
8212.5 -1.5
8213.5 -1
8214.5 1.375
8215.5 9.25
8216.5 -3.375
8217.5 2.375
8218.5 1.875
8219.5 -1.25
8220.5 -2.375
8221.5 -1.75
8222.5 2.5
8223.5 -1.25
8224.5 -3.25
8225.5 3.125
8226.5 1
8227.5 1.75
8228.5 -0.5
8229.5 3.375
8230.5 0.625
8231.5 3.75
8232.5 -2.125
8233.5 -0.625
8234.5 -2
8235.5 3.25
8236.5 -1.5
8237.5 5.25
8238.5 0.5
8239.5 2.375
8240.5 -0.375
8241.5 2.375
8242.5 3.25
8243.5 2.5
8244.5 -5
8245.5 -2
8246.5 2.375
8247.5 -5.5
8248.5 2.5
8249.5 4.375
8250.5 3.125
8251.5 -1.25
8252.5 3.375
8253.5 -1.5
8254.5 0.25
8255.5 -3.375
8256.5 0.5
8257.5 4.25
8258.5 -2.25
8259.5 0.625
8260.5 -0.375
8261.5 0.375
8262.5 1.625
8263.5 -1.125
8264.5 -7
8265.5 3.5
8266.5 1.625
8267.5 -2.375
8268.5 2.375
8269.5 3.125
8270.5 -2.25
8271.5 3
8272.5 -1.25
8273.5 3.5
8274.5 5.625
8275.5 -1.5
8276.5 3
8277.5 -0.25
8278.5 4.375
8279.5 -1.5
8280.5 1.375
8281.5 -0.75
8282.5 -1.375
8283.5 -0.625
8284.5 -1.625
8285.5 -3.25
8286.5 -0.5
8287.5 0.5
8288.5 3.25
8289.5 -0.5
8290.5 0.5
8291.5 3.375
8292.5 3.125
8293.5 1.5
8294.5 3.25
8295.5 -3.375
8296.5 3.125
8297.5 -0.625
8298.5 -0.75
8299.5 2.5
8300.5 -4.125
8301.5 2.375
8302.5 1.25
8303.5 -1.625
8304.5 -0.5
8305.5 2.25
8306.5 1.375
8307.5 -0.5
8308.5 0.375
8309.5 -0.375
8310.5 3
8311.5 1.5
8312.5 0.5
8313.5 -4
8314.5 2.25
8315.5 0.375
8316.5 2.375
8317.5 -3.375
8318.5 -1.375
8319.5 -3.25
8320.5 3.625
8321.5 -1.375
8322.5 3.375
8323.5 1.375
8324.5 3.5
8325.5 -2.25
8326.5 -1.125
8327.5 -1
8328.5 -1
8329.5 -0.625
8330.5 5.375
8331.5 -8.5
8332.5 4.875
8333.5 -2.375
8334.5 -3.75
8335.5 -14.75
8336.5 5.75
8337.5 -2.625
8338.5 3.375
8339.5 -0.875
8340.5 2.25
8341.5 -4.75
8342.5 -0.5
8343.5 -1.5
8344.5 -0.25
8345.5 -0.5
8346.5 1.375
8347.5 2.375
8348.5 2.25
8349.5 0.375
8350.5 -2.5
8351.5 2.875
8352.5 -2
8353.5 -1.375
8354.5 -1.375
8355.5 -0.625
8356.5 0.75
8357.5 2.5
8358.5 -0.625
8359.5 -3
8360.5 -3.375
8361.5 -3.375
8362.5 -0.625
8363.5 -1.375
8364.5 3.375
8365.5 -1.25
8366.5 -0.375
8367.5 3.375
8368.5 2.5
8369.5 4.25
8370.5 -1.25
8371.5 -0.375
8372.5 0.375
8373.5 -0.25
8374.5 1.25
8375.5 -1.5
8376.5 0.5
8377.5 2.375
8378.5 -2.5
8379.5 -1.375
8380.5 -1.125
8381.5 0.25
8382.5 -1.5
8383.5 -2.125
8384.5 3.375
8385.5 -5.875
8386.5 2.5
8387.5 4.25
8388.5 0.25
8389.5 0.5
8390.5 0.375
8391.5 1.625
8392.5 -1.125
8393.5 -1.5
8394.5 -0.875
8395.5 0.5
8396.5 -1.375
8397.5 0.625
8398.5 -4
8399.5 2.5
8400.5 2.25
8401.5 -0.25
8402.5 -4.25
8403.5 -2.5
8404.5 0.625
8405.5 0.375
8406.5 0.25
8407.5 3.5
8408.5 -2.25
8409.5 6.125
8410.5 1.25
8411.5 0.5
8412.5 2
8413.5 2.125
8414.5 4.25
8415.5 0.125
8416.5 4.25
8417.5 3.25
8418.5 0.375
8419.5 6.25
8420.5 3.25
8421.5 0.5
8422.5 -0.5
8423.5 0.25
8424.5 0.25
8425.5 0.75
8426.5 3.125
8427.5 0.5
8428.5 3.125
8429.5 -4.375
8430.5 -3.25
8431.5 -0.5
8432.5 0.375
8433.5 -0.625
8434.5 2.375
8435.5 3.25
8436.5 1.25
8437.5 2.5
8438.5 -1.625
8439.5 -1.5
8440.5 1.75
8441.5 -1.625
8442.5 2.25
8443.5 0.75
8444.5 0.375
8445.5 1.25
8446.5 -0.125
8447.5 2.125
8448.5 -1.375
8449.5 -0.375
8450.5 -7
8451.5 -1.375
8452.5 -0.5
8453.5 0.75
8454.5 2.25
8455.5 3.125
8456.5 1.375
8457.5 1.625
8458.5 2.25
8459.5 -2.5
8460.5 -2.375
8461.5 1.25
8462.5 0.25
8463.5 4
8464.5 -1.5
8465.5 -4.375
8466.5 2.75
8467.5 3.25
8468.5 -0.875
8469.5 0.375
8470.5 -1
8471.5 4.875
8472.5 -3.125
8473.5 0.625
8474.5 -2.625
8475.5 -6.625
8476.5 3.375
8477.5 0.625
8478.5 -2.125
8479.5 -3.375
8480.5 -0.375
8481.5 -1.5
8482.5 -3.25
8483.5 2.25
8484.5 -5.125
8485.5 -4.375
8486.5 -2.625
8487.5 -2.5
8488.5 -2.375
8489.5 0.5
8490.5 -4.375
8491.5 5.375
8492.5 1.25
8493.5 -3.5
8494.5 -4.125
8495.5 1.375
8496.5 2.125
8497.5 -3.25
8498.5 5.125
8499.5 0.5
8500.5 -1.375
8501.5 3.625
8502.5 1.25
8503.5 0.375
8504.5 -3.25
8505.5 4.125
8506.5 3
8507.5 -0.625
8508.5 -3.125
8509.5 -2.375
8510.5 -1.375
8511.5 0.375
8512.5 -0.625
8513.5 -1.5
8514.5 0.625
8515.5 2.125
8516.5 -4.125
8517.5 -2.125
8518.5 -0.5
8519.5 -1.25
8520.5 1.125
8521.5 2.5
8522.5 -0.75
8523.5 0.5
8524.5 0.625
8525.5 0.375
8526.5 -5.625
8527.5 2.5
8528.5 3.25
8529.5 0.375
8530.5 -2.5
8531.5 1.375
8532.5 1.25
8533.5 3.375
8534.5 0.375
8535.5 3.125
8536.5 0.5
8537.5 -0.375
8538.5 1.375
8539.5 -1.375
8540.5 1.25
8541.5 -1.375
8542.5 -0.625
8543.5 -1.625
8544.5 1.25
8545.5 -0.25
8546.5 3.125
8547.5 0.375
8548.5 -0.5
8549.5 1.5
8550.5 -2.5
8551.5 -2.5
8552.5 1
8553.5 -1.625
8554.5 -1.375
8555.5 2.125
8556.5 -3.25
8557.5 -4.25
8558.5 -1.5
8559.5 1.25
8560.5 -2.5
8561.5 -1.5
8562.5 -2.75
8563.5 4.375
8564.5 0.375
8565.5 4.375
8566.5 0.375
8567.5 6
8568.5 2.375
8569.5 1.25
8570.5 -1.625
8571.5 3.375
8572.5 -0.375
8573.5 -1.375
8574.5 2.625
8575.5 1.625
8576.5 3.25
8577.5 6.125
8578.5 -1.25
8579.5 4.125
8580.5 -1.5
8581.5 3.25
8582.5 1.25
8583.5 5.375
8584.5 -3.25
8585.5 0.375
8586.5 0.375
8587.5 -2.25
8588.5 -0.25
8589.5 -0.625
8590.5 2.125
8591.5 -2.625
8592.5 3.125
8593.5 -1.25
8594.5 0.375
8595.5 0.25
8596.5 -3.25
8597.5 1.375
8598.5 3.125
8599.5 3.125
8600.5 3.375
8601.5 -0.625
8602.5 -1.5
8603.5 0.25
8604.5 1.25
8605.5 -1.375
8606.5 -1.5
8607.5 -0.875
8608.5 -0.625
8609.5 2.125
8610.5 5
8611.5 -0.875
8612.5 0.5
8613.5 -2.625
8614.5 0.5
8615.5 -1.75
8616.5 0.375
8617.5 -2.5
8618.5 -0.625
8619.5 0.25
8620.5 -4.125
8621.5 -2.5
8622.5 2.25
8623.5 0.375
8624.5 3.25
8625.5 2.25
8626.5 0.25
8627.5 -5.125
8628.5 3.375
8629.5 3.125
8630.5 -0.625
8631.5 -0.75
8632.5 -0.625
8633.5 0.375
8634.5 0
8635.5 3.125
8636.5 0.375
8637.5 -1.75
8638.5 4.25
8639.5 3.375
8640.5 0.125
8641.5 -0.375
8642.5 1.375
8643.5 -0.625
8644.5 -2.5
8645.5 2.125
8646.5 1.25
8647.5 1.5
8648.5 0.5
8649.5 2.375
8650.5 5
8651.5 -2.25
8652.5 -3.125
8653.5 -0.625
8654.5 0.5
8655.5 0.375
8656.5 1.375
8657.5 2.375
8658.5 -1.625
8659.5 2.125
8660.5 -1.625
8661.5 2.125
8662.5 0.5
8663.5 0.25
8664.5 4.25
8665.5 1.25
8666.5 0.125
8667.5 3.125
8668.5 0.5
8669.5 1.125
8670.5 2
8671.5 4.25
8672.5 -2.375
8673.5 4.25
8674.5 0.375
8675.5 -0.75
8676.5 1.5
8677.5 -1.625
8678.5 -1.75
8679.5 0.25
8680.5 -0.875
8681.5 -6.125
8682.5 1.125
8683.5 -1.5
8684.5 1
8685.5 2.125
8686.5 -3.375
8687.5 -2.375
8688.5 -0.625
8689.5 0.25
8690.5 1.25
8691.5 1.375
8692.5 -1.625
8693.5 -6
8694.5 -1.75
8695.5 -0.5
8696.5 2.25
8697.5 2.125
8698.5 -1.625
8699.5 -0.625
8700.5 1.375
8701.5 2.25
8702.5 2.125
8703.5 -1.125
8704.5 0.375
8705.5 -0.625
8706.5 -0.875
8707.5 3
8708.5 0.25
8709.5 -2.5
8710.5 0.125
8711.5 0.125
8712.5 -0.5
8713.5 2
8714.5 -0.75
8715.5 -0.75
8716.5 1.375
8717.5 0.125
8718.5 -1.625
8719.5 -1.5
8720.5 -2.5
8721.5 -0.625
8722.5 -3.5
8723.5 3
8724.5 -1.5
8725.5 3.375
8726.5 -2.5
8727.5 -1.75
8728.5 0.5
8729.5 -0.625
8730.5 -3.375
8731.5 -4.125
8732.5 3.375
8733.5 1.625
8734.5 -2.375
8735.5 1.375
8736.5 0
8737.5 1.125
8738.5 1.25
8739.5 0.125
8740.5 0.375
8741.5 1.125
8742.5 3.125
8743.5 -1.625
8744.5 -2.375
8745.5 2.125
8746.5 0.25
8747.5 -2.5
8748.5 3.25
8749.5 2
8750.5 -1.75
8751.5 2.125
8752.5 2.125
8753.5 2.25
8754.5 -2.625
8755.5 -1.625
8756.5 0
8757.5 -0.75
8758.5 2.25
8759.5 -4.25
8760.5 -2.375
8761.5 0.25
8762.5 1.375
8763.5 1.125
8764.5 1
8765.5 0.25
8766.5 2.25
8767.5 1.125
8768.5 0.375
8769.5 2.25
8770.5 1.125
8771.5 2.25
8772.5 0.25
8773.5 -0.75
8774.5 1.125
8775.5 -1.625
8776.5 1
8777.5 0.125
8778.5 1.125
8779.5 0
8780.5 -0.875
8781.5 1.25
8782.5 4.125
8783.5 0.375
8784.5 -0.875
8785.5 -3.5
8786.5 2.125
8787.5 0.375
8788.5 -0.875
8789.5 2.375
8790.5 -0.75
8791.5 -1.625
8792.5 1.25
8793.5 1.25
8794.5 2.25
8795.5 0.125
8796.5 1.25
8797.5 -0.75
8798.5 -0.875
8799.5 1.125
8800.5 0.25
8801.5 0.125
8802.5 -2.5
8803.5 1.25
8804.5 1.375
8805.5 2.25
8806.5 0.25
8807.5 1.25
8808.5 -1.75
8809.5 -1.625
8810.5 -0.875
8811.5 1.125
8812.5 3.125
8813.5 -0.875
8814.5 4.25
8815.5 0.125
8816.5 1
8817.5 0.125
8818.5 1.125
8819.5 -0.75
8820.5 0.125
8821.5 -1.75
8822.5 0.25
8823.5 -0.875
8824.5 0.25
8825.5 -1.75
8826.5 0.125
8827.5 -1.625
8828.5 4.125
8829.5 5
8830.5 -1.625
8831.5 0
8832.5 0.25
8833.5 1.25
8834.5 -0.625
8835.5 0.125
8836.5 -0.375
8837.5 -0.375
8838.5 -1.25
8839.5 -5.375
8840.5 4
8841.5 7
8842.5 -6.75
8843.5 2.375
8844.5 8.125
8845.5 1.25
8846.5 4.25
8847.5 -7
8848.5 3.75
8849.5 0.75
8850.5 3.25
8851.5 7.125
8852.5 2.875
8853.5 -2
8854.5 -5.25
8855.5 3.25
8856.5 -1.375
8857.5 2.25
8858.5 -0.75
8859.5 1
8860.5 -0.75
8861.5 2.25
8862.5 0.25
8863.5 -0.75
8864.5 2.25
8865.5 -1.75
8866.5 -0.875
8867.5 1
8868.5 -0.875
8869.5 0.125
8870.5 0.125
8871.5 -0.75
8872.5 1
8873.5 1.125
8874.5 -1.75
8875.5 1.125
8876.5 0.25
8877.5 1.25
8878.5 3
8879.5 0.125
8880.5 -0.875
8881.5 -0.75
8882.5 2
8883.5 0.25
8884.5 1.125
8885.5 -0.5
8886.5 2.125
8887.5 0.125
8888.5 0.125
8889.5 4
8890.5 -1.75
8891.5 1.25
8892.5 -1.75
8893.5 0.25
8894.5 6
8895.5 -0.625
8896.5 -1.5
8897.5 -0.875
8898.5 0.25
8899.5 -0.625
8900.5 -0.875
8901.5 -0.75
8902.5 -1.75
8903.5 0
8904.5 0
8905.5 2
8906.5 0.125
8907.5 2
8908.5 1.25
8909.5 -1.625
8910.5 3
8911.5 -0.75
8912.5 1
8913.5 1
8914.5 -0.875
8915.5 -3.5
8916.5 1
8917.5 1
8918.5 0.125
8919.5 0
8920.5 -0.625
8921.5 -1.75
8922.5 3
8923.5 -0.875
8924.5 3
8925.5 -0.875
8926.5 -0.625
8927.5 -0.75
8928.5 1.125
8929.5 1.125
8930.5 -0.875
8931.5 2
8932.5 1.125
8933.5 0.25
8934.5 -1.625
8935.5 -0.875
8936.5 -1.625
8937.5 2
8938.5 -1.625
8939.5 0.125
8940.5 -2.375
8941.5 0.125
8942.5 0
8943.5 1.25
8944.5 3
8945.5 1.125
8946.5 3.125
8947.5 4
8948.5 0.125
8949.5 1.25
8950.5 1.25
8951.5 2.125
8952.5 -2.375
8953.5 1.125
8954.5 0.125
8955.5 -0.75
8956.5 -0.625
8957.5 1.125
8958.5 2
8959.5 1.125
8960.5 0.125
8961.5 -1.75
8962.5 1
8963.5 -0.75
8964.5 -0.625
8965.5 -0.75
8966.5 -2.625
8967.5 0
8968.5 1
8969.5 2.125
8970.5 0.125
8971.5 1
8972.5 0.125
8973.5 -0.75
8974.5 0
8975.5 -0.625
8976.5 0
8977.5 3
8978.5 2.125
8979.5 1.125
8980.5 1
8981.5 1.125
8982.5 0.125
8983.5 1.25
8984.5 0.125
8985.5 2
8986.5 0.125
8987.5 1.25
8988.5 -0.875
8989.5 0.125
8990.5 -0.875
8991.5 1.125
8992.5 0.25
8993.5 -1.5
8994.5 -0.75
8995.5 1.125
8996.5 0.25
8997.5 -2.625
8998.5 2.125
8999.5 0.25
9000.5 -1.625
9001.5 2
9002.5 0
9003.5 1.125
9004.5 1
9005.5 0
9006.5 -0.625
9007.5 -2.625
9008.5 -1.75
9009.5 0.125
9010.5 1
9011.5 -0.875
9012.5 0
9013.5 -0.875
9014.5 2
9015.5 1
9016.5 1
9017.5 -0.875
9018.5 -0.75
9019.5 -0.875
9020.5 0.125
9021.5 -0.875
9022.5 0.125
9023.5 0.125
9024.5 -2.25
9025.5 -1.75
9026.5 0.25
9027.5 3
9028.5 -0.875
9029.5 0.125
9030.5 0
9031.5 2.125
9032.5 -1.5
9033.5 1.25
9034.5 -0.875
9035.5 -0.875
9036.5 -0.875
9037.5 0.25
9038.5 -0.875
9039.5 3
9040.5 -0.875
9041.5 1
9042.5 1
9043.5 0
9044.5 -0.875
9045.5 -0.75
9046.5 -0.875
9047.5 -2.5
9048.5 -1.75
9049.5 -0.75
9050.5 0.125
9051.5 -0.75
9052.5 -0.75
9053.5 1
9054.5 1
9055.5 -0.875
9056.5 -1.75
9057.5 -0.75
9058.5 0
9059.5 0
9060.5 -0.875
9061.5 -0.875
9062.5 0
9063.5 0.125
9064.5 1.125
9065.5 -0.875
9066.5 2
9067.5 1
9068.5 -0.875
9069.5 1
9070.5 -1.75
9071.5 1.125
9072.5 0
9073.5 -1.625
9074.5 1.125
9075.5 -1.75
9076.5 -0.875
9077.5 0.25
9078.5 -0.875
9079.5 0.125
9080.5 1
9081.5 -2.5
9082.5 1
9083.5 0
9084.5 1
9085.5 2.125
9086.5 2
9087.5 1
9088.5 -0.875
9089.5 2
9090.5 0.125
9091.5 0.25
9092.5 0.125
9093.5 2
9094.5 -1.75
9095.5 -0.875
9096.5 2.125
9097.5 1
9098.5 0.125
9099.5 -0.75
9100.5 1
9101.5 0.125
9102.5 0
9103.5 -1.75
9104.5 3
9105.5 1.125
9106.5 -0.875
9107.5 1.25
9108.5 1.125
9109.5 -0.875
9110.5 2
9111.5 -1.75
9112.5 -0.875
9113.5 4
9114.5 -1.625
9115.5 0
9116.5 1
9117.5 1
9118.5 1.375
9119.5 1.125
9120.5 1.25
9121.5 -0.875
9122.5 2
9123.5 -0.875
9124.5 0.25
9125.5 2.25
9126.5 -1.625
9127.5 -1.75
9128.5 0
9129.5 1.125
9130.5 -2.625
9131.5 0.125
9132.5 1
9133.5 -0.875
9134.5 -0.75
9135.5 0.125
9136.5 0.125
9137.5 0
9138.5 0.125
9139.5 -2.5
9140.5 0.125
9141.5 -0.875
9142.5 3
9143.5 0.125
9144.5 -0.875
9145.5 -0.875
9146.5 0.125
9147.5 1
9148.5 0.125
9149.5 0.125
9150.5 -0.75
9151.5 0.25
9152.5 -0.875
9153.5 1
9154.5 3
9155.5 0.125
9156.5 0.25
9157.5 1.125
9158.5 0.125
9159.5 -1.625
9160.5 1
9161.5 1
9162.5 2
9163.5 2
9164.5 -0.875
9165.5 -0.75
9166.5 -1.625
9167.5 -0.875
9168.5 0.125
9169.5 1
9170.5 0
9171.5 0.125
9172.5 -0.75
9173.5 0.125
9174.5 2
9175.5 1
9176.5 0.25
9177.5 0
9178.5 0.125
9179.5 1
9180.5 1.25
9181.5 0
9182.5 0
9183.5 3
9184.5 -1.75
9185.5 0.125
9186.5 -0.75
9187.5 -1.75
9188.5 1.125
9189.5 0
9190.5 1.125
9191.5 0
9192.5 1.125
9193.5 1
9194.5 -0.875
9195.5 -2.625
9196.5 -0.875
9197.5 0
9198.5 -0.875
9199.5 -2.625
9200.5 0.125
9201.5 -0.875
9202.5 0
9203.5 4
9204.5 0.125
9205.5 0.125
9206.5 0.125
9207.5 0
9208.5 1.125
9209.5 -1.75
9210.5 -0.875
9211.5 1
9212.5 -2.5
9213.5 0.125
9214.5 0.125
9215.5 0.125
9216.5 -0.75
9217.5 -0.75
9218.5 1
9219.5 0.125
9220.5 0
9221.5 0
9222.5 -0.875
9223.5 -2.625
9224.5 0
9225.5 -0.75
9226.5 0
9227.5 2.125
9228.5 3
9229.5 1
9230.5 -1.75
9231.5 0.125
9232.5 1
9233.5 1
9234.5 0
9235.5 0
9236.5 2
9237.5 0.125
9238.5 -0.875
9239.5 0.125
9240.5 0
9241.5 -0.875
9242.5 0
9243.5 0.125
9244.5 -0.875
9245.5 1.125
9246.5 0.125
9247.5 0
9248.5 0
9249.5 0
9250.5 -0.875
9251.5 0
9252.5 0.125
9253.5 0
9254.5 -0.875
9255.5 -2.5
9256.5 0
9257.5 0
9258.5 1
9259.5 -0.875
9260.5 0.125
9261.5 2
9262.5 1
9263.5 -0.875
9264.5 2
9265.5 -0.75
9266.5 0
9267.5 2
9268.5 0
9269.5 -0.875
9270.5 1
9271.5 0.125
9272.5 1
9273.5 -0.875
9274.5 0.125
9275.5 -0.75
9276.5 -0.875
9277.5 2
9278.5 0
9279.5 -0.875
9280.5 -0.875
9281.5 -0.875
9282.5 -1.75
9283.5 0
9284.5 -1.75
9285.5 1.125
9286.5 0
9287.5 1
9288.5 -0.875
9289.5 -1.5
9290.5 -0.875
9291.5 1
9292.5 0
9293.5 1
9294.5 -1.75
9295.5 -0.875
9296.5 -1.75
9297.5 2
9298.5 2
9299.5 0.125
9300.5 -0.875
9301.5 0
9302.5 -1.625
9303.5 0
9304.5 0
9305.5 0.125
9306.5 0
9307.5 0.125
9308.5 0
9309.5 0
9310.5 0
9311.5 1
9312.5 0.25
9313.5 0
9314.5 1
9315.5 -0.75
9316.5 1
9317.5 0.125
9318.5 -0.875
9319.5 0
9320.5 1.125
9321.5 2
9322.5 -0.875
9323.5 1
9324.5 -0.875
9325.5 0
9326.5 1
9327.5 1
9328.5 -1.75
9329.5 0
9330.5 0.125
9331.5 -0.875
9332.5 1.125
9333.5 -1.75
9334.5 0
9335.5 -0.875
9336.5 0
9337.5 1
9338.5 -0.875
9339.5 0.125
9340.5 0.125
9341.5 0.125
9342.5 1.125
9343.5 0
9344.5 -1.75
9345.5 0.125
9346.5 -0.875
9347.5 2.125
9348.5 1
9349.5 2
9350.5 2
9351.5 0
9352.5 -1.75
9353.5 0.125
9354.5 0
9355.5 -0.875
9356.5 0
9357.5 -0.875
9358.5 -0.875
9359.5 -0.875
9360.5 -0.875
9361.5 0
9362.5 0.125
9363.5 1.125
9364.5 2
9365.5 1
9366.5 0
9367.5 0
9368.5 -1.75
9369.5 0.25
9370.5 -0.875
9371.5 0
9372.5 1
9373.5 -0.875
9374.5 0
9375.5 -0.875
9376.5 0.125
9377.5 -0.875
9378.5 -0.875
9379.5 0
9380.5 0.125
9381.5 1
9382.5 0
9383.5 0.125
9384.5 -0.875
9385.5 1
9386.5 1
9387.5 0
9388.5 -0.75
9389.5 0
9390.5 0.125
9391.5 -0.875
9392.5 0.125
9393.5 0.125
9394.5 3
9395.5 -1.75
9396.5 0
9397.5 -0.875
9398.5 1
9399.5 -0.875
9400.5 1.125
9401.5 -0.875
9402.5 1
9403.5 2
9404.5 -0.875
9405.5 -0.875
9406.5 -0.875
9407.5 1.125
9408.5 0.125
9409.5 1.125
9410.5 0.125
9411.5 0.125
9412.5 0
9413.5 0.125
9414.5 2
9415.5 0
9416.5 0
9417.5 1
9418.5 -1.75
9419.5 -1.625
9420.5 1
9421.5 -1.75
9422.5 1
9423.5 -2.625
9424.5 1
9425.5 0
9426.5 -0.75
9427.5 1
9428.5 -0.75
9429.5 -0.875
9430.5 0
9431.5 1
9432.5 2
9433.5 0
9434.5 1
9435.5 0
9436.5 0
9437.5 0
9438.5 0.125
9439.5 1
9440.5 1.125
9441.5 0.125
9442.5 0
9443.5 0.125
9444.5 -1.75
9445.5 -1.75
9446.5 0
9447.5 -0.875
9448.5 -0.75
9449.5 -0.875
9450.5 -1.75
9451.5 -0.875
9452.5 1
9453.5 0
9454.5 3
9455.5 -1.625
9456.5 4
9457.5 -0.5
9458.5 3.25
9459.5 -0.375
9460.5 2.625
9461.5 4.25
9462.5 -2.5
9463.5 5.125
9464.5 3.125
9465.5 -2.5
9466.5 -0.75
9467.5 -4.375
9468.5 -0.875
9469.5 0
9470.5 -0.875
9471.5 -0.875
9472.5 -0.875
9473.5 0
9474.5 -0.75
9475.5 1
9476.5 -0.875
9477.5 0.125
9478.5 0.125
9479.5 1
9480.5 1
9481.5 0
9482.5 0
9483.5 0
9484.5 0
9485.5 1
9486.5 1
9487.5 1
9488.5 1
9489.5 -1.75
9490.5 -0.875
9491.5 1
9492.5 -3.5
9493.5 1
9494.5 1
9495.5 0
9496.5 2
9497.5 0
9498.5 0
9499.5 0
9500.5 1.125
9501.5 2
9502.5 1.125
9503.5 0
9504.5 0
9505.5 0
9506.5 0
9507.5 0
9508.5 0
9509.5 1
9510.5 1
9511.5 -0.875
9512.5 1
9513.5 0
9514.5 0.25
9515.5 0.125
9516.5 1
9517.5 -0.875
9518.5 0
9519.5 -1.75
9520.5 -0.875
9521.5 1.125
9522.5 0
9523.5 0
9524.5 0.125
9525.5 1
9526.5 -1.75
9527.5 1.125
9528.5 0
9529.5 0
9530.5 -0.875
9531.5 1
9532.5 -1.75
9533.5 -1.75
9534.5 0
9535.5 -0.875
9536.5 0
9537.5 0.125
9538.5 0.125
9539.5 1
9540.5 -0.75
9541.5 1
9542.5 1
9543.5 1
9544.5 -2.625
9545.5 0
9546.5 0.125
9547.5 -1.75
9548.5 -1.75
9549.5 0.125
9550.5 0
9551.5 0
9552.5 0
9553.5 0
9554.5 0
9555.5 0
9556.5 0
9557.5 0.125
9558.5 0
9559.5 0.25
9560.5 0.25
9561.5 -0.875
9562.5 -1.75
9563.5 -0.875
9564.5 0
9565.5 0
9566.5 4
9567.5 0
9568.5 0
9569.5 0.125
9570.5 0.125
9571.5 1
9572.5 0
9573.5 0
9574.5 0
9575.5 -0.875
9576.5 2
9577.5 0
9578.5 0
9579.5 1
9580.5 -1.75
9581.5 1.125
9582.5 -2.625
9583.5 -0.875
9584.5 0
9585.5 3
9586.5 0
9587.5 1
9588.5 1
9589.5 0
9590.5 1.125
9591.5 2
9592.5 0
9593.5 0
9594.5 -0.875
9595.5 -1.75
9596.5 0
9597.5 0.125
9598.5 2
9599.5 -1.75
9600.5 0
9601.5 0
9602.5 1
9603.5 1
9604.5 2
9605.5 0.125
9606.5 0
9607.5 1
9608.5 0
9609.5 0
9610.5 0
9611.5 0.125
9612.5 -0.875
9613.5 1.125
9614.5 -0.875
9615.5 1
9616.5 -1.75
9617.5 0
9618.5 -0.875
9619.5 1
9620.5 1
9621.5 -1.75
9622.5 0.25
9623.5 2
9624.5 0
9625.5 -0.875
9626.5 -0.875
9627.5 -0.875
9628.5 0.125
9629.5 0
9630.5 1
9631.5 2
9632.5 1
9633.5 0
9634.5 -0.875
9635.5 2
9636.5 2
9637.5 0
9638.5 0
9639.5 0
9640.5 0
9641.5 0.125
9642.5 0
9643.5 4
9644.5 1
9645.5 0
9646.5 -0.875
9647.5 -0.875
9648.5 0.125
9649.5 0
9650.5 0
9651.5 2
9652.5 1
9653.5 0.25
9654.5 0
9655.5 0
9656.5 -0.875
9657.5 -0.875
9658.5 0
9659.5 0
9660.5 1
9661.5 0
9662.5 1
9663.5 -0.875
9664.5 0
9665.5 0
9666.5 0
9667.5 0
9668.5 0
9669.5 -0.875
9670.5 0.125
9671.5 0
9672.5 -0.875
9673.5 0
9674.5 0
9675.5 -0.875
9676.5 -1.75
9677.5 2
9678.5 1
9679.5 2
9680.5 0.125
9681.5 0
9682.5 0
9683.5 0.125
9684.5 0
9685.5 0
9686.5 0
9687.5 1
9688.5 2
9689.5 0
9690.5 0
9691.5 0
9692.5 0
9693.5 0
9694.5 0
9695.5 1
9696.5 -0.875
9697.5 -0.875
9698.5 0.125
9699.5 1
9700.5 0
9701.5 0
9702.5 1
9703.5 0.125
9704.5 1
9705.5 -0.875
9706.5 -0.875
9707.5 0.125
9708.5 0.125
9709.5 0.125
9710.5 1
9711.5 1
9712.5 0
9713.5 0
9714.5 -0.875
9715.5 0
9716.5 2
9717.5 1
9718.5 -0.875
9719.5 -0.875
9720.5 0
9721.5 0
9722.5 0
9723.5 0
9724.5 -0.875
9725.5 1
9726.5 0
9727.5 1
9728.5 -0.875
9729.5 0.125
9730.5 0
9731.5 0
9732.5 0.125
9733.5 0
9734.5 0
9735.5 1
9736.5 0
9737.5 0
9738.5 -0.875
9739.5 0
9740.5 1
9741.5 0
9742.5 0
9743.5 -1.75
9744.5 -0.875
9745.5 -0.875
9746.5 -0.875
9747.5 1
9748.5 -0.875
9749.5 0
9750.5 1
9751.5 0
9752.5 0
9753.5 0
9754.5 0
9755.5 0
9756.5 0
9757.5 1
9758.5 -0.875
9759.5 0
9760.5 0
9761.5 -0.875
9762.5 0
9763.5 0
9764.5 0
9765.5 0
9766.5 1
9767.5 0
9768.5 0
9769.5 1
9770.5 0
9771.5 -0.875
9772.5 -0.875
9773.5 -2.625
9774.5 0
9775.5 0
9776.5 -0.875
9777.5 0
9778.5 0
9779.5 -0.875
9780.5 0
9781.5 0
9782.5 -0.875
9783.5 0
9784.5 1
9785.5 0
9786.5 1
9787.5 0
9788.5 -0.875
9789.5 0
9790.5 0
9791.5 -1.625
9792.5 0
9793.5 -0.875
9794.5 0
9795.5 0
9796.5 0
9797.5 0
9798.5 0
9799.5 1
9800.5 0
9801.5 -0.875
9802.5 0
9803.5 0
9804.5 1
9805.5 1
9806.5 1
9807.5 0
9808.5 0
9809.5 0
9810.5 1
9811.5 0
9812.5 -0.875
9813.5 0.125
9814.5 0
9815.5 0
9816.5 0
9817.5 0
9818.5 -0.875
9819.5 1
9820.5 1
9821.5 1
9822.5 0
9823.5 0
9824.5 0
9825.5 0
9826.5 0
9827.5 2
9828.5 0.125
9829.5 1
9830.5 0
9831.5 1
9832.5 0
9833.5 0
9834.5 0
9835.5 1
9836.5 4
9837.5 1
9838.5 1
9839.5 0
9840.5 0
9841.5 1
9842.5 0
9843.5 2
9844.5 0
9845.5 0.125
9846.5 0
9847.5 0
9848.5 0
9849.5 1
9850.5 1
9851.5 -0.875
9852.5 0
9853.5 0
9854.5 0
9855.5 0
9856.5 0
9857.5 0
9858.5 0
9859.5 0.125
9860.5 0
9861.5 0
9862.5 0
9863.5 0
9864.5 0
9865.5 0
9866.5 0
9867.5 -0.875
9868.5 -1.75
9869.5 0
9870.5 0
9871.5 -0.875
9872.5 1
9873.5 0
9874.5 0
9875.5 0
9876.5 0
9877.5 -0.875
9878.5 0
9879.5 0
9880.5 -0.875
9881.5 0
9882.5 0.125
9883.5 0
9884.5 0
9885.5 0
9886.5 0
9887.5 0
9888.5 2
9889.5 0
9890.5 0
9891.5 0
9892.5 0
9893.5 1
9894.5 0
9895.5 0
9896.5 -0.875
9897.5 1
9898.5 0
9899.5 0
9900.5 0
9901.5 -0.875
9902.5 -0.875
9903.5 0
9904.5 0
9905.5 0
9906.5 1
9907.5 0
9908.5 -1.75
9909.5 0
9910.5 0
9911.5 0
9912.5 0
9913.5 0
9914.5 0
9915.5 0
9916.5 0
9917.5 0
9918.5 -0.875
9919.5 0
9920.5 0
9921.5 0
9922.5 0
9923.5 0
9924.5 -0.875
9925.5 0
9926.5 0
9927.5 0.125
9928.5 -0.875
9929.5 0
9930.5 0
9931.5 0
9932.5 0
9933.5 0
9934.5 0
9935.5 0
9936.5 0
9937.5 -0.875
9938.5 0
9939.5 1
9940.5 0
9941.5 0
9942.5 0
9943.5 0
9944.5 0
9945.5 0
9946.5 0
9947.5 0
9948.5 -0.875
9949.5 0
9950.5 0
9951.5 0
9952.5 0
9953.5 0
9954.5 0
9955.5 0
9956.5 0
9957.5 0.125
9958.5 -1.75
9959.5 0
9960.5 0
9961.5 1
9962.5 -0.875
9963.5 2
9964.5 0
9965.5 0
9966.5 2.25
9967.5 -0.625
9968.5 -0.75
9969.5 2.375
9970.5 -0.875
9971.5 2
9972.5 -2.5
9973.5 -0.625
9974.5 0.125
9975.5 0
9976.5 -0.875
9977.5 0.25
9978.5 0
9979.5 1
9980.5 1
9981.5 0
9982.5 -0.875
9983.5 0
9984.5 -0.875
9985.5 0
9986.5 0
9987.5 0
9988.5 0
9989.5 0
9990.5 1
9991.5 1
9992.5 0
9993.5 0
9994.5 -1.75
9995.5 0
9996.5 0
9997.5 0
9998.5 -0.875
9999.5 0
10000.5 0.125
10001.5 0
10002.5 0
10003.5 1
10004.5 0
10005.5 0
10006.5 0
10007.5 0
10008.5 0
10009.5 0
10010.5 0
10011.5 0
10012.5 0
10013.5 0
10014.5 0
10015.5 0
10016.5 0
10017.5 0
10018.5 0
10019.5 0
10020.5 0
10021.5 0
10022.5 -0.875
10023.5 0
10024.5 0
10025.5 -0.875
10026.5 0
10027.5 0
10028.5 0
10029.5 0
10030.5 0
10031.5 0
10032.5 0
10033.5 0
10034.5 1
10035.5 0
10036.5 0
10037.5 0
10038.5 0
10039.5 0
10040.5 0
10041.5 2
10042.5 0
10043.5 0
10044.5 1
10045.5 0
10046.5 0
10047.5 0
10048.5 0
10049.5 0
10050.5 0
10051.5 -0.875
10052.5 1
10053.5 0
10054.5 1
10055.5 0.125
10056.5 0
10057.5 0
10058.5 0
10059.5 0
10060.5 0
10061.5 1
10062.5 0
10063.5 0
10064.5 0
10065.5 0
10066.5 0
10067.5 0
10068.5 -0.875
10069.5 0
10070.5 0
10071.5 0
10072.5 0
10073.5 0
10074.5 0
10075.5 0
10076.5 0
10077.5 -0.875
10078.5 -0.875
10079.5 0
10080.5 -1.75
10081.5 0
10082.5 0
10083.5 0
10084.5 0
10085.5 0
10086.5 0
10087.5 0
10088.5 2
10089.5 0
10090.5 0
10091.5 0
10092.5 0
10093.5 0
10094.5 0
10095.5 0
10096.5 0
10097.5 0
10098.5 0
10099.5 0
10100.5 -0.875
10101.5 1
10102.5 0
10103.5 -0.875
10104.5 0
10105.5 -0.875
10106.5 0
10107.5 -0.75
10108.5 0
10109.5 0
10110.5 0
10111.5 0
10112.5 0
10113.5 0
10114.5 0
10115.5 -0.875
10116.5 0
10117.5 0
10118.5 0
10119.5 0
10120.5 0
10121.5 0
10122.5 0
10123.5 0
10124.5 0
10125.5 0
10126.5 0
10127.5 0
10128.5 0
10129.5 0
10130.5 0
10131.5 -0.875
10132.5 0
10133.5 0
10134.5 -0.875
10135.5 1
10136.5 1
10137.5 0
10138.5 0
10139.5 0
10140.5 0
10141.5 0
10142.5 0
10143.5 0
10144.5 0
10145.5 0
10146.5 0
10147.5 0
10148.5 0
10149.5 0
10150.5 0
10151.5 1
10152.5 0
10153.5 0
10154.5 0
10155.5 0
10156.5 0
10157.5 0
10158.5 0
10159.5 -0.875
10160.5 0
10161.5 0
10162.5 0
10163.5 0
10164.5 0
10165.5 0
10166.5 1
10167.5 0
10168.5 0
10169.5 1
10170.5 0
10171.5 0
10172.5 0
10173.5 0
10174.5 -0.875
10175.5 0
10176.5 0
10177.5 0
10178.5 0
10179.5 0
10180.5 0
10181.5 0
10182.5 0
10183.5 0
10184.5 1
10185.5 0
10186.5 0
10187.5 0
10188.5 0
10189.5 0
10190.5 0
10191.5 0
10192.5 1
10193.5 0
10194.5 0
10195.5 0
10196.5 0
10197.5 0
10198.5 0
10199.5 1
10200.5 0
10201.5 0
10202.5 0
10203.5 0
10204.5 1
10205.5 -0.875
10206.5 1
10207.5 0
10208.5 0
10209.5 0
10210.5 0
10211.5 0
10212.5 0
10213.5 0
10214.5 0
10215.5 0
10216.5 0
10217.5 0
10218.5 0
10219.5 0
10220.5 0
10221.5 -0.875
10222.5 0
10223.5 0
10224.5 1.125
10225.5 0
10226.5 0
10227.5 0
10228.5 0
10229.5 0
10230.5 -0.875
10231.5 0
10232.5 0
10233.5 0
10234.5 -0.875
10235.5 0
10236.5 0
10237.5 0
10238.5 0
10239.5 0
10240.5 0
10241.5 0
10242.5 -0.875
10243.5 0
10244.5 0
10245.5 0
10246.5 0
10247.5 0
10248.5 0
10249.5 0
10250.5 1
10251.5 0
10252.5 0
10253.5 0
10254.5 0
10255.5 0
10256.5 -0.875
10257.5 0
10258.5 0
10259.5 0
10260.5 0
10261.5 0
10262.5 0
10263.5 0
10264.5 0
10265.5 -0.875
10266.5 0
10267.5 0
10268.5 0
10269.5 0
10270.5 0
10271.5 0
10272.5 0
10273.5 0
10274.5 0
10275.5 0
10276.5 0
10277.5 0
10278.5 0
10279.5 0
10280.5 0
10281.5 0
10282.5 0
10283.5 0
10284.5 0
10285.5 0
10286.5 0
10287.5 0
10288.5 0
10289.5 0
10290.5 0
10291.5 0
10292.5 0
10293.5 0
10294.5 0
10295.5 1
10296.5 0
10297.5 0
10298.5 -0.875
10299.5 0
10300.5 0
10301.5 0
10302.5 0
10303.5 0
10304.5 0
10305.5 0
10306.5 0
10307.5 0
10308.5 0
10309.5 0
10310.5 0
10311.5 0
10312.5 0
10313.5 0
10314.5 0
10315.5 0
10316.5 0
10317.5 0
10318.5 0
10319.5 0
10320.5 0
10321.5 -0.875
10322.5 0
10323.5 0
10324.5 0
10325.5 1
10326.5 0
10327.5 1
10328.5 1
10329.5 0
10330.5 0
10331.5 0
10332.5 0
10333.5 0
10334.5 -0.875
10335.5 0
10336.5 0
10337.5 0
10338.5 0
10339.5 0
10340.5 0
10341.5 0
10342.5 1
10343.5 0
10344.5 0
10345.5 0
10346.5 0
10347.5 0
10348.5 0
10349.5 0
10350.5 0
10351.5 0
10352.5 0
10353.5 0
10354.5 0
10355.5 -1.75
10356.5 -0.875
10357.5 0
10358.5 0
10359.5 0
10360.5 0
10361.5 0
10362.5 0
10363.5 0
10364.5 0
10365.5 -0.875
10366.5 0
10367.5 2
10368.5 -0.875
10369.5 -0.875
10370.5 1
10371.5 0
10372.5 0
10373.5 0
10374.5 0
10375.5 0
10376.5 0
10377.5 0
10378.5 0
10379.5 0
10380.5 0
10381.5 1
10382.5 0
10383.5 0
10384.5 0
10385.5 0
10386.5 0
10387.5 0
10388.5 0
10389.5 0
10390.5 1
10391.5 0
10392.5 0
10393.5 0
10394.5 0
10395.5 0
10396.5 1
10397.5 0
10398.5 0
10399.5 0
10400.5 0
10401.5 0
10402.5 0
10403.5 -0.875
10404.5 0
10405.5 0
10406.5 0
10407.5 0
10408.5 0
10409.5 0
10410.5 0
10411.5 -0.875
10412.5 0
10413.5 0
10414.5 0
10415.5 -0.875
10416.5 0
10417.5 0.125
10418.5 0
10419.5 0
10420.5 0
10421.5 0
10422.5 0
10423.5 0
10424.5 0
10425.5 0
10426.5 0
10427.5 0
10428.5 -0.875
10429.5 0
10430.5 0
10431.5 -0.875
10432.5 0
10433.5 0
10434.5 0
10435.5 0
10436.5 0
10437.5 0
10438.5 1
10439.5 -0.875
10440.5 0
10441.5 0
10442.5 -0.875
10443.5 0
10444.5 0
10445.5 0
10446.5 0
10447.5 0
10448.5 0
10449.5 0
10450.5 0
10451.5 0
10452.5 0
10453.5 0
10454.5 0
10455.5 0
10456.5 -0.875
10457.5 0
10458.5 -1.75
10459.5 0
10460.5 0
10461.5 0
10462.5 0
10463.5 0
10464.5 0
10465.5 0
10466.5 0
10467.5 -0.875
10468.5 0
10469.5 0
10470.5 0
10471.5 0
10472.5 0
10473.5 0
10474.5 0
10475.5 0
10476.5 0
10477.5 0
10478.5 0
10479.5 0
10480.5 0
10481.5 0
10482.5 0
10483.5 0
10484.5 0
10485.5 0
10486.5 0
10487.5 0
10488.5 0
10489.5 0
10490.5 0
10491.5 0
10492.5 0
10493.5 0
10494.5 0
10495.5 0
10496.5 0
10497.5 0
10498.5 0
10499.5 0
10500.5 0
10501.5 -0.875
10502.5 0
10503.5 0
10504.5 0
10505.5 0
10506.5 0
10507.5 0
10508.5 0
10509.5 0
10510.5 0
10511.5 0
10512.5 0
10513.5 0
10514.5 0
10515.5 0
10516.5 0
10517.5 0
10518.5 0
10519.5 0
10520.5 0
10521.5 0
10522.5 0
10523.5 0
10524.5 0
10525.5 0
10526.5 0
10527.5 0
10528.5 0
10529.5 0
10530.5 0
10531.5 0
10532.5 0
10533.5 0
10534.5 0
10535.5 0
10536.5 0
10537.5 0
10538.5 0
10539.5 0
10540.5 0
10541.5 0
10542.5 0
10543.5 0
10544.5 0
10545.5 0
10546.5 0
10547.5 0
10548.5 0
10549.5 0
10550.5 0
10551.5 0
10552.5 0
10553.5 0
10554.5 0
10555.5 0
10556.5 0
10557.5 0
10558.5 0
10559.5 0
10560.5 0
10561.5 0
10562.5 0
10563.5 0
10564.5 0
10565.5 0
10566.5 0
10567.5 1
10568.5 0
10569.5 0
10570.5 0
10571.5 0
10572.5 0
10573.5 0
10574.5 0
10575.5 0
10576.5 0
10577.5 0
10578.5 1
10579.5 -0.875
10580.5 0
10581.5 0
10582.5 0
10583.5 0
10584.5 0
10585.5 0
10586.5 0
10587.5 0
10588.5 0
10589.5 0
10590.5 0
10591.5 0
10592.5 0
10593.5 0
10594.5 0
10595.5 0
10596.5 0
10597.5 0
10598.5 0
10599.5 0
10600.5 0
10601.5 0
10602.5 0
10603.5 0
10604.5 0
10605.5 0
10606.5 -0.875
10607.5 0
10608.5 0
10609.5 0
10610.5 0
10611.5 0
10612.5 0
10613.5 0
10614.5 0
10615.5 0
10616.5 0
10617.5 0
10618.5 0
10619.5 0
10620.5 0
10621.5 0
10622.5 0
10623.5 0
10624.5 0
10625.5 0
10626.5 0
10627.5 0
10628.5 0
10629.5 0
10630.5 0
10631.5 0
10632.5 0
10633.5 0
10634.5 0
10635.5 0
10636.5 1
10637.5 0
10638.5 0
10639.5 0
10640.5 0
10641.5 0
10642.5 0
10643.5 0
10644.5 0
10645.5 0
10646.5 0
10647.5 0
10648.5 0
10649.5 0
10650.5 0
10651.5 0
10652.5 0
10653.5 0
10654.5 1
10655.5 1
10656.5 0
10657.5 0
10658.5 1
10659.5 0
10660.5 0
10661.5 0
10662.5 0
10663.5 0
10664.5 0
10665.5 0
10666.5 0
10667.5 -0.875
10668.5 0
10669.5 0
10670.5 0
10671.5 0
10672.5 0
10673.5 0
10674.5 0
10675.5 0
10676.5 0
10677.5 0
10678.5 0
10679.5 0
10680.5 0
10681.5 0
10682.5 -0.875
10683.5 0
10684.5 0
10685.5 -0.875
10686.5 0
10687.5 0
10688.5 0
10689.5 -0.875
10690.5 0
10691.5 0
10692.5 0
10693.5 0
10694.5 0
10695.5 0
10696.5 0
10697.5 0
10698.5 0
10699.5 0
10700.5 0
10701.5 0
10702.5 0
10703.5 0
10704.5 0
10705.5 0
10706.5 0
10707.5 1
10708.5 0
10709.5 0
10710.5 0
10711.5 0
10712.5 0
10713.5 0
10714.5 0
10715.5 0
10716.5 0
10717.5 0
10718.5 0
10719.5 0
10720.5 0
10721.5 0
10722.5 0
10723.5 0
10724.5 0
10725.5 0
10726.5 0
10727.5 0
10728.5 0
10729.5 1
10730.5 0
10731.5 0
10732.5 0
10733.5 0
10734.5 0
10735.5 0
10736.5 0
10737.5 0
10738.5 0
10739.5 0
10740.5 0
10741.5 0
10742.5 0
10743.5 0
10744.5 0
10745.5 0
10746.5 0
10747.5 0
10748.5 0
10749.5 0
10750.5 0
10751.5 0
10752.5 1
10753.5 0
10754.5 0
10755.5 0
10756.5 0
10757.5 0
10758.5 0
10759.5 0
10760.5 0
10761.5 0
10762.5 0
10763.5 0
10764.5 1
10765.5 0
10766.5 0
10767.5 0
10768.5 0
10769.5 0
10770.5 0
10771.5 0
10772.5 0
10773.5 0
10774.5 0
10775.5 0
10776.5 0
10777.5 0
10778.5 0
10779.5 0
10780.5 0
10781.5 0
10782.5 0
10783.5 0
10784.5 0
10785.5 0
10786.5 0
10787.5 0
10788.5 0
10789.5 0
10790.5 1
10791.5 0
10792.5 0
10793.5 0
10794.5 0
10795.5 0
10796.5 0
10797.5 0
10798.5 0
10799.5 0
10800.5 -0.875
10801.5 0
10802.5 0
10803.5 0
10804.5 0
10805.5 0
10806.5 0
10807.5 0
10808.5 0
10809.5 1
10810.5 0
10811.5 0
10812.5 0
10813.5 -1.75
10814.5 0
10815.5 0
10816.5 0
10817.5 0
10818.5 0
10819.5 0
10820.5 0
10821.5 0
10822.5 0
10823.5 0
10824.5 0
10825.5 0
10826.5 0
10827.5 0
10828.5 0
10829.5 0
10830.5 0
10831.5 0
10832.5 -0.875
10833.5 0
10834.5 0
10835.5 0
10836.5 0
10837.5 0
10838.5 0
10839.5 0
10840.5 0
10841.5 0
10842.5 0
10843.5 0
10844.5 0
10845.5 0
10846.5 0
10847.5 0
10848.5 0
10849.5 0
10850.5 0
10851.5 0
10852.5 0
10853.5 0
10854.5 0
10855.5 0
10856.5 0
10857.5 0
10858.5 0
10859.5 0
10860.5 0
10861.5 0
10862.5 0
10863.5 0
10864.5 0
10865.5 0
10866.5 0
10867.5 0
10868.5 0
10869.5 0
10870.5 0
10871.5 0
10872.5 0
10873.5 0
10874.5 0
10875.5 0
10876.5 0
10877.5 0
10878.5 0
10879.5 0
10880.5 0
10881.5 0
10882.5 0
10883.5 0
10884.5 0
10885.5 0
10886.5 -0.875
10887.5 0
10888.5 0
10889.5 0
10890.5 0
10891.5 1
10892.5 0
10893.5 0
10894.5 0
10895.5 0
10896.5 0
10897.5 1
10898.5 0
10899.5 -0.875
10900.5 0
10901.5 0
10902.5 0
10903.5 0
10904.5 1
10905.5 0
10906.5 0
10907.5 1
10908.5 0
10909.5 0
10910.5 -0.875
10911.5 0
10912.5 0
10913.5 0
10914.5 0
10915.5 0
10916.5 0
10917.5 0
10918.5 0
10919.5 0
10920.5 0
10921.5 0
10922.5 0
10923.5 0
10924.5 0
10925.5 0
10926.5 0
10927.5 0
10928.5 0
10929.5 0
10930.5 0
10931.5 0
10932.5 0
10933.5 0
10934.5 0
10935.5 0
10936.5 0
10937.5 0
10938.5 0
10939.5 0
10940.5 0
10941.5 0
10942.5 -0.875
10943.5 0
10944.5 0
10945.5 -0.875
10946.5 0
10947.5 0
10948.5 0
10949.5 0
10950.5 0
10951.5 0
10952.5 0
10953.5 0
10954.5 0
10955.5 -0.875
10956.5 0
10957.5 0
10958.5 0
10959.5 0
10960.5 -0.875
10961.5 0
10962.5 0
10963.5 0
10964.5 0
10965.5 0
10966.5 0
10967.5 0
10968.5 1
10969.5 0
10970.5 0
10971.5 0
10972.5 0
10973.5 0
10974.5 0
10975.5 0
10976.5 0
10977.5 0
10978.5 1
10979.5 -0.875
10980.5 0
10981.5 0
10982.5 0
10983.5 0
10984.5 0
10985.5 0
10986.5 0
10987.5 0
10988.5 0
10989.5 1
10990.5 0
10991.5 0
10992.5 0
10993.5 0
10994.5 0
10995.5 0
10996.5 0
10997.5 0
10998.5 0
10999.5 0
11000.5 0
11001.5 0
11002.5 0
11003.5 0
11004.5 0
11005.5 0
11006.5 0
11007.5 0
11008.5 0
11009.5 0
11010.5 0
11011.5 0
11012.5 0
11013.5 0
11014.5 0
11015.5 0
11016.5 0
11017.5 0
11018.5 0
11019.5 1
11020.5 0
11021.5 0
11022.5 0
11023.5 0
11024.5 0
11025.5 0
11026.5 0
11027.5 0
11028.5 0
11029.5 0
11030.5 0
11031.5 0
11032.5 0
11033.5 0
11034.5 0
11035.5 0
11036.5 0
11037.5 0
11038.5 0
11039.5 0
11040.5 0
11041.5 0
11042.5 0
11043.5 0
11044.5 0
11045.5 0
11046.5 0
11047.5 0
11048.5 0
11049.5 0
11050.5 0
11051.5 0
11052.5 0
11053.5 0
11054.5 0
11055.5 0
11056.5 0
11057.5 0
11058.5 0
11059.5 1
11060.5 0
11061.5 0
11062.5 0
11063.5 0
11064.5 0
11065.5 0
11066.5 0
11067.5 0
11068.5 0
11069.5 0
11070.5 0
11071.5 0
11072.5 0
11073.5 0
11074.5 0
11075.5 0
11076.5 0
11077.5 0
11078.5 0
11079.5 0
11080.5 0
11081.5 0
11082.5 0
11083.5 0
11084.5 0
11085.5 0
11086.5 0
11087.5 0
11088.5 -0.875
11089.5 0
11090.5 0
11091.5 0
11092.5 0
11093.5 0
11094.5 0
11095.5 0
11096.5 0
11097.5 0
11098.5 0
11099.5 0
11100.5 0
11101.5 0
11102.5 0
11103.5 0
11104.5 0
11105.5 0
11106.5 0
11107.5 0
11108.5 0
11109.5 0
11110.5 0
11111.5 0
11112.5 0
11113.5 0
11114.5 0
11115.5 0
11116.5 1
11117.5 0
11118.5 0
11119.5 0
11120.5 0
11121.5 0
11122.5 0
11123.5 0
11124.5 0
11125.5 0
11126.5 0
11127.5 0
11128.5 0
11129.5 0
11130.5 0
11131.5 0
11132.5 0
11133.5 0
11134.5 0
11135.5 0
11136.5 0
11137.5 1
11138.5 0
11139.5 0
11140.5 0
11141.5 0
11142.5 0
11143.5 0
11144.5 0
11145.5 0
11146.5 0
11147.5 0
11148.5 0
11149.5 0
11150.5 1
11151.5 0
11152.5 0
11153.5 0
11154.5 0
11155.5 0
11156.5 0
11157.5 0
11158.5 1
11159.5 0
11160.5 0
11161.5 0
11162.5 0
11163.5 0
11164.5 0
11165.5 0
11166.5 0
11167.5 0
11168.5 0
11169.5 0
11170.5 0
11171.5 0
11172.5 0
11173.5 0
11174.5 0
11175.5 0
11176.5 0
11177.5 0
11178.5 0
11179.5 0
11180.5 0
11181.5 0
11182.5 0
11183.5 0
11184.5 0
11185.5 0
11186.5 0
11187.5 0
11188.5 0
11189.5 0
11190.5 0
11191.5 0
11192.5 0
11193.5 0
11194.5 1
11195.5 0
11196.5 0
11197.5 0
11198.5 0
11199.5 0
11200.5 0
11201.5 0
11202.5 0
11203.5 0
11204.5 0
11205.5 0
11206.5 0
11207.5 1
11208.5 0
11209.5 0
11210.5 0
11211.5 0
11212.5 0
11213.5 -0.875
11214.5 0
11215.5 0
11216.5 0
11217.5 0
11218.5 0
11219.5 0
11220.5 0
11221.5 0
11222.5 0
11223.5 0
11224.5 0
11225.5 0
11226.5 0
11227.5 0
11228.5 0
11229.5 0
11230.5 0
11231.5 0
11232.5 1
11233.5 0
11234.5 0
11235.5 0
11236.5 0
11237.5 0
11238.5 0
11239.5 0
11240.5 0
11241.5 0
11242.5 0
11243.5 0
11244.5 0
11245.5 0
11246.5 0
11247.5 0
11248.5 0
11249.5 0
11250.5 0
11251.5 0
11252.5 0
11253.5 0
11254.5 -0.875
11255.5 0
11256.5 0
11257.5 0
11258.5 -0.875
11259.5 0
11260.5 0
11261.5 0
11262.5 0
11263.5 1
11264.5 0
11265.5 0
11266.5 0
11267.5 0
11268.5 0
11269.5 0
11270.5 0
11271.5 0
11272.5 0
11273.5 0
11274.5 0
11275.5 -0.875
11276.5 1
11277.5 0
11278.5 -0.875
11279.5 0
11280.5 0
11281.5 0
11282.5 -0.875
11283.5 0
11284.5 0
11285.5 0
11286.5 0
11287.5 0
11288.5 0
11289.5 0
11290.5 0
11291.5 0
11292.5 0
11293.5 0
11294.5 0
11295.5 0
11296.5 0
11297.5 0
11298.5 0
11299.5 0
11300.5 0
11301.5 0
11302.5 0
11303.5 0
11304.5 0
11305.5 0
11306.5 0
11307.5 0
11308.5 -0.875
11309.5 0
11310.5 0
11311.5 0
11312.5 0
11313.5 0
11314.5 0
11315.5 0
11316.5 0
11317.5 0
11318.5 0
11319.5 0
11320.5 0
11321.5 0
11322.5 0
11323.5 0
11324.5 0
11325.5 0
11326.5 0
11327.5 0
11328.5 0
11329.5 0
11330.5 -0.875
11331.5 0
11332.5 0
11333.5 0
11334.5 0
11335.5 0
11336.5 0
11337.5 0
11338.5 0
11339.5 0
11340.5 0
11341.5 0
11342.5 0
11343.5 0
11344.5 0
11345.5 0
11346.5 0
11347.5 0
11348.5 0
11349.5 0
11350.5 0
11351.5 0
11352.5 0
11353.5 0
11354.5 0
11355.5 0
11356.5 0
11357.5 0
11358.5 0
11359.5 0
11360.5 0
11361.5 0
11362.5 0
11363.5 0
11364.5 0
11365.5 0
11366.5 1
11367.5 0
11368.5 0
11369.5 0
11370.5 0
11371.5 0
11372.5 0
11373.5 0
11374.5 0
11375.5 0
11376.5 0
11377.5 0
11378.5 0
11379.5 0
11380.5 0
11381.5 0
11382.5 0
11383.5 0
11384.5 0
11385.5 0
11386.5 0
11387.5 0
11388.5 0
11389.5 0
11390.5 0
11391.5 0
11392.5 0
11393.5 0
11394.5 0
11395.5 0
11396.5 0
11397.5 0
11398.5 0
11399.5 0
11400.5 0
11401.5 0
11402.5 0
11403.5 0
11404.5 0
11405.5 1
11406.5 0
11407.5 0
11408.5 0
11409.5 0
11410.5 0
11411.5 0
11412.5 0
11413.5 0
11414.5 0
11415.5 0
11416.5 0
11417.5 0
11418.5 0
11419.5 0
11420.5 0
11421.5 0
11422.5 0
11423.5 0
11424.5 0
11425.5 0
11426.5 0
11427.5 0
11428.5 0
11429.5 0
11430.5 0
11431.5 0
11432.5 0
11433.5 0
11434.5 0
11435.5 0
11436.5 0
11437.5 0
11438.5 0
11439.5 0
11440.5 0
11441.5 0
11442.5 0
11443.5 0
11444.5 1
11445.5 0
11446.5 0
11447.5 -0.875
11448.5 0
11449.5 0
11450.5 0
11451.5 0
11452.5 0
11453.5 0
11454.5 0
11455.5 0
11456.5 1
11457.5 0
11458.5 0
11459.5 0
11460.5 0
11461.5 0
11462.5 0
11463.5 0
11464.5 0
11465.5 0
11466.5 0
11467.5 0
11468.5 0
11469.5 0
11470.5 0
11471.5 0
11472.5 0
11473.5 0
11474.5 0
11475.5 0
11476.5 0
11477.5 0
11478.5 0
11479.5 0
11480.5 0
11481.5 0
11482.5 0
11483.5 0
11484.5 0
11485.5 0
11486.5 0
11487.5 0
11488.5 0
11489.5 0
11490.5 0
11491.5 0
11492.5 0
11493.5 0
11494.5 0
11495.5 0
11496.5 0
11497.5 0
11498.5 1
11499.5 0
11500.5 0
11501.5 0
11502.5 0
11503.5 0
11504.5 0
11505.5 0
11506.5 -0.875
11507.5 0
11508.5 0
11509.5 0
11510.5 0
11511.5 0
11512.5 0
11513.5 0
11514.5 0
11515.5 0
11516.5 0
11517.5 0
11518.5 -0.875
11519.5 0
11520.5 0
11521.5 0
11522.5 0
11523.5 0
11524.5 0
11525.5 0
11526.5 0
11527.5 0
11528.5 0
11529.5 0
11530.5 0
11531.5 0
11532.5 0
11533.5 0
11534.5 0
11535.5 0
11536.5 -0.875
11537.5 0
11538.5 0
11539.5 0
11540.5 0
11541.5 0
11542.5 0
11543.5 0
11544.5 0
11545.5 0
11546.5 0
11547.5 0
11548.5 0
11549.5 0
11550.5 0
11551.5 0
11552.5 0
11553.5 0
11554.5 0
11555.5 0
11556.5 0
11557.5 0
11558.5 0
11559.5 0
11560.5 0
11561.5 0
11562.5 0
11563.5 0
11564.5 0
11565.5 0
11566.5 0
11567.5 0
11568.5 0
11569.5 0
11570.5 0
11571.5 0
11572.5 0
11573.5 0
11574.5 0
11575.5 0
11576.5 0
11577.5 0
11578.5 0
11579.5 0
11580.5 0
11581.5 0
11582.5 0
11583.5 0
11584.5 0
11585.5 0
11586.5 0
11587.5 0
11588.5 0
11589.5 0
11590.5 0
11591.5 0
11592.5 0
11593.5 0
11594.5 0
11595.5 0
11596.5 0
11597.5 0
11598.5 0
11599.5 0
11600.5 0
11601.5 0
11602.5 0
11603.5 0
11604.5 0
11605.5 0
11606.5 0
11607.5 0
11608.5 0
11609.5 0
11610.5 0
11611.5 -0.875
11612.5 0
11613.5 0
11614.5 0
11615.5 0
11616.5 0
11617.5 0
11618.5 0
11619.5 1
11620.5 0
11621.5 0
11622.5 0
11623.5 0
11624.5 0
11625.5 0
11626.5 0
11627.5 0
11628.5 0
11629.5 0
11630.5 0
11631.5 0
11632.5 0
11633.5 1
11634.5 0
11635.5 0
11636.5 0
11637.5 0
11638.5 0
11639.5 0
11640.5 0
11641.5 0
11642.5 0
11643.5 1
11644.5 0
11645.5 0
11646.5 0
11647.5 0
11648.5 0
11649.5 0
11650.5 0
11651.5 0
11652.5 0
11653.5 0
11654.5 0
11655.5 0
11656.5 0
11657.5 0
11658.5 0
11659.5 0
11660.5 0
11661.5 0
11662.5 0
11663.5 0
11664.5 0
11665.5 0
11666.5 0
11667.5 0
11668.5 0
11669.5 0
11670.5 0
11671.5 0
11672.5 0
11673.5 0
11674.5 0
11675.5 0
11676.5 0
11677.5 0
11678.5 0
11679.5 0
11680.5 0
11681.5 -0.875
11682.5 0
11683.5 0
11684.5 -0.875
11685.5 0
11686.5 0
11687.5 0
11688.5 1
11689.5 0
11690.5 0
11691.5 0
11692.5 0
11693.5 0
11694.5 0
11695.5 0
11696.5 0
11697.5 0
11698.5 0
11699.5 -0.875
11700.5 0
11701.5 0
11702.5 0
11703.5 0
11704.5 0
11705.5 0
11706.5 0
11707.5 0
11708.5 0
11709.5 0
11710.5 0
11711.5 0
11712.5 0
11713.5 0
11714.5 0
11715.5 0
11716.5 0
11717.5 0
11718.5 0
11719.5 1
11720.5 1
11721.5 0
11722.5 0
11723.5 0
11724.5 0
11725.5 0
11726.5 1
11727.5 0
11728.5 0
11729.5 0
11730.5 0
11731.5 0
11732.5 0
11733.5 0
11734.5 0
11735.5 0
11736.5 0
11737.5 0
11738.5 0
11739.5 0
11740.5 0
11741.5 0
11742.5 0
11743.5 0
11744.5 0
11745.5 0
11746.5 0
11747.5 0
11748.5 0
11749.5 0
11750.5 0
11751.5 0
11752.5 0
11753.5 0
11754.5 0
11755.5 0
11756.5 0
11757.5 0
11758.5 0
11759.5 0
11760.5 0
11761.5 0
11762.5 0
11763.5 0
11764.5 0
11765.5 0
11766.5 0
11767.5 0
11768.5 0
11769.5 0
11770.5 0
11771.5 0
11772.5 0
11773.5 0
11774.5 0
11775.5 0
11776.5 0
11777.5 0
11778.5 0
11779.5 0
11780.5 0
11781.5 0
11782.5 0
11783.5 0
11784.5 0
11785.5 0
11786.5 0
11787.5 0
11788.5 0
11789.5 0
11790.5 0
11791.5 0
11792.5 0
11793.5 0
11794.5 0
11795.5 0
11796.5 0
11797.5 0
11798.5 0
11799.5 0
11800.5 0
11801.5 0
11802.5 0
11803.5 0
11804.5 0
11805.5 0
11806.5 0
11807.5 0
11808.5 0
11809.5 0
11810.5 0
11811.5 0
11812.5 0
11813.5 0
11814.5 0
11815.5 0
11816.5 0
11817.5 0
11818.5 0
11819.5 -0.875
11820.5 0
11821.5 0
11822.5 0
11823.5 0
11824.5 0
11825.5 0
11826.5 0
11827.5 0
11828.5 0
11829.5 0
11830.5 0
11831.5 0
11832.5 0
11833.5 0
11834.5 0
11835.5 0
11836.5 0
11837.5 0
11838.5 0
11839.5 0
11840.5 0
11841.5 0
11842.5 0
11843.5 0
11844.5 0
11845.5 0
11846.5 0
11847.5 0
11848.5 0
11849.5 0
11850.5 0
11851.5 0
11852.5 0
11853.5 0
11854.5 0
11855.5 0
11856.5 0
11857.5 0
11858.5 0
11859.5 0
11860.5 0
11861.5 0
11862.5 0
11863.5 0
11864.5 0
11865.5 0
11866.5 0
11867.5 0
11868.5 0
11869.5 0
11870.5 0
11871.5 0
11872.5 0
11873.5 0
11874.5 0
11875.5 0
11876.5 0
11877.5 0
11878.5 0
11879.5 0
11880.5 0
11881.5 0
11882.5 0
11883.5 0
11884.5 0
11885.5 0
11886.5 0
11887.5 0
11888.5 0
11889.5 0
11890.5 0
11891.5 0
11892.5 0
11893.5 0
11894.5 0
11895.5 0
11896.5 0
11897.5 0
11898.5 0
11899.5 0
11900.5 1
11901.5 0
11902.5 0
11903.5 0
11904.5 0
11905.5 0
11906.5 0
11907.5 0
11908.5 0
11909.5 0
11910.5 0
11911.5 0
11912.5 0
11913.5 0
11914.5 0
11915.5 0
11916.5 0
11917.5 0
11918.5 0
11919.5 0
11920.5 0
11921.5 0
11922.5 0
11923.5 0
11924.5 0
11925.5 0
11926.5 0
11927.5 0
11928.5 0
11929.5 0
11930.5 0
11931.5 0
11932.5 0
11933.5 0
11934.5 0
11935.5 0
11936.5 0
11937.5 0
11938.5 0
11939.5 0
11940.5 0
11941.5 0
11942.5 0
11943.5 0
11944.5 0
11945.5 0
11946.5 0
11947.5 0
11948.5 0
11949.5 0
11950.5 0
11951.5 0
11952.5 0
11953.5 0
11954.5 0
11955.5 0
11956.5 0
11957.5 0
11958.5 0
11959.5 0
11960.5 0
11961.5 0
11962.5 0
11963.5 0
11964.5 0
11965.5 0
11966.5 0
11967.5 0
11968.5 0
11969.5 0
11970.5 0
11971.5 0
11972.5 0
11973.5 0
11974.5 0
11975.5 0
11976.5 0
11977.5 0
11978.5 0
11979.5 0
11980.5 0
11981.5 0
11982.5 0
11983.5 0
11984.5 0
11985.5 0
11986.5 0
11987.5 0
11988.5 0
11989.5 0
11990.5 0
11991.5 0
11992.5 0
11993.5 0
11994.5 0
11995.5 0
11996.5 0
11997.5 0
11998.5 0
11999.5 0
